Unit:(mV)
                     CH1         CH2
Frequency              ?           ?
00001              22.00    -4000.00
00002              16.00    -3800.00
00003               8.00    -4000.00
00004               8.00    -4000.00
00005              10.00    -4000.00
00006              22.00    -3800.00
00007              22.00    -3800.00
00008              16.00    -4000.00
00009               8.00    -3800.00
00010               6.00    -4000.00
00011              16.00    -3800.00
00012              32.00    -4000.00
00013              24.00    -3800.00
00014              14.00    -3800.00
00015              10.00    -4000.00
00016              12.00    -3800.00
00017              16.00    -4000.00
00018              26.00    -3800.00
00019              24.00    -3600.00
00020              18.00    -3800.00
00021              16.00    -3800.00
00022              16.00    -3800.00
00023              22.00    -3800.00
00024              22.00    -3800.00
00025              22.00    -3800.00
00026              22.00    -3600.00
00027              22.00    -3600.00
00028              22.00    -3600.00
00029              22.00    -3600.00
00030              16.00    -3600.00
00031              18.00    -3600.00
00032              24.00    -3600.00
00033              26.00    -3600.00
00034              24.00    -3600.00
00035              16.00    -3600.00
00036              14.00    -3600.00
00037              22.00    -3400.00
00038              22.00    -3200.00
00039              22.00    -3400.00
00040              14.00    -3400.00
00041              14.00    -3200.00
00042              18.00    -3400.00
00043              26.00    -3200.00
00044              22.00    -3200.00
00045              16.00    -3200.00
00046               8.00    -3000.00
00047               8.00    -3000.00
00048              16.00    -3000.00
00049              18.00    -3000.00
00050              16.00    -3000.00
00051              10.00    -2800.00
00052               8.00    -2800.00
00053              16.00    -2800.00
00054              22.00    -2800.00
00055              14.00    -2800.00
00056               6.00    -2800.00
00057               8.00    -2400.00
00058              10.00    -2600.00
00059              16.00    -2400.00
00060              16.00    -2400.00
00061              12.00    -2400.00
00062               8.00    -2400.00
00063               2.00    -2400.00
00064               4.00    -2200.00
00065              10.00    -2200.00
00066              14.00    -2200.00
00067              10.00    -2000.00
00068               8.00    -2000.00
00069               2.00    -2000.00
00070               0.00    -1800.00
00071              10.00    -1800.00
00072              18.00    -1800.00
00073              14.00    -1600.00
00074              -2.00    -1600.00
00075              -8.00    -1400.00
00076               6.00    -1400.00
00077              18.00    -1400.00
00078               8.00    -1400.00
00079              -2.00    -1200.00
00080              -2.00    -1000.00
00081               6.00    -1200.00
00082              10.00    -1000.00
00083               8.00     -800.00
00084              -6.00     -800.00
00085              -2.00     -800.00
00086               6.00     -800.00
00087              10.00     -600.00
00088               0.00     -800.00
00089              -8.00     -800.00
00090               0.00     -600.00
00091              14.00     -400.00
00092              10.00     -600.00
00093              -8.00     -400.00
00094             -10.00     -400.00
00095               0.00     -400.00
00096              14.00        0.00
00097               6.00        0.00
00098              -6.00        0.00
00099             -14.00        0.00
00100              -8.00        0.00
00101               8.00      200.00
00102              10.00      200.00
00103               6.00      200.00
00104              -2.00      200.00
00105               0.00      400.00
00106               0.00      400.00
00107              -6.00      400.00
00108              -8.00      400.00
00109               0.00      400.00
00110              18.00      800.00
00111             146.00      800.00
00112             156.00     1000.00
00113            -254.00      800.00
00114            -254.00      800.00
00115             246.00     1200.00
00116             246.00     1200.00
00117             -80.00     1200.00
00118            -254.00      800.00
00119              40.00     1600.00
00120             246.00     1600.00
00121            -144.00     1200.00
00122            -254.00     1400.00
00123             214.00     1800.00
00124             246.00     1600.00
00125            -206.00     1600.00
00126             -62.00     2000.00
00127              38.00     1800.00
00128            -162.00     1800.00
00129             138.00     2000.00
00130             198.00     2000.00
00131            -254.00     1800.00
00132             -56.00     2000.00
00133             142.00     2400.00
00134             -60.00     2200.00
00135              54.00     2200.00
00136              -2.00     2400.00
00137            -210.00     2400.00
00138             154.00     2600.00
00139             146.00     2600.00
00140            -254.00     2400.00
00141              12.00     2800.00
00142             182.00     2800.00
00143            -126.00     2600.00
00144              -8.00     2800.00
00145              40.00     3000.00
00146            -100.00     2800.00
00147              58.00     3200.00
00148              26.00     3200.00
00149             -90.00     2800.00
00150              38.00     3200.00
00151             -18.00     3200.00
00152             -42.00     3200.00
00153              72.00     3400.00
00154             -52.00     3200.00
00155             -58.00     3400.00
00156              54.00     3400.00
00157             -26.00     3400.00
00158             -40.00     3400.00
00159              30.00     3600.00
00160             -22.00     3400.00
00161             -32.00     3400.00
00162             -10.00     3600.00
00163             -14.00     3600.00
00164               6.00     3600.00
00165             -14.00     3800.00
00166             -34.00     3600.00
00167              -6.00     3600.00
00168             -10.00     4000.00
00169             -32.00     3600.00
00170               2.00     4000.00
00171              -6.00     4000.00
00172             -36.00     4000.00
00173             -10.00     4000.00
00174              -2.00     4200.00
00175             -32.00     3800.00
00176             -18.00     4000.00
00177              -6.00     4000.00
00178             -14.00     4000.00
00179             -16.00     4000.00
00180             -30.00     4000.00
00181             -22.00     4000.00
00182              -4.00     4000.00
00183             -26.00     4200.00
00184             -18.00     4000.00
00185              -8.00     4200.00
00186             -26.00     4200.00
00187             -18.00     4200.00
00188             -14.00     4400.00
00189             -30.00     4200.00
00190             -24.00     4200.00
00191              -6.00     4200.00
00192              -6.00     4200.00
00193             -16.00     4200.00
00194             -30.00     4400.00
00195             -32.00     4200.00
00196             -14.00     4200.00
00197              -8.00     4200.00
00198             -24.00     4200.00
00199             -34.00     4200.00
00200             -32.00     4400.00
00201             -10.00     4200.00
00202               0.00     4200.00
00203             -24.00     4400.00
00204             -48.00     4200.00
00205             -30.00     4200.00
00206              -6.00     4200.00
00207              -8.00     4400.00
00208             -28.00     4200.00
00209             -38.00     4000.00
00210             -34.00     4200.00
00211             -22.00     4200.00
00212             -14.00     4200.00
00213             -16.00     4000.00
00214             -24.00     4200.00
00215             -34.00     4000.00
00216             -30.00     4000.00
00217             -28.00     4000.00
00218             -34.00     4000.00
00219             -24.00     4000.00
00220             -10.00     4000.00
00221             -22.00     4000.00
00222             -34.00     4000.00
00223             -40.00     4000.00
00224             -26.00     3800.00
00225             -14.00     4000.00
00226             -22.00     3800.00
00227             -32.00     3800.00
00228             -38.00     3800.00
00229             -30.00     3800.00
00230             -16.00     3600.00
00231             -14.00     3600.00
00232             -24.00     3600.00
00233             -34.00     3600.00
00234             -32.00     3600.00
00235             -26.00     3400.00
00236             -18.00     3400.00
00237             -14.00     3600.00
00238             -18.00     3400.00
00239             -26.00     3400.00
00240             -30.00     3200.00
00241             -24.00     3200.00
00242             -20.00     3200.00
00243             -18.00     3200.00
00244             -18.00     3200.00
00245             -18.00     3200.00
00246             -22.00     3000.00
00247             -22.00     3000.00
00248             -24.00     2800.00
00249             -16.00     2800.00
00250             -16.00     2800.00
00251             -14.00     2800.00
00252             -16.00     2800.00
00253             -22.00     2600.00
00254             -26.00     2600.00
00255             -16.00     2600.00
00256             -10.00     2400.00
00257              -8.00     2400.00
00258             -12.00     2400.00
00259             -14.00     2400.00
00260             -18.00     2400.00
00261             -16.00     2200.00
00262             -14.00     2000.00
00263             -12.00     2000.00
00264             -10.00     2000.00
00265             -12.00     2000.00
00266             -10.00     1800.00
00267             -10.00     1800.00
00268             -14.00     1800.00
00269             -10.00     1800.00
00270              -6.00     1800.00
00271              -8.00     1600.00
00272              -8.00     1600.00
00273             -10.00     1600.00
00274             -10.00     1200.00
00275             -10.00     1200.00
00276             -10.00     1400.00
00277              -2.00     1200.00
00278              -6.00     1200.00
00279              -8.00     1000.00
00280             -14.00     1000.00
00281              -8.00     1000.00
00282              -8.00     1000.00
00283              -6.00      800.00
00284              -2.00      800.00
00285              -2.00      800.00
00286              -8.00      600.00
00287             -10.00      400.00
00288              -6.00      400.00
00289              -2.00      400.00
00290              -2.00      400.00
00291              -8.00      400.00
00292             -10.00      200.00
00293              -6.00      200.00
00294               0.00      200.00
00295              -2.00        0.00
00296               6.00        0.00
00297               6.00        0.00
00298              -4.00     -400.00
00299             -12.00        0.00
00300              -6.00        0.00
00301               6.00     -400.00
00302              34.00     -400.00
00303             140.00     -600.00
00304             122.00     -800.00
00305            -254.00     -800.00
00306            -254.00     -600.00
00307             240.00     -600.00
00308             246.00     -800.00
00309              64.00    -1000.00
00310            -254.00     -800.00
00311            -106.00     -800.00
00312             246.00    -1200.00
00313              80.00    -1000.00
00314            -254.00    -1200.00
00315             -64.00    -1400.00
00316             246.00    -1400.00
00317              82.00    -1200.00
00318             -46.00    -1600.00
00319            -186.00    -1600.00
00320            -168.00    -1400.00
00321             246.00    -1600.00
00322             246.00    -1600.00
00323            -254.00    -1600.00
00324            -208.00    -2000.00
00325             168.00    -2000.00
00326             126.00    -2000.00
00327               6.00    -2200.00
00328            -114.00    -2200.00
00329             -98.00    -2000.00
00330             138.00    -2200.00
00331             136.00    -2400.00
00332            -166.00    -2200.00
00333             -70.00    -2400.00
00334             128.00    -2400.00
00335              38.00    -2400.00
00336             -34.00    -2600.00
00337             -30.00    -2600.00
00338             -10.00    -2400.00
00339              42.00    -2800.00
00340              46.00    -2800.00
00341             -50.00    -2800.00
00342             -20.00    -2800.00
00343              38.00    -2800.00
00344              32.00    -3000.00
00345              -2.00    -3000.00
00346             -22.00    -2800.00
00347              -6.00    -3000.00
00348              32.00    -3000.00
00349              24.00    -3000.00
00350             -22.00    -3200.00
00351               6.00    -3000.00
00352              28.00    -3200.00
00353              -2.00    -3200.00
00354             -14.00    -3200.00
00355              16.00    -3200.00
00356              22.00    -3200.00
00357              10.00    -3400.00
00358              -2.00    -3400.00
00359              -4.00    -3600.00
00360               6.00    -3600.00
00361              16.00    -3600.00
00362              16.00    -3600.00
00363               6.00    -3600.00
00364              -2.00    -3800.00
00365               4.00    -3800.00
00366              18.00    -3800.00
00367               8.00    -3800.00
00368              -2.00    -3600.00
00369              14.00    -3600.00
00370              16.00    -3600.00
00371               2.00    -3800.00
00372               2.00    -3800.00
00373              12.00    -3800.00
00374              14.00    -3800.00
00375              10.00    -3800.00
00376               8.00    -3800.00
00377              12.00    -4000.00
00378              14.00    -3800.00
00379              10.00    -4000.00
00380               6.00    -4000.00
00381              12.00    -4000.00
00382               8.00    -4000.00
00383              18.00    -4000.00
00384              18.00    -4000.00
00385              10.00    -4000.00
00386               6.00    -4000.00
00387              10.00    -4000.00
00388              18.00    -3800.00
00389              16.00    -3800.00
00390              16.00    -3800.00
00391              14.00    -4000.00
00392              14.00    -3800.00
00393              14.00    -4000.00
00394              14.00    -4000.00
00395              22.00    -3800.00
00396              18.00    -4000.00
00397              22.00    -3800.00
00398              22.00    -4000.00
00399              14.00    -3800.00
00400              10.00    -3800.00
00401              20.00    -3800.00
00402              24.00    -3800.00
00403              26.00    -3800.00
00404              22.00    -3800.00
00405              18.00    -3800.00
00406              16.00    -3800.00
00407              18.00    -3800.00
00408              24.00    -3800.00
00409              26.00    -3600.00
00410              26.00    -3800.00
00411              18.00    -3600.00
00412              18.00    -3600.00
00413              18.00    -3600.00
00414              18.00    -3600.00
00415              22.00    -3600.00
00416              26.00    -3600.00
00417              22.00    -3400.00
00418              18.00    -3600.00
00419              16.00    -3200.00
00420              18.00    -3400.00
00421              18.00    -3200.00
00422              22.00    -3200.00
00423              22.00    -3200.00
00424              18.00    -3200.00
00425              16.00    -3200.00
00426              16.00    -3200.00
00427              16.00    -3200.00
00428              18.00    -3200.00
00429              20.00    -3200.00
00430              16.00    -3000.00
00431              14.00    -3000.00
00432              14.00    -3000.00
00433              14.00    -3000.00
00434              16.00    -2800.00
00435              14.00    -3000.00
00436              10.00    -2800.00
00437              14.00    -2800.00
00438              14.00    -2800.00
00439               8.00    -2800.00
00440               8.00    -2600.00
00441              10.00    -2600.00
00442              10.00    -2400.00
00443              14.00    -2600.00
00444              10.00    -2400.00
00445               6.00    -2400.00
00446               6.00    -2200.00
00447               8.00    -2200.00
00448              10.00    -2200.00
00449              10.00    -2200.00
00450              10.00    -2000.00
00451               8.00    -2000.00
00452               8.00    -2000.00
00453               6.00    -2000.00
00454               6.00    -1800.00
00455               8.00    -1600.00
00456               8.00    -1600.00
00457               6.00    -1600.00
00458               6.00    -1800.00
00459               2.00    -1600.00
00460               6.00    -1400.00
00461               2.00    -1400.00
00462               6.00    -1400.00
00463               6.00    -1200.00
00464               6.00    -1200.00
00465               2.00    -1000.00
00466               2.00    -1000.00
00467               0.00    -1000.00
00468               2.00     -800.00
00469               6.00     -800.00
00470               6.00     -800.00
00471               0.00     -800.00
00472               0.00     -600.00
00473               0.00     -600.00
00474              -2.00     -400.00
00475               4.00     -400.00
00476               4.00     -400.00
00477               0.00     -200.00
00478               0.00     -200.00
00479              -2.00        0.00
00480              -2.00        0.00
00481               0.00        0.00
00482              -2.00        0.00
00483              -2.00        0.00
00484              10.00      200.00
00485               4.00      400.00
00486              -4.00      200.00
00487               0.00      400.00
00488              10.00      400.00
00489              10.00      400.00
00490              -6.00      400.00
00491             -16.00      600.00
00492              -2.00      600.00
00493              26.00      800.00
00494             138.00      800.00
00495             166.00     1000.00
00496            -254.00      800.00
00497            -254.00      800.00
00498             246.00     1000.00
00499             246.00     1600.00
00500               8.00     1200.00
00501            -254.00     1000.00
00502             -38.00     1400.00
00503             246.00     1600.00
00504             -66.00     1200.00
00505            -254.00     1400.00
00506             166.00     1800.00
00507             246.00     1600.00
00508            -186.00     1600.00
00509             -88.00     2000.00
00510              42.00     1800.00
00511            -172.00     1600.00
00512             122.00     2000.00
00513             222.00     2000.00
00514            -254.00     2000.00
00515             -74.00     2000.00
00516             144.00     2200.00
00517             -60.00     2000.00
00518              38.00     2400.00
00519              14.00     2400.00
00520            -214.00     2200.00
00521             142.00     2600.00
00522             168.00     2600.00
00523            -254.00     2600.00
00524             -16.00     2800.00
00525             186.00     2800.00
00526            -114.00     2600.00
00527             -16.00     3000.00
00528              48.00     2800.00
00529            -104.00     2800.00
00530              48.00     3200.00
00531              38.00     3200.00
00532             -96.00     3200.00
00533              34.00     3000.00
00534             -14.00     3200.00
00535             -54.00     3200.00
00536              66.00     3400.00
00537             -42.00     3400.00
00538             -62.00     3400.00
00539              58.00     3400.00
00540             -24.00     3400.00
00541             -48.00     3600.00
00542              26.00     3600.00
00543             -16.00     3400.00
00544             -30.00     3600.00
00545              -8.00     3600.00
00546             -10.00     3600.00
00547               6.00     3600.00
00548             -14.00     3800.00
00549             -34.00     3600.00
00550              -2.00     4000.00
00551              -6.00     4000.00
00552             -32.00     3600.00
00553               2.00     3800.00
00554              -2.00     4000.00
00555             -40.00     4000.00
00556             -14.00     4000.00
00557               0.00     4000.00
00558             -28.00     4000.00
00559             -18.00     4000.00
00560              -2.00     4000.00
00561             -14.00     4000.00
00562             -14.00     4200.00
00563             -30.00     4000.00
00564             -22.00     4200.00
00565              -6.00     4200.00
00566             -22.00     4200.00
00567             -16.00     4200.00
00568              -2.00     4200.00
00569             -26.00     4200.00
00570             -30.00     4200.00
00571             -10.00     4200.00
00572             -18.00     4200.00
00573             -22.00     4200.00
00574             -12.00     4200.00
00575             -16.00     4200.00
00576             -24.00     4200.00
00577             -26.00     4400.00
00578             -24.00     4200.00
00579             -14.00     4200.00
00580             -16.00     4200.00
00581             -22.00     4200.00
00582             -16.00     4200.00
00583             -22.00     4200.00
00584             -30.00     4200.00
00585             -16.00     4400.00
00586             -16.00     4200.00
00587             -24.00     4200.00
00588             -22.00     4400.00
00589             -22.00     4200.00
00590             -30.00     4200.00
00591             -26.00     4200.00
00592             -24.00     4200.00
00593             -22.00     4200.00
00594             -22.00     4200.00
00595             -26.00     4200.00
00596             -26.00     4200.00
00597             -26.00     4000.00
00598             -32.00     4200.00
00599             -24.00     4000.00
00600             -18.00     4000.00
00601             -24.00     4000.00
00602             -26.00     4000.00
00603             -26.00     4000.00
00604             -30.00     4000.00
00605             -30.00     4000.00
00606             -26.00     3800.00
00607             -22.00     4000.00
00608             -24.00     4000.00
00609             -24.00     3800.00
00610             -26.00     3800.00
00611             -26.00     3800.00
00612             -30.00     3600.00
00613             -24.00     3600.00
00614             -16.00     3600.00
00615             -24.00     3600.00
00616             -26.00     3600.00
00617             -26.00     3600.00
00618             -24.00     3600.00
00619             -24.00     3600.00
00620             -22.00     3400.00
00621             -18.00     3400.00
00622             -22.00     3400.00
00623             -24.00     3400.00
00624             -24.00     3200.00
00625             -22.00     3200.00
00626             -22.00     3200.00
00627             -18.00     3200.00
00628             -16.00     3000.00
00629             -22.00     3000.00
00630             -22.00     3200.00
00631             -22.00     2800.00
00632             -16.00     2800.00
00633             -20.00     2800.00
00634             -16.00     2800.00
00635             -16.00     2800.00
00636             -16.00     2600.00
00637             -22.00     2600.00
00638             -16.00     2600.00
00639             -16.00     2600.00
00640             -14.00     2400.00
00641             -16.00     2400.00
00642             -16.00     2400.00
00643             -16.00     2200.00
00644             -16.00     2400.00
00645             -14.00     2200.00
00646             -10.00     2000.00
00647             -10.00     2000.00
00648             -10.00     2000.00
00649             -14.00     1800.00
00650             -14.00     2000.00
00651             -14.00     1800.00
00652             -10.00     1600.00
00653              -8.00     1600.00
00654             -10.00     1600.00
00655             -10.00     1600.00
00656              -8.00     1600.00
00657             -10.00     1600.00
00658             -10.00     1400.00
00659             -10.00     1200.00
00660              -6.00     1200.00
00661              -6.00     1200.00
00662             -10.00     1200.00
00663              -8.00     1000.00
00664              -8.00     1000.00
00665              -8.00     1000.00
00666              -6.00     1000.00
00667              -6.00      800.00
00668               0.00      800.00
00669              -6.00      800.00
00670              -8.00      400.00
00671              -6.00      400.00
00672              -2.00      400.00
00673              -4.00      400.00
00674              -8.00      400.00
00675              -8.00      200.00
00676               0.00      200.00
00677               2.00        0.00
00678               0.00        0.00
00679               2.00        0.00
00680               8.00        0.00
00681              -2.00        0.00
00682              -8.00     -200.00
00683              -8.00        0.00
00684               2.00     -200.00
00685              28.00     -400.00
00686             134.00     -400.00
00687             130.00     -600.00
00688            -254.00     -800.00
00689            -254.00     -600.00
00690             192.00     -400.00
00691             246.00     -600.00
00692             144.00    -1200.00
00693            -254.00     -800.00
00694            -178.00     -800.00
00695             246.00    -1200.00
00696             144.00    -1000.00
00697            -254.00    -1200.00
00698            -104.00    -1200.00
00699             246.00    -1400.00
00700              94.00    -1400.00
00701             -42.00    -1600.00
00702            -176.00    -1600.00
00703            -180.00    -1400.00
00704             242.00    -1600.00
00705             246.00    -1600.00
00706            -254.00    -1600.00
00707            -224.00    -2000.00
00708             158.00    -2000.00
00709             136.00    -1800.00
00710              10.00    -2000.00
00711            -112.00    -2200.00
00712            -104.00    -2000.00
00713             128.00    -2200.00
00714             150.00    -2400.00
00715            -158.00    -2200.00
00716             -82.00    -2200.00
00717             120.00    -2400.00
00718              42.00    -2400.00
00719             -38.00    -2600.00
00720             -26.00    -2400.00
00721             -10.00    -2800.00
00722              38.00    -2800.00
00723              46.00    -2800.00
00724             -42.00    -2800.00
00725             -22.00    -2800.00
00726              34.00    -2800.00
00727              32.00    -2800.00
00728              -6.00    -3000.00
00729             -16.00    -3000.00
00730              -2.00    -3000.00
00731              32.00    -3200.00
00732              22.00    -3200.00
00733             -24.00    -3200.00
00734               6.00    -3200.00
00735              32.00    -3200.00
00736               2.00    -3200.00
00737             -16.00    -3200.00
00738              14.00    -3200.00
00739              22.00    -3200.00
00740              14.00    -3200.00
00741               6.00    -3600.00
00742              -4.00    -3400.00
00743               6.00    -3600.00
00744              16.00    -3200.00
00745              16.00    -3600.00
00746              10.00    -3600.00
00747               2.00    -3600.00
00748               8.00    -3600.00
00749              16.00    -3600.00
00750               8.00    -3800.00
00751               0.00    -3800.00
00752              16.00    -3600.00
00753              18.00    -3800.00
00754               2.00    -3800.00
00755               6.00    -3800.00
00756              10.00    -3800.00
00757              14.00    -3800.00
00758              10.00    -3800.00
00759              14.00    -4000.00
00760              16.00    -3800.00
00761              14.00    -3800.00
00762               6.00    -3800.00
00763               2.00    -3800.00
00764               8.00    -4000.00
00765              14.00    -3800.00
00766              18.00    -4000.00
00767              18.00    -4000.00
00768               6.00    -3800.00
00769               6.00    -4000.00
00770              14.00    -4000.00
00771              16.00    -4000.00
00772              16.00    -4000.00
00773              14.00    -4000.00
00774              16.00    -4000.00
00775              16.00    -4000.00
00776              16.00    -3800.00
00777              14.00    -4000.00
00778              14.00    -4000.00
00779              18.00    -3800.00
00780              22.00    -4000.00
00781              22.00    -4000.00
00782              16.00    -3800.00
00783              10.00    -3800.00
00784              18.00    -3800.00
00785              24.00    -3800.00
00786              26.00    -3800.00
00787              22.00    -3800.00
00788              18.00    -3800.00
00789              16.00    -3800.00
00790              22.00    -3800.00
00791              22.00    -3800.00
00792              26.00    -3800.00
00793              26.00    -3800.00
00794              22.00    -3600.00
00795              18.00    -3600.00
00796              18.00    -3600.00
00797              20.00    -3600.00
00798              24.00    -3600.00
00799              26.00    -3600.00
00800              24.00    -3400.00
00801              18.00    -3600.00
00802              16.00    -3400.00
00803              22.00    -3400.00
00804              22.00    -3200.00
00805              24.00    -3400.00
00806              22.00    -3200.00
00807              18.00    -3200.00
00808              18.00    -3000.00
00809              18.00    -3200.00
00810              16.00    -3200.00
00811              16.00    -3000.00
00812              18.00    -3000.00
00813              18.00    -3000.00
00814              16.00    -3000.00
00815              14.00    -3000.00
00816              10.00    -2800.00
00817              14.00    -2800.00
00818              16.00    -2800.00
00819              14.00    -2800.00
00820              16.00    -2800.00
00821              10.00    -2800.00
00822               8.00    -2800.00
00823               8.00    -2600.00
00824              14.00    -2400.00
00825              14.00    -2400.00
00826              14.00    -2400.00
00827              10.00    -2200.00
00828               8.00    -2400.00
00829               8.00    -2200.00
00830               8.00    -2200.00
00831              10.00    -2200.00
00832              10.00    -2400.00
00833               8.00    -2000.00
00834               8.00    -2000.00
00835               6.00    -2200.00
00836               2.00    -1800.00
00837               6.00    -1800.00
00838               8.00    -1800.00
00839               8.00    -1800.00
00840               6.00    -1600.00
00841               6.00    -1600.00
00842               2.00    -1400.00
00843               0.00    -1400.00
00844               6.00    -1200.00
00845               6.00    -1400.00
00846               6.00    -1000.00
00847               2.00    -1200.00
00848               0.00    -1000.00
00849               0.00    -1000.00
00850               0.00     -800.00
00851               0.00     -800.00
00852               6.00     -800.00
00853               6.00     -600.00
00854               0.00     -600.00
00855               0.00     -600.00
00856               0.00     -600.00
00857               0.00     -600.00
00858               0.00     -400.00
00859               0.00     -400.00
00860               4.00     -400.00
00861               0.00     -200.00
00862              -2.00        0.00
00863              -2.00        0.00
00864               0.00        0.00
00865               0.00        0.00
00866              -2.00        0.00
00867               0.00      200.00
00868               6.00      200.00
00869               4.00      200.00
00870               2.00      400.00
00871               8.00      400.00
00872               6.00      600.00
00873              -2.00      400.00
00874              -8.00      600.00
00875               0.00      800.00
00876              16.00      800.00
00877             134.00      800.00
00878             182.00     1000.00
00879            -254.00      800.00
00880            -254.00      800.00
00881             222.00     1200.00
00882             246.00     1200.00
00883             104.00     1200.00
00884            -254.00      800.00
00885            -118.00     1600.00
00886             246.00     1600.00
00887              16.00     1200.00
00888            -254.00     1200.00
00889             118.00     1800.00
00890             246.00     1600.00
00891            -174.00     1200.00
00892             -98.00     1800.00
00893              62.00     2000.00
00894            -170.00     1600.00
00895             100.00     2000.00
00896             230.00     2000.00
00897            -246.00     1800.00
00898             -90.00     2000.00
00899             144.00     2400.00
00900             -46.00     2000.00
00901              32.00     2400.00
00902              26.00     2400.00
00903            -218.00     2200.00
00904             118.00     2600.00
00905             186.00     2600.00
00906            -254.00     2400.00
00907             -38.00     2600.00
00908             194.00     2800.00
00909            -102.00     2600.00
00910             -32.00     2800.00
00911              48.00     3000.00
00912            -102.00     2800.00
00913              42.00     3000.00
00914              50.00     3200.00
00915             -94.00     3000.00
00916              30.00     3200.00
00917              -8.00     3200.00
00918             -58.00     3200.00
00919              64.00     3400.00
00920             -38.00     3200.00
00921             -66.00     3200.00
00922              58.00     3400.00
00923             -14.00     3400.00
00924             -48.00     3400.00
00925              26.00     3600.00
00926             -16.00     3600.00
00927             -32.00     3400.00
00928             -10.00     3800.00
00929             -10.00     3600.00
00930              10.00     3600.00
00931              -8.00     3800.00
00932             -32.00     3800.00
00933              -6.00     3600.00
00934             -10.00     4000.00
00935             -32.00     3800.00
00936               0.00     4000.00
00937               6.00     4000.00
00938             -32.00     4000.00
00939             -14.00     4000.00
00940               0.00     4000.00
00941             -26.00     4000.00
00942             -18.00     4000.00
00943              -6.00     4000.00
00944             -12.00     4000.00
00945             -14.00     4200.00
00946             -24.00     4000.00
00947             -22.00     4000.00
00948              -8.00     4200.00
00949             -24.00     4200.00
00950             -16.00     4200.00
00951               0.00     4400.00
00952             -26.00     4200.00
00953             -26.00     4400.00
00954             -10.00     4200.00
00955             -18.00     4200.00
00956             -22.00     4400.00
00957             -14.00     4200.00
00958             -18.00     4200.00
00959             -22.00     4400.00
00960             -22.00     4200.00
00961             -24.00     4200.00
00962             -18.00     4200.00
00963             -18.00     4200.00
00964             -24.00     4200.00
00965             -16.00     4400.00
00966             -24.00     4400.00
00967             -32.00     4200.00
00968             -24.00     4200.00
00969             -18.00     4200.00
00970             -22.00     4200.00
00971             -18.00     4200.00
00972             -24.00     4400.00
00973             -30.00     4200.00
00974             -26.00     4200.00
00975             -24.00     4200.00
00976             -20.00     4000.00
00977             -22.00     4200.00
00978             -28.00     4200.00
00979             -24.00     4200.00
00980             -26.00     4200.00
00981             -34.00     4000.00
00982             -26.00     4000.00
00983             -24.00     4200.00
00984             -24.00     4000.00
00985             -24.00     4000.00
00986             -26.00     4000.00
00987             -30.00     4000.00
00988             -32.00     4000.00
00989             -24.00     4000.00
00990             -22.00     4000.00
00991             -22.00     3800.00
00992             -30.00     3800.00
00993             -32.00     3800.00
00994             -30.00     3800.00
00995             -26.00     3800.00
00996             -16.00     3800.00
00997             -16.00     3600.00
00998             -26.00     3600.00
00999             -32.00     3400.00
01000             -26.00     3400.00
01001             -22.00     3600.00
01002             -18.00     3400.00
01003             -16.00     3400.00
01004             -24.00     3400.00
01005             -24.00     3400.00
01006             -24.00     3400.00
01007             -24.00     3200.00
01008             -16.00     3200.00
01009             -18.00     3200.00
01010             -18.00     3200.00
01011             -18.00     3200.00
01012             -22.00     3000.00
01013             -24.00     2800.00
01014             -18.00     2800.00
01015             -16.00     2800.00
01016             -16.00     2800.00
01017             -20.00     2800.00
01018             -14.00     2800.00
01019             -16.00     2600.00
01020             -18.00     2600.00
01021             -18.00     2400.00
01022             -16.00     2600.00
01023             -14.00     2600.00
01024             -10.00     2400.00
01025             -10.00     2400.00
01026             -16.00     2400.00
01027             -22.00     2200.00
01028             -16.00     2000.00
01029             -10.00     2000.00
01030              -6.00     2000.00
01031             -10.00     2000.00
01032             -16.00     2000.00
01033             -16.00     1800.00
01034             -12.00     1800.00
01035             -10.00     1600.00
01036              -8.00     1600.00
01037             -10.00     1600.00
01038             -14.00     1600.00
01039             -10.00     1400.00
01040              -6.00     1400.00
01041             -10.00     1200.00
01042             -10.00     1400.00
01043              -8.00     1200.00
01044              -2.00     1200.00
01045              -4.00     1000.00
01046             -10.00     1000.00
01047             -10.00     1000.00
01048             -10.00     1000.00
01049             -10.00      800.00
01050              -2.00     1000.00
01051               2.00      800.00
01052              -2.00      800.00
01053             -10.00      400.00
01054             -10.00      400.00
01055              -6.00      600.00
01056              -6.00      400.00
01057              -2.00      400.00
01058              -4.00      200.00
01059               0.00      200.00
01060               2.00      200.00
01061              -2.00        0.00
01062               0.00        0.00
01063               6.00        0.00
01064              -2.00        0.00
01065              -6.00        0.00
01066               0.00     -200.00
01067               2.00     -400.00
01068              22.00     -400.00
01069             122.00     -400.00
01070             146.00     -800.00
01071            -226.00     -800.00
01072            -254.00     -600.00
01073             136.00     -600.00
01074             246.00     -800.00
01075             208.00    -1000.00
01076            -254.00    -1000.00
01077            -248.00     -800.00
01078             246.00    -1200.00
01079             218.00    -1000.00
01080            -254.00    -1200.00
01081            -142.00    -1200.00
01082             246.00    -1400.00
01083              96.00    -1200.00
01084             -42.00    -1600.00
01085            -178.00    -1800.00
01086            -200.00    -1400.00
01087             234.00    -1800.00
01088             246.00    -1600.00
01089            -238.00    -1600.00
01090            -242.00    -1800.00
01091             144.00    -2000.00
01092             144.00    -2000.00
01093              12.00    -2000.00
01094            -106.00    -2200.00
01095            -110.00    -2000.00
01096             106.00    -2200.00
01097             146.00    -2400.00
01098            -152.00    -2400.00
01099             -84.00    -2200.00
01100             126.00    -2400.00
01101              50.00    -2400.00
01102             -38.00    -2400.00
01103             -18.00    -2600.00
01104             -14.00    -2600.00
01105              30.00    -2600.00
01106              44.00    -2800.00
01107             -46.00    -2800.00
01108             -24.00    -2800.00
01109              38.00    -2800.00
01110              34.00    -2800.00
01111               2.00    -3000.00
01112             -16.00    -3000.00
01113             -10.00    -3000.00
01114              26.00    -3200.00
01115              18.00    -3200.00
01116             -22.00    -3200.00
01117               6.00    -3200.00
01118              32.00    -3200.00
01119               2.00    -3200.00
01120             -14.00    -3200.00
01121              10.00    -3400.00
01122              24.00    -3400.00
01123              18.00    -3200.00
01124               2.00    -3600.00
01125              -8.00    -3600.00
01126               0.00    -3600.00
01127              16.00    -3600.00
01128              24.00    -3600.00
01129              18.00    -3600.00
01130               0.00    -3600.00
01131               0.00    -3600.00
01132              10.00    -3600.00
01133               8.00    -3600.00
01134               6.00    -3800.00
01135              22.00    -3800.00
01136              22.00    -3800.00
01137               6.00    -3800.00
01138              -2.00    -3800.00
01139               4.00    -3800.00
01140              16.00    -3800.00
01141              16.00    -3800.00
01142              16.00    -4000.00
01143              16.00    -3800.00
01144              10.00    -4000.00
01145               6.00    -3800.00
01146               8.00    -3800.00
01147              12.00    -4000.00
01148              10.00    -4000.00
01149              18.00    -4000.00
01150              18.00    -3800.00
01151              14.00    -4000.00
01152               6.00    -4000.00
01153              10.00    -4000.00
01154              16.00    -4000.00
01155              16.00    -4000.00
01156              16.00    -4000.00
01157              16.00    -4000.00
01158              16.00    -4000.00
01159              10.00    -4000.00
01160              14.00    -4000.00
01161              22.00    -4000.00
01162              18.00    -3800.00
01163              18.00    -4000.00
01164              24.00    -3800.00
01165              14.00    -4000.00
01166              14.00    -3800.00
01167              18.00    -3800.00
01168              22.00    -3800.00
01169              22.00    -3800.00
01170              22.00    -3800.00
01171              22.00    -3800.00
01172              16.00    -3800.00
01173              22.00    -3800.00
01174              22.00    -3800.00
01175              24.00    -3800.00
01176              20.00    -3600.00
01177              18.00    -3600.00
01178              20.00    -3800.00
01179              18.00    -3600.00
01180              22.00    -3600.00
01181              24.00    -3600.00
01182              24.00    -3600.00
01183              22.00    -3600.00
01184              18.00    -3600.00
01185              18.00    -3600.00
01186              22.00    -3400.00
01187              18.00    -3200.00
01188              18.00    -3400.00
01189              24.00    -3200.00
01190              20.00    -3200.00
01191              16.00    -3200.00
01192              16.00    -3200.00
01193              14.00    -3200.00
01194              16.00    -3000.00
01195              22.00    -3000.00
01196              24.00    -3000.00
01197              22.00    -3000.00
01198              14.00    -3000.00
01199               6.00    -2800.00
01200              14.00    -2800.00
01201              18.00    -2800.00
01202              18.00    -2800.00
01203              16.00    -2800.00
01204               6.00    -2600.00
01205               6.00    -2800.00
01206              14.00    -2400.00
01207              16.00    -2600.00
01208              14.00    -2400.00
01209               8.00    -2400.00
01210               6.00    -2400.00
01211               8.00    -2200.00
01212              10.00    -2400.00
01213              14.00    -2200.00
01214              10.00    -2200.00
01215               6.00    -2200.00
01216               2.00    -2200.00
01217               6.00    -2000.00
01218              10.00    -2000.00
01219               8.00    -1800.00
01220               6.00    -1800.00
01221               2.00    -2000.00
01222               2.00    -1600.00
01223               2.00    -1600.00
01224               6.00    -1400.00
01225               6.00    -1600.00
01226               2.00    -1400.00
01227               0.00    -1200.00
01228               6.00    -1400.00
01229               6.00    -1400.00
01230               0.00    -1000.00
01231               0.00    -1200.00
01232               0.00    -1200.00
01233               6.00    -1000.00
01234               2.00    -1000.00
01235               2.00     -800.00
01236               2.00     -800.00
01237               2.00     -800.00
01238               0.00     -600.00
01239               0.00     -800.00
01240               0.00     -600.00
01241               0.00     -600.00
01242               0.00     -400.00
01243               4.00     -400.00
01244               0.00     -400.00
01245              -2.00     -200.00
01246              -2.00        0.00
01247               4.00        0.00
01248               6.00        0.00
01249              -2.00        0.00
01250              -2.00        0.00
01251               2.00      400.00
01252               8.00      200.00
01253               2.00      400.00
01254               8.00      400.00
01255               6.00      400.00
01256              -4.00      400.00
01257              -8.00      600.00
01258               0.00      800.00
01259              16.00      800.00
01260             128.00      800.00
01261             190.00     1000.00
01262            -248.00      800.00
01263            -254.00      800.00
01264             168.00     1200.00
01265             246.00     1400.00
01266             192.00     1200.00
01267            -254.00      800.00
01268            -194.00     1600.00
01269             246.00     1600.00
01270              96.00     1200.00
01271            -254.00     1200.00
01272              68.00     1800.00
01273             246.00     1600.00
01274            -154.00     1400.00
01275            -120.00     1800.00
01276              70.00     2000.00
01277            -168.00     1600.00
01278              84.00     1800.00
01279             242.00     2000.00
01280            -230.00     1800.00
01281            -112.00     2000.00
01282             144.00     2400.00
01283             -40.00     2000.00
01284              26.00     2400.00
01285              44.00     2600.00
01286            -218.00     2400.00
01287              90.00     2600.00
01288             202.00     2600.00
01289            -250.00     2400.00
01290             -58.00     2600.00
01291             200.00     2800.00
01292             -92.00     2600.00
01293             -40.00     2800.00
01294              62.00     3000.00
01295             -98.00     2800.00
01296              24.00     3000.00
01297              50.00     3200.00
01298             -96.00     3000.00
01299              30.00     3200.00
01300               6.00     3200.00
01301             -58.00     3200.00
01302              56.00     3400.00
01303             -30.00     3200.00
01304             -78.00     3200.00
01305              56.00     3400.00
01306              -2.00     3400.00
01307             -54.00     3200.00
01308              22.00     3600.00
01309             -22.00     3600.00
01310             -32.00     3600.00
01311              -6.00     3600.00
01312              -8.00     3600.00
01313               8.00     3600.00
01314             -10.00     3600.00
01315             -38.00     3600.00
01316              -8.00     3800.00
01317              -8.00     3800.00
01318             -24.00     3800.00
01319              -2.00     4000.00
01320               2.00     4000.00
01321             -34.00     3800.00
01322             -16.00     4000.00
01323               8.00     4000.00
01324             -26.00     4000.00
01325             -24.00     4200.00
01326             -10.00     4000.00
01327             -10.00     4000.00
01328              -6.00     4200.00
01329             -18.00     4200.00
01330             -22.00     4000.00
01331             -10.00     4200.00
01332             -26.00     4200.00
01333             -16.00     4200.00
01334               2.00     4200.00
01335             -18.00     4200.00
01336             -30.00     4000.00
01337             -14.00     4200.00
01338             -18.00     4200.00
01339             -22.00     4200.00
01340             -14.00     4200.00
01341             -18.00     4400.00
01342             -24.00     4400.00
01343             -26.00     4200.00
01344             -24.00     4200.00
01345              -8.00     4200.00
01346             -10.00     4200.00
01347             -26.00     4200.00
01348             -26.00     4200.00
01349             -26.00     4200.00
01350             -28.00     4200.00
01351             -14.00     4200.00
01352             -16.00     4200.00
01353             -32.00     4200.00
01354             -30.00     4200.00
01355             -24.00     4200.00
01356             -20.00     4200.00
01357             -18.00     4200.00
01358             -26.00     4200.00
01359             -32.00     4200.00
01360             -32.00     4000.00
01361             -24.00     4200.00
01362             -16.00     4200.00
01363             -22.00     4200.00
01364             -36.00     4000.00
01365             -34.00     4200.00
01366             -26.00     4000.00
01367             -24.00     4000.00
01368             -14.00     4000.00
01369             -20.00     4000.00
01370             -42.00     4000.00
01371             -42.00     4000.00
01372             -26.00     4000.00
01373             -14.00     4000.00
01374             -18.00     4000.00
01375             -26.00     3800.00
01376             -24.00     3800.00
01377             -20.00     3600.00
01378             -32.00     3600.00
01379             -38.00     3600.00
01380             -32.00     3600.00
01381             -14.00     3600.00
01382              -2.00     3600.00
01383             -16.00     3400.00
01384             -48.00     3600.00
01385             -46.00     3600.00
01386             -10.00     3600.00
01387              12.00     3400.00
01388             -10.00     3200.00
01389             -46.00     3200.00
01390             -46.00     3400.00
01391             -16.00     3400.00
01392              -2.00     3200.00
01393             -10.00     3200.00
01394             -16.00     3200.00
01395             -30.00     3000.00
01396             -30.00     3000.00
01397             -14.00     3000.00
01398             -10.00     2800.00
01399             -14.00     2800.00
01400             -16.00     2800.00
01401             -22.00     2800.00
01402             -20.00     2800.00
01403             -18.00     2600.00
01404             -10.00     2600.00
01405              -6.00     2400.00
01406             -12.00     2600.00
01407             -26.00     2400.00
01408             -24.00     2400.00
01409             -16.00     2400.00
01410             -10.00     2000.00
01411              -4.00     2000.00
01412              -8.00     2000.00
01413             -16.00     2000.00
01414             -18.00     1800.00
01415             -14.00     1800.00
01416             -10.00     2000.00
01417             -12.00     1800.00
01418             -10.00     1600.00
01419              -2.00     1600.00
01420              -6.00     1600.00
01421             -16.00     1400.00
01422             -22.00     1400.00
01423             -12.00     1600.00
01424             -10.00     1200.00
01425              -2.00     1200.00
01426               0.00     1200.00
01427              -4.00     1200.00
01428             -16.00     1200.00
01429             -16.00     1000.00
01430              -8.00     1000.00
01431              -2.00     1000.00
01432              -8.00      800.00
01433              -6.00      800.00
01434               0.00      800.00
01435              -4.00      800.00
01436             -16.00      600.00
01437             -16.00      400.00
01438               2.00      400.00
01439              12.00      400.00
01440               2.00      200.00
01441             -14.00      200.00
01442             -20.00      200.00
01443             -14.00      200.00
01444               2.00      200.00
01445              26.00        0.00
01446              32.00        0.00
01447               2.00        0.00
01448             -26.00     -200.00
01449             -30.00     -200.00
01450              -4.00     -400.00
01451              38.00     -400.00
01452             142.00     -400.00
01453             160.00     -400.00
01454            -222.00     -800.00
01455            -254.00     -600.00
01456              92.00     -600.00
01457             246.00     -800.00
01458             246.00     -800.00
01459            -254.00     -800.00
01460            -254.00     -800.00
01461             246.00    -1200.00
01462             246.00    -1000.00
01463            -254.00    -1200.00
01464            -194.00    -1000.00
01465             246.00    -1400.00
01466             122.00    -1200.00
01467             -20.00    -1400.00
01468            -150.00    -1600.00
01469            -208.00    -1400.00
01470             186.00    -1800.00
01471             246.00    -1600.00
01472            -222.00    -1600.00
01473            -240.00    -2000.00
01474             142.00    -2000.00
01475             154.00    -2000.00
01476              14.00    -2000.00
01477            -110.00    -2000.00
01478            -118.00    -2000.00
01479             104.00    -2200.00
01480             176.00    -2400.00
01481            -136.00    -2000.00
01482            -106.00    -2400.00
01483             108.00    -2400.00
01484              58.00    -2400.00
01485             -38.00    -2400.00
01486             -28.00    -2600.00
01487             -16.00    -2800.00
01488              32.00    -2800.00
01489              54.00    -2800.00
01490             -38.00    -2800.00
01491             -28.00    -3000.00
01492              30.00    -2800.00
01493              34.00    -3000.00
01494              -2.00    -3000.00
01495             -16.00    -3000.00
01496              -8.00    -3200.00
01497              30.00    -3200.00
01498              26.00    -3000.00
01499             -16.00    -3200.00
01500               0.00    -3200.00
01501              30.00    -3200.00
01502              -6.00    -3200.00
01503             -22.00    -3200.00
01504              22.00    -3400.00
01505              32.00    -3200.00
01506              14.00    -3200.00
01507               0.00    -3400.00
01508              -6.00    -3600.00
01509               6.00    -3600.00
01510              16.00    -3600.00
01511              14.00    -3600.00
01512              16.00    -3600.00
01513              10.00    -3600.00
01514               4.00    -3800.00
01515              10.00    -3600.00
01516               2.00    -3600.00
01517               2.00    -3600.00
01518              22.00    -3800.00
01519              24.00    -3600.00
01520               2.00    -3800.00
01521              -2.00    -3800.00
01522               2.00    -3800.00
01523              14.00    -3800.00
01524              18.00    -3800.00
01525              14.00    -3800.00
01526              10.00    -4000.00
01527              14.00    -3800.00
01528              10.00    -3800.00
01529              18.00    -3800.00
01530              16.00    -4000.00
01531               2.00    -3800.00
01532               6.00    -3800.00
01533              26.00    -4000.00
01534              24.00    -3800.00
01535              14.00    -4000.00
01536               0.00    -4000.00
01537               0.00    -4000.00
01538              14.00    -3800.00
01539              24.00    -4000.00
01540              24.00    -4000.00
01541              20.00    -4000.00
01542               8.00    -4000.00
01543               8.00    -4000.00
01544              16.00    -3800.00
01545              22.00    -3800.00
01546              22.00    -4000.00
01547              22.00    -3800.00
01548              14.00    -4000.00
01549              16.00    -3800.00
01550              18.00    -3800.00
01551              18.00    -3800.00
01552              16.00    -3800.00
01553              18.00    -3800.00
01554              24.00    -3800.00
01555              22.00    -3800.00
01556              18.00    -3800.00
01557              16.00    -3600.00
01558              22.00    -3800.00
01559              22.00    -3800.00
01560              24.00    -3800.00
01561              22.00    -3600.00
01562              20.00    -3600.00
01563              18.00    -3600.00
01564              18.00    -3600.00
01565              24.00    -3600.00
01566              24.00    -3600.00
01567              16.00    -3400.00
01568              16.00    -3600.00
01569              20.00    -3400.00
01570              22.00    -3200.00
01571              24.00    -3200.00
01572              18.00    -3200.00
01573              16.00    -3200.00
01574              22.00    -3200.00
01575              22.00    -3200.00
01576              18.00    -3200.00
01577              14.00    -3000.00
01578              10.00    -3000.00
01579              22.00    -3000.00
01580              22.00    -3000.00
01581              16.00    -3000.00
01582              14.00    -2800.00
01583              14.00    -3000.00
01584              14.00    -2800.00
01585              16.00    -2800.00
01586              16.00    -2800.00
01587               8.00    -2800.00
01588              10.00    -2800.00
01589              14.00    -2600.00
01590              14.00    -2400.00
01591              14.00    -2600.00
01592              14.00    -2400.00
01593              14.00    -2400.00
01594              14.00    -2400.00
01595              10.00    -2400.00
01596               6.00    -2200.00
01597               2.00    -2200.00
01598              10.00    -2000.00
01599              14.00    -2000.00
01600              14.00    -2000.00
01601               0.00    -2000.00
01602              -2.00    -2000.00
01603               2.00    -2000.00
01604              14.00    -1800.00
01605              14.00    -1600.00
01606               6.00    -1600.00
01607               0.00    -1600.00
01608               2.00    -1600.00
01609               2.00    -1400.00
01610               4.00    -1400.00
01611               6.00    -1200.00
01612               6.00    -1200.00
01613               2.00    -1200.00
01614               2.00    -1000.00
01615               2.00    -1000.00
01616               0.00    -1000.00
01617               0.00    -1000.00
01618               2.00     -800.00
01619               0.00     -800.00
01620               0.00     -800.00
01621               0.00     -800.00
01622               6.00     -600.00
01623               6.00     -600.00
01624              -2.00     -600.00
01625             -14.00     -400.00
01626              -6.00     -400.00
01627              14.00     -200.00
01628              16.00     -400.00
01629               0.00     -200.00
01630             -14.00        0.00
01631             -10.00        0.00
01632               0.00        0.00
01633              10.00      200.00
01634              10.00      200.00
01635              -2.00      200.00
01636              -2.00      200.00
01637               8.00      400.00
01638              12.00      400.00
01639              -8.00      400.00
01640             -16.00      600.00
01641               4.00      800.00
01642              26.00      600.00
01643             126.00      800.00
01644             184.00     1000.00
01645            -234.00     1000.00
01646            -254.00      800.00
01647             134.00     1000.00
01648             246.00     1200.00
01649             246.00     1200.00
01650            -254.00      800.00
01651            -254.00     1400.00
01652             246.00     1600.00
01653             182.00     1200.00
01654            -254.00     1400.00
01655              14.00     1800.00
01656             246.00     1600.00
01657            -128.00     1200.00
01658            -130.00     1800.00
01659              80.00     2000.00
01660            -168.00     1600.00
01661              64.00     1800.00
01662             246.00     2000.00
01663            -214.00     2000.00
01664            -128.00     2000.00
01665             144.00     2400.00
01666             -26.00     2200.00
01667              16.00     2200.00
01668              48.00     2400.00
01669            -218.00     2400.00
01670              70.00     2600.00
01671             222.00     2600.00
01672            -234.00     2400.00
01673             -86.00     2800.00
01674             202.00     2800.00
01675             -82.00     2600.00
01676             -50.00     2800.00
01677              64.00     2800.00
01678             -96.00     2800.00
01679              18.00     2800.00
01680              62.00     3200.00
01681             -98.00     3000.00
01682              18.00     3200.00
01683               6.00     3200.00
01684             -62.00     3200.00
01685              60.00     3400.00
01686             -22.00     3200.00
01687             -86.00     3200.00
01688              46.00     3400.00
01689               0.00     3400.00
01690             -52.00     3400.00
01691              22.00     3600.00
01692             -14.00     3400.00
01693             -38.00     3400.00
01694             -10.00     3800.00
01695             -14.00     3600.00
01696               6.00     3600.00
01697              -6.00     3600.00
01698             -34.00     3600.00
01699             -10.00     3800.00
01700              -6.00     3800.00
01701             -32.00     3800.00
01702              -2.00     4000.00
01703               6.00     4000.00
01704             -32.00     4000.00
01705             -18.00     4000.00
01706               0.00     4000.00
01707             -26.00     4000.00
01708             -22.00     4000.00
01709               0.00     4200.00
01710             -10.00     4200.00
01711             -16.00     4200.00
01712             -26.00     4200.00
01713             -24.00     4200.00
01714               0.00     4400.00
01715             -16.00     4200.00
01716             -18.00     4200.00
01717               0.00     4200.00
01718             -24.00     4200.00
01719             -34.00     4200.00
01720             -10.00     4400.00
01721             -10.00     4400.00
01722             -16.00     4200.00
01723             -12.00     4400.00
01724             -16.00     4200.00
01725             -18.00     4200.00
01726             -26.00     4400.00
01727             -32.00     4200.00
01728             -14.00     4200.00
01729              -8.00     4200.00
01730             -24.00     4200.00
01731             -22.00     4200.00
01732             -22.00     4200.00
01733             -30.00     4400.00
01734             -18.00     4200.00
01735             -18.00     4200.00
01736             -30.00     4200.00
01737             -26.00     4200.00
01738             -16.00     4200.00
01739             -18.00     4400.00
01740             -24.00     4000.00
01741             -32.00     4200.00
01742             -38.00     4000.00
01743             -26.00     4000.00
01744             -16.00     4200.00
01745             -14.00     4200.00
01746             -26.00     4000.00
01747             -40.00     4000.00
01748             -32.00     4000.00
01749             -26.00     4000.00
01750             -24.00     4000.00
01751             -24.00     4000.00
01752             -22.00     4000.00
01753             -36.00     4000.00
01754             -42.00     4000.00
01755             -32.00     4000.00
01756              -8.00     3800.00
01757              -8.00     4000.00
01758             -26.00     3800.00
01759             -42.00     3800.00
01760             -40.00     3800.00
01761             -22.00     3800.00
01762             -10.00     3600.00
01763             -18.00     3600.00
01764             -34.00     3600.00
01765             -34.00     3600.00
01766             -24.00     3400.00
01767             -18.00     3400.00
01768             -22.00     3600.00
01769             -16.00     3400.00
01770             -20.00     3400.00
01771             -30.00     3400.00
01772             -32.00     3400.00
01773             -30.00     3200.00
01774             -14.00     3200.00
01775              -8.00     3200.00
01776             -12.00     3200.00
01777             -18.00     3000.00
01778             -26.00     3000.00
01779             -26.00     3000.00
01780             -16.00     3000.00
01781             -14.00     2800.00
01782             -16.00     2800.00
01783             -18.00     2800.00
01784             -18.00     2800.00
01785             -14.00     2600.00
01786             -16.00     2600.00
01787             -14.00     2600.00
01788             -14.00     2600.00
01789             -10.00     2400.00
01790             -10.00     2400.00
01791             -10.00     2400.00
01792             -10.00     2400.00
01793             -22.00     2400.00
01794             -24.00     2000.00
01795              -8.00     2000.00
01796               2.00     2000.00
01797              -2.00     2000.00
01798             -16.00     2000.00
01799             -26.00     1800.00
01800             -18.00     1600.00
01801              -6.00     1800.00
01802              -2.00     1800.00
01803             -10.00     1600.00
01804             -12.00     1600.00
01805              -2.00     1600.00
01806              -8.00     1600.00
01807             -18.00     1200.00
01808             -18.00     1200.00
01809              -4.00     1200.00
01810               6.00     1200.00
01811              -2.00     1200.00
01812             -18.00     1000.00
01813             -22.00      800.00
01814             -10.00     1000.00
01815              10.00      800.00
01816              14.00      800.00
01817              -2.00      800.00
01818             -32.00      600.00
01819             -26.00      600.00
01820              -6.00      400.00
01821              14.00      400.00
01822               6.00      200.00
01823             -10.00      400.00
01824             -16.00      400.00
01825              -2.00      200.00
01826               6.00        0.00
01827               0.00      200.00
01828               0.00        0.00
01829              10.00        0.00
01830               0.00     -200.00
01831              -6.00     -200.00
01832              -6.00     -200.00
01833               2.00     -200.00
01834              18.00     -400.00
01835             112.00     -600.00
01836             158.00     -400.00
01837            -184.00     -800.00
01838            -254.00     -600.00
01839              54.00     -400.00
01840             246.00     -800.00
01841             246.00     -800.00
01842            -254.00    -1000.00
01843            -254.00     -800.00
01844             246.00    -1200.00
01845             246.00    -1000.00
01846            -254.00    -1200.00
01847            -222.00    -1200.00
01848             246.00    -1400.00
01849             128.00    -1400.00
01850             -24.00    -1600.00
01851            -150.00    -1600.00
01852            -208.00    -1400.00
01853             180.00    -1600.00
01854             246.00    -1800.00
01855            -198.00    -1400.00
01856            -254.00    -2000.00
01857             114.00    -2000.00
01858             166.00    -2000.00
01859              24.00    -2000.00
01860             -96.00    -2200.00
01861            -122.00    -2000.00
01862              88.00    -2200.00
01863             178.00    -2400.00
01864            -130.00    -2400.00
01865            -112.00    -2200.00
01866             110.00    -2400.00
01867              72.00    -2400.00
01868             -42.00    -2600.00
01869             -34.00    -2600.00
01870             -18.00    -2600.00
01871              38.00    -2800.00
01872              64.00    -2800.00
01873             -34.00    -2800.00
01874             -42.00    -2800.00
01875              14.00    -2800.00
01876              34.00    -3000.00
01877              10.00    -3000.00
01878              -8.00    -3000.00
01879             -18.00    -3000.00
01880              16.00    -3000.00
01881              22.00    -3000.00
01882             -10.00    -3200.00
01883               2.00    -3200.00
01884              32.00    -3200.00
01885               0.00    -3200.00
01886             -24.00    -3200.00
01887              10.00    -3200.00
01888              24.00    -3200.00
01889              18.00    -3200.00
01890               6.00    -3600.00
01891              -2.00    -3400.00
01892               0.00    -3600.00
01893              10.00    -3600.00
01894              10.00    -3600.00
01895              14.00    -3800.00
01896              10.00    -3600.00
01897               8.00    -3600.00
01898              12.00    -3800.00
01899               0.00    -3600.00
01900              -2.00    -3800.00
01901              22.00    -3600.00
01902              26.00    -3800.00
01903               6.00    -3800.00
01904              -2.00    -3600.00
01905               6.00    -3800.00
01906              18.00    -3800.00
01907              18.00    -3800.00
01908              14.00    -4000.00
01909               8.00    -3800.00
01910               8.00    -3800.00
01911               8.00    -3800.00
01912              14.00    -3800.00
01913              16.00    -3800.00
01914              12.00    -4000.00
01915              14.00    -3800.00
01916              16.00    -4000.00
01917              10.00    -4000.00
01918              10.00    -4000.00
01919              16.00    -4000.00
01920              20.00    -4000.00
01921              18.00    -3800.00
01922              14.00    -4000.00
01923               8.00    -4000.00
01924              16.00    -4000.00
01925              18.00    -4000.00
01926              22.00    -4000.00
01927              20.00    -4000.00
01928              14.00    -3800.00
01929              14.00    -3800.00
01930              16.00    -3800.00
01931              18.00    -4000.00
01932              22.00    -3800.00
01933              22.00    -4000.00
01934              18.00    -3800.00
01935              16.00    -3800.00
01936              18.00    -3800.00
01937              18.00    -3800.00
01938              18.00    -3800.00
01939              22.00    -3800.00
01940              18.00    -3800.00
01941              22.00    -3800.00
01942              22.00    -3600.00
01943              22.00    -3800.00
01944              22.00    -3600.00
01945              18.00    -3600.00
01946              16.00    -3600.00
01947              20.00    -3600.00
01948              24.00    -3600.00
01949              24.00    -3600.00
01950              22.00    -3600.00
01951              16.00    -3600.00
01952              18.00    -3600.00
01953              18.00    -3400.00
01954              22.00    -3200.00
01955              22.00    -3200.00
01956              16.00    -3200.00
01957              14.00    -3200.00
01958              18.00    -3200.00
01959              22.00    -3200.00
01960              18.00    -3200.00
01961              18.00    -3000.00
01962              16.00    -3000.00
01963              14.00    -3000.00
01964              14.00    -3000.00
01965              18.00    -3000.00
01966              16.00    -3000.00
01967              14.00    -2800.00
01968              18.00    -2800.00
01969              16.00    -2800.00
01970              10.00    -2800.00
01971               6.00    -2800.00
01972               8.00    -2800.00
01973              16.00    -2400.00
01974              18.00    -2600.00
01975              18.00    -2400.00
01976               8.00    -2400.00
01977               6.00    -2400.00
01978               6.00    -2400.00
01979              10.00    -2200.00
01980              16.00    -2200.00
01981              14.00    -2200.00
01982              10.00    -2000.00
01983               8.00    -2000.00
01984               8.00    -2000.00
01985               8.00    -2000.00
01986               8.00    -1600.00
01987               8.00    -1800.00
01988               6.00    -1600.00
01989               6.00    -1600.00
01990               6.00    -1600.00
01991               2.00    -1600.00
01992               2.00    -1400.00
01993               6.00    -1400.00
01994               4.00    -1400.00
01995               6.00    -1200.00
01996               4.00    -1000.00
01997               2.00    -1200.00
01998               2.00    -1000.00
01999               6.00    -1000.00
02000               0.00     -800.00
02001               2.00    -1000.00
02002               0.00     -800.00
02003               0.00     -800.00
02004               2.00     -800.00
02005               2.00     -600.00
02006               0.00     -600.00
02007              -2.00     -400.00
02008              -2.00     -600.00
02009               2.00     -400.00
02010               6.00     -400.00
02011              -2.00     -200.00
02012              -4.00     -200.00
02013              -6.00        0.00
02014               0.00        0.00
02015              -2.00        0.00
02016               0.00        0.00
02017               2.00      200.00
02018               2.00      400.00
02019               2.00      400.00
02020               8.00      400.00
02021               6.00      400.00
02022              -6.00      600.00
02023             -10.00      400.00
02024              -2.00      600.00
02025              10.00      800.00
02026             114.00      800.00
02027             200.00     1000.00
02028            -190.00      800.00
02029            -254.00      800.00
02030              70.00     1000.00
02031             246.00     1200.00
02032             246.00     1200.00
02033            -254.00     1000.00
02034            -254.00     1400.00
02035             246.00     1600.00
02036             246.00     1200.00
02037            -254.00     1200.00
02038             -36.00     1800.00
02039             246.00     1600.00
02040            -106.00     1200.00
02041            -150.00     1800.00
02042              82.00     1800.00
02043            -168.00     1800.00
02044              46.00     1800.00
02045             246.00     2200.00
02046            -192.00     1800.00
02047            -144.00     2000.00
02048             142.00     2400.00
02049             -24.00     2000.00
02050               6.00     2000.00
02051              64.00     2400.00
02052            -208.00     2400.00
02053              50.00     2600.00
02054             230.00     2600.00
02055            -222.00     2600.00
02056            -104.00     2600.00
02057             206.00     2600.00
02058             -68.00     2600.00
02059             -64.00     2800.00
02060              66.00     3000.00
02061             -90.00     2600.00
02062               8.00     3000.00
02063              66.00     3200.00
02064             -96.00     3000.00
02065              14.00     3200.00
02066              16.00     3200.00
02067             -64.00     3000.00
02068              56.00     3400.00
02069             -16.00     3400.00
02070             -90.00     3200.00
02071              40.00     3400.00
02072               8.00     3400.00
02073             -50.00     3400.00
02074              22.00     3600.00
02075             -10.00     3400.00
02076             -40.00     3400.00
02077             -14.00     3600.00
02078             -10.00     3600.00
02079               4.00     3600.00
02080              -6.00     3800.00
02081             -38.00     3600.00
02082             -14.00     3600.00
02083              -8.00     3800.00
02084             -30.00     3800.00
02085              -6.00     4000.00
02086              14.00     3800.00
02087             -22.00     4000.00
02088             -16.00     4000.00
02089              -2.00     4000.00
02090             -34.00     4000.00
02091             -32.00     4000.00
02092              -2.00     4200.00
02093             -10.00     4000.00
02094             -18.00     4000.00
02095             -26.00     4200.00
02096             -16.00     4200.00
02097              16.00     4200.00
02098             -14.00     4000.00
02099             -36.00     4200.00
02100             -14.00     4200.00
02101              -6.00     4200.00
02102             -16.00     4200.00
02103             -24.00     4200.00
02104             -42.00     4200.00
02105             -28.00     4400.00
02106              10.00     4200.00
02107              10.00     4200.00
02108             -18.00     4400.00
02109             -38.00     4400.00
02110             -40.00     4200.00
02111             -18.00     4200.00
02112              -6.00     4400.00
02113             -16.00     4400.00
02114             -16.00     4400.00
02115             -24.00     4400.00
02116             -32.00     4200.00
02117             -26.00     4200.00
02118             -18.00     4200.00
02119             -22.00     4200.00
02120              -8.00     4200.00
02121             -10.00     4200.00
02122             -38.00     4200.00
02123             -48.00     4200.00
02124             -32.00     4000.00
02125             -14.00     4200.00
02126             -12.00     4200.00
02127             -26.00     4200.00
02128             -32.00     4000.00
02129             -28.00     4000.00
02130             -26.00     4000.00
02131             -24.00     4000.00
02132             -26.00     4000.00
02133             -34.00     4000.00
02134             -38.00     4000.00
02135             -26.00     4000.00
02136             -22.00     4000.00
02137             -24.00     4000.00
02138             -24.00     4000.00
02139             -26.00     4000.00
02140             -32.00     3800.00
02141             -30.00     3800.00
02142             -26.00     3600.00
02143             -26.00     3800.00
02144             -28.00     3600.00
02145             -26.00     3400.00
02146             -20.00     3600.00
02147             -22.00     3600.00
02148             -30.00     3600.00
02149             -26.00     3600.00
02150             -22.00     3600.00
02151             -18.00     3400.00
02152             -18.00     3600.00
02153             -26.00     3400.00
02154             -28.00     3400.00
02155             -26.00     3400.00
02156             -22.00     3400.00
02157             -16.00     3200.00
02158             -18.00     3200.00
02159             -18.00     3200.00
02160             -16.00     3200.00
02161             -18.00     3000.00
02162             -22.00     2800.00
02163             -16.00     3000.00
02164             -16.00     2800.00
02165             -18.00     2600.00
02166             -16.00     2800.00
02167             -16.00     2800.00
02168             -16.00     2800.00
02169             -18.00     2600.00
02170             -16.00     2600.00
02171             -10.00     2600.00
02172              -8.00     2400.00
02173             -14.00     2400.00
02174             -16.00     2400.00
02175             -14.00     2200.00
02176             -16.00     2200.00
02177             -16.00     2200.00
02178              -8.00     2000.00
02179              -8.00     2000.00
02180              -8.00     2000.00
02181             -12.00     2000.00
02182             -10.00     1800.00
02183             -12.00     1800.00
02184             -10.00     1800.00
02185              -6.00     1800.00
02186             -10.00     1600.00
02187             -12.00     1600.00
02188             -10.00     1600.00
02189             -10.00     1600.00
02190              -8.00     1200.00
02191             -10.00     1200.00
02192              -6.00     1200.00
02193              -6.00     1200.00
02194              -8.00     1000.00
02195             -10.00     1000.00
02196             -10.00     1000.00
02197              -6.00      800.00
02198             -10.00      800.00
02199             -10.00      800.00
02200              -4.00      800.00
02201              -2.00      600.00
02202              -6.00      600.00
02203              -6.00      600.00
02204              -6.00      400.00
02205              -8.00      400.00
02206              -8.00      200.00
02207              -8.00      200.00
02208               0.00        0.00
02209               0.00      200.00
02210               0.00        0.00
02211               0.00        0.00
02212               6.00     -200.00
02213               0.00     -200.00
02214             -10.00        0.00
02215              -8.00     -400.00
02216               2.00     -200.00
02217              22.00     -400.00
02218             110.00     -400.00
02219             158.00     -600.00
02220            -168.00     -800.00
02221            -254.00     -600.00
02222               8.00     -600.00
02223             246.00     -600.00
02224             246.00    -1000.00
02225            -254.00    -1000.00
02226            -254.00     -800.00
02227             246.00    -1200.00
02228             246.00    -1000.00
02229            -254.00    -1000.00
02230            -254.00    -1200.00
02231             246.00    -1200.00
02232             144.00    -1400.00
02233             -26.00    -1600.00
02234            -138.00    -1600.00
02235            -218.00    -1400.00
02236             160.00    -1600.00
02237             246.00    -1600.00
02238            -178.00    -1600.00
02239            -254.00    -2000.00
02240              96.00    -2000.00
02241             168.00    -2000.00
02242              32.00    -2000.00
02243             -86.00    -2200.00
02244            -124.00    -2000.00
02245              70.00    -2000.00
02246             182.00    -2200.00
02247            -112.00    -2200.00
02248            -112.00    -2400.00
02249             100.00    -2400.00
02250              74.00    -2400.00
02251             -42.00    -2400.00
02252             -28.00    -2800.00
02253             -14.00    -2800.00
02254              32.00    -2800.00
02255              54.00    -2800.00
02256             -34.00    -3000.00
02257             -38.00    -2800.00
02258              26.00    -2800.00
02259              38.00    -3000.00
02260               4.00    -3000.00
02261             -16.00    -3000.00
02262             -16.00    -3200.00
02263              24.00    -3200.00
02264              26.00    -3200.00
02265             -16.00    -3200.00
02266              -2.00    -3000.00
02267              32.00    -3200.00
02268               6.00    -3200.00
02269             -24.00    -3200.00
02270               2.00    -3200.00
02271              24.00    -3400.00
02272              18.00    -3400.00
02273               8.00    -3400.00
02274              -8.00    -3600.00
02275              -2.00    -3600.00
02276              10.00    -3600.00
02277              18.00    -3600.00
02278              16.00    -3600.00
02279               0.00    -3600.00
02280              -2.00    -3800.00
02281              18.00    -3600.00
02282              10.00    -3800.00
02283               2.00    -3600.00
02284              14.00    -3800.00
02285              18.00    -3800.00
02286               8.00    -3600.00
02287               2.00    -3800.00
02288               8.00    -3800.00
02289              16.00    -3800.00
02290              14.00    -3800.00
02291              10.00    -3800.00
02292              14.00    -3800.00
02293              14.00    -3800.00
02294               8.00    -4000.00
02295              10.00    -3800.00
02296              16.00    -3800.00
02297              14.00    -3800.00
02298              14.00    -4000.00
02299              18.00    -3800.00
02300              10.00    -3800.00
02301              10.00    -4000.00
02302              16.00    -4000.00
02303              18.00    -4000.00
02304              16.00    -3800.00
02305              16.00    -4000.00
02306              14.00    -3800.00
02307              16.00    -4000.00
02308              16.00    -4000.00
02309              14.00    -3800.00
02310              22.00    -3800.00
02311              18.00    -4000.00
02312              16.00    -4000.00
02313              22.00    -3800.00
02314              16.00    -4000.00
02315              14.00    -3800.00
02316              20.00    -3800.00
02317              22.00    -3800.00
02318              22.00    -3800.00
02319              22.00    -4000.00
02320              16.00    -3800.00
02321              16.00    -3800.00
02322              18.00    -3800.00
02323              22.00    -3800.00
02324              24.00    -3800.00
02325              22.00    -3800.00
02326              22.00    -3600.00
02327              22.00    -3800.00
02328              16.00    -3600.00
02329              18.00    -3600.00
02330              24.00    -3600.00
02331              24.00    -3600.00
02332              22.00    -3600.00
02333              18.00    -3600.00
02334              16.00    -3600.00
02335              18.00    -3400.00
02336              18.00    -3600.00
02337              22.00    -3200.00
02338              22.00    -3200.00
02339              18.00    -3200.00
02340              16.00    -3400.00
02341              16.00    -3200.00
02342              16.00    -3200.00
02343              16.00    -3200.00
02344              18.00    -3000.00
02345              16.00    -3000.00
02346              16.00    -3000.00
02347              16.00    -2800.00
02348              16.00    -3000.00
02349              16.00    -3000.00
02350              14.00    -2800.00
02351              16.00    -2800.00
02352              16.00    -2800.00
02353              14.00    -2600.00
02354              10.00    -2800.00
02355               8.00    -2600.00
02356              14.00    -2600.00
02357              14.00    -2400.00
02358              12.00    -2400.00
02359              14.00    -2400.00
02360              10.00    -2400.00
02361               8.00    -2200.00
02362               8.00    -2400.00
02363              10.00    -2200.00
02364              12.00    -2000.00
02365              10.00    -2200.00
02366               8.00    -2000.00
02367               8.00    -2000.00
02368               6.00    -2000.00
02369               6.00    -1800.00
02370               8.00    -1600.00
02371               8.00    -1800.00
02372               6.00    -1600.00
02373               6.00    -1400.00
02374               6.00    -1400.00
02375               4.00    -1400.00
02376               6.00    -1400.00
02377               6.00    -1400.00
02378               6.00    -1200.00
02379               6.00    -1400.00
02380               2.00    -1000.00
02381               0.00    -1000.00
02382               0.00    -1000.00
02383               2.00    -1000.00
02384               2.00     -800.00
02385               4.00     -800.00
02386               0.00     -600.00
02387               0.00     -600.00
02388               0.00     -600.00
02389               0.00     -600.00
02390               0.00     -400.00
02391               2.00     -400.00
02392               0.00     -400.00
02393               0.00     -400.00
02394              -2.00        0.00
02395              -6.00     -200.00
02396              -2.00        0.00
02397               0.00        0.00
02398              -6.00        0.00
02399              -2.00      200.00
02400               2.00      200.00
02401               2.00      200.00
02402               0.00      200.00
02403               6.00      400.00
02404               6.00      400.00
02405              -6.00      400.00
02406             -10.00      400.00
02407              -6.00      400.00
02408              10.00      800.00
02409             104.00      800.00
02410             206.00     1000.00
02411            -160.00      800.00
02412            -254.00      800.00
02413              18.00     1000.00
02414             246.00     1200.00
02415             246.00     1200.00
02416            -254.00      800.00
02417            -254.00     1200.00
02418             246.00     1600.00
02419             246.00     1200.00
02420            -254.00     1200.00
02421             -86.00     1800.00
02422             246.00     1600.00
02423             -86.00     1600.00
02424            -166.00     1800.00
02425              88.00     2000.00
02426            -160.00     1800.00
02427              26.00     1800.00
02428             246.00     2000.00
02429            -170.00     1800.00
02430            -162.00     2000.00
02431             138.00     2000.00
02432             -10.00     2200.00
02433              -8.00     2000.00
02434              72.00     2400.00
02435            -202.00     2400.00
02436              30.00     2600.00
02437             240.00     2800.00
02438            -202.00     2400.00
02439            -124.00     2600.00
02440             206.00     2800.00
02441             -54.00     2600.00
02442             -74.00     2800.00
02443              72.00     2800.00
02444             -88.00     3000.00
02445              -2.00     2800.00
02446              78.00     3000.00
02447             -94.00     3000.00
02448               4.00     3200.00
02449              22.00     3200.00
02450             -66.00     3200.00
02451              54.00     3400.00
02452              -2.00     3400.00
02453             -94.00     3200.00
02454              38.00     3400.00
02455              14.00     3400.00
02456             -58.00     3400.00
02457              16.00     3600.00
02458              -2.00     3600.00
02459             -38.00     3400.00
02460             -16.00     3600.00
02461             -10.00     3600.00
02462              -2.00     3600.00
02463               0.00     3800.00
02464             -30.00     3600.00
02465             -16.00     3600.00
02466             -12.00     3800.00
02467             -30.00     3800.00
02468              -4.00     3800.00
02469              14.00     4000.00
02470             -34.00     3800.00
02471             -30.00     4000.00
02472               8.00     4000.00
02473             -18.00     4000.00
02474             -32.00     4000.00
02475             -10.00     4200.00
02476             -10.00     4000.00
02477              -8.00     4000.00
02478             -18.00     4200.00
02479             -26.00     4200.00
02480              -8.00     4200.00
02481             -18.00     4000.00
02482             -24.00     4200.00
02483              -2.00     4200.00
02484             -16.00     4200.00
02485             -32.00     4200.00
02486             -10.00     4400.00
02487             -10.00     4400.00
02488             -22.00     4200.00
02489             -18.00     4400.00
02490             -22.00     4200.00
02491             -20.00     4200.00
02492             -18.00     4400.00
02493             -18.00     4400.00
02494             -16.00     4200.00
02495             -14.00     4200.00
02496             -18.00     4200.00
02497             -22.00     4400.00
02498             -24.00     4200.00
02499             -26.00     4200.00
02500             -20.00     4200.00
02501             -10.00     4200.00
02502             -22.00     4200.00
02503             -24.00     4200.00
02504             -22.00     4200.00
02505             -26.00     4200.00
02506             -26.00     4200.00
02507             -22.00     4200.00
02508             -22.00     4200.00
02509             -18.00     4200.00
02510             -24.00     4200.00
02511             -26.00     4200.00
02512             -26.00     4200.00
02513             -34.00     4000.00
02514             -32.00     4000.00
02515             -24.00     4000.00
02516             -24.00     4000.00
02517             -24.00     4200.00
02518             -22.00     4000.00
02519             -30.00     4000.00
02520             -34.00     4000.00
02521             -30.00     3800.00
02522             -22.00     4000.00
02523             -24.00     3800.00
02524             -24.00     3800.00
02525             -26.00     3600.00
02526             -26.00     3600.00
02527             -32.00     3800.00
02528             -26.00     3600.00
02529             -22.00     3600.00
02530             -22.00     3600.00
02531             -24.00     3600.00
02532             -26.00     3400.00
02533             -26.00     3400.00
02534             -26.00     3400.00
02535             -24.00     3600.00
02536             -20.00     3400.00
02537             -18.00     3200.00
02538             -24.00     3200.00
02539             -24.00     3200.00
02540             -18.00     3200.00
02541             -22.00     3200.00
02542             -18.00     3200.00
02543             -18.00     2800.00
02544             -16.00     3000.00
02545             -18.00     2800.00
02546             -16.00     2800.00
02547             -18.00     2800.00
02548             -18.00     2800.00
02549             -18.00     2800.00
02550             -16.00     2800.00
02551             -14.00     2600.00
02552             -18.00     2600.00
02553             -14.00     2600.00
02554             -10.00     2600.00
02555             -10.00     2400.00
02556             -14.00     2400.00
02557             -12.00     2400.00
02558             -16.00     2200.00
02559             -14.00     2200.00
02560             -14.00     2200.00
02561             -10.00     2000.00
02562             -10.00     2000.00
02563             -14.00     2000.00
02564             -10.00     2000.00
02565             -10.00     1800.00
02566             -10.00     1800.00
02567             -10.00     1600.00
02568              -8.00     1800.00
02569              -8.00     1800.00
02570             -10.00     1600.00
02571             -10.00     1600.00
02572             -10.00     1400.00
02573             -10.00     1600.00
02574             -10.00     1200.00
02575              -6.00     1200.00
02576              -4.00     1200.00
02577              -8.00     1200.00
02578             -10.00     1000.00
02579             -10.00     1000.00
02580              -6.00     1000.00
02581              -8.00      800.00
02582              -8.00     1000.00
02583              -6.00      800.00
02584              -4.00      800.00
02585             -10.00      400.00
02586             -10.00      600.00
02587              -6.00      400.00
02588              -6.00      400.00
02589              -6.00      400.00
02590             -10.00      400.00
02591               0.00      200.00
02592               0.00      200.00
02593               0.00        0.00
02594               0.00        0.00
02595               8.00        0.00
02596              -2.00        0.00
02597             -10.00        0.00
02598              -8.00        0.00
02599               0.00     -400.00
02600              22.00     -400.00
02601             104.00     -400.00
02602             162.00     -600.00
02603            -146.00     -800.00
02604            -254.00     -800.00
02605             -40.00     -600.00
02606             246.00     -800.00
02607             246.00    -1000.00
02608            -254.00    -1000.00
02609            -254.00     -800.00
02610             246.00    -1200.00
02611             246.00    -1000.00
02612            -254.00    -1000.00
02613            -254.00    -1200.00
02614             246.00    -1200.00
02615             154.00    -1200.00
02616             -18.00    -1600.00
02617            -134.00    -1600.00
02618            -226.00    -1000.00
02619             136.00    -1600.00
02620             246.00    -1600.00
02621            -158.00    -1600.00
02622            -254.00    -1800.00
02623              86.00    -2000.00
02624             176.00    -1800.00
02625              30.00    -2000.00
02626             -86.00    -2200.00
02627            -128.00    -2000.00
02628              70.00    -2000.00
02629             190.00    -2400.00
02630            -108.00    -2200.00
02631            -128.00    -2400.00
02632              94.00    -2400.00
02633              86.00    -2400.00
02634             -38.00    -2400.00
02635             -26.00    -2600.00
02636             -16.00    -2600.00
02637              26.00    -2600.00
02638              56.00    -2800.00
02639             -28.00    -2800.00
02640             -34.00    -2800.00
02641              24.00    -3000.00
02642              38.00    -2800.00
02643               0.00    -3000.00
02644             -14.00    -3000.00
02645             -12.00    -3000.00
02646              26.00    -3200.00
02647              26.00    -3200.00
02648             -16.00    -3000.00
02649             -10.00    -3200.00
02650              32.00    -3200.00
02651              14.00    -3200.00
02652             -16.00    -3200.00
02653               6.00    -3200.00
02654              22.00    -3400.00
02655              14.00    -3400.00
02656               8.00    -3400.00
02657              -2.00    -3600.00
02658               0.00    -3600.00
02659              14.00    -3600.00
02660              16.00    -3600.00
02661              12.00    -3800.00
02662               0.00    -3600.00
02663               2.00    -3600.00
02664              16.00    -3800.00
02665              10.00    -3600.00
02666              -2.00    -3800.00
02667              10.00    -3600.00
02668              22.00    -3800.00
02669               8.00    -3800.00
02670               6.00    -3800.00
02671               8.00    -3800.00
02672              14.00    -3800.00
02673              10.00    -3800.00
02674              10.00    -3800.00
02675              14.00    -3800.00
02676              14.00    -3800.00
02677               8.00    -3800.00
02678               6.00    -4000.00
02679              14.00    -3800.00
02680              14.00    -4000.00
02681              14.00    -4000.00
02682              18.00    -3800.00
02683              14.00    -4000.00
02684               8.00    -3800.00
02685              16.00    -4000.00
02686              18.00    -4000.00
02687              14.00    -4000.00
02688              14.00    -3800.00
02689              18.00    -3800.00
02690              20.00    -4000.00
02691              10.00    -4000.00
02692              12.00    -4000.00
02693              20.00    -4000.00
02694              22.00    -3800.00
02695              22.00    -3800.00
02696              20.00    -3800.00
02697              14.00    -3800.00
02698              14.00    -3800.00
02699              22.00    -3800.00
02700              26.00    -3800.00
02701              24.00    -3800.00
02702              22.00    -3800.00
02703              14.00    -3800.00
02704              18.00    -3800.00
02705              22.00    -3800.00
02706              24.00    -3800.00
02707              24.00    -3800.00
02708              22.00    -3800.00
02709              18.00    -3600.00
02710              18.00    -3600.00
02711              18.00    -3600.00
02712              22.00    -3600.00
02713              22.00    -3600.00
02714              22.00    -3600.00
02715              22.00    -3600.00
02716              16.00    -3600.00
02717              18.00    -3600.00
02718              18.00    -3600.00
02719              18.00    -3400.00
02720              20.00    -3400.00
02721              22.00    -3200.00
02722              18.00    -3200.00
02723              18.00    -3200.00
02724              16.00    -3400.00
02725              16.00    -3200.00
02726              16.00    -3200.00
02727              18.00    -3000.00
02728              22.00    -3000.00
02729              16.00    -3000.00
02730              10.00    -3000.00
02731              12.00    -3000.00
02732              16.00    -2800.00
02733              16.00    -2800.00
02734              16.00    -2800.00
02735              16.00    -2800.00
02736              14.00    -2800.00
02737               6.00    -2800.00
02738               8.00    -2800.00
02739              14.00    -2600.00
02740              12.00    -2400.00
02741              10.00    -2400.00
02742              10.00    -2400.00
02743              10.00    -2400.00
02744               8.00    -2400.00
02745               8.00    -2200.00
02746               8.00    -2200.00
02747               8.00    -2200.00
02748              10.00    -2000.00
02749              14.00    -2000.00
02750               8.00    -2000.00
02751               6.00    -1800.00
02752               6.00    -2000.00
02753               8.00    -1600.00
02754               8.00    -1600.00
02755              10.00    -1600.00
02756               6.00    -1600.00
02757               0.00    -1400.00
02758               2.00    -1600.00
02759               4.00    -1200.00
02760               8.00    -1200.00
02761               8.00    -1200.00
02762               2.00    -1000.00
02763               0.00    -1200.00
02764               2.00    -1000.00
02765               6.00    -1000.00
02766               0.00    -1000.00
02767               6.00    -1000.00
02768               2.00     -800.00
02769               0.00     -600.00
02770               0.00     -800.00
02771               0.00     -600.00
02772               2.00     -600.00
02773               0.00     -600.00
02774               0.00     -600.00
02775               2.00     -400.00
02776               2.00     -400.00
02777               0.00     -200.00
02778              -6.00     -200.00
02779              -2.00        0.00
02780               0.00        0.00
02781              -2.00      200.00
02782               0.00        0.00
02783               2.00      200.00
02784               0.00      200.00
02785               0.00      400.00
02786               6.00      400.00
02787               6.00      600.00
02788              -2.00      400.00
02789             -10.00      400.00
02790              -6.00      600.00
02791               6.00      800.00
02792              96.00      800.00
02793             208.00     1000.00
02794            -130.00     1000.00
02795            -254.00      800.00
02796             -30.00     1000.00
02797             246.00     1200.00
02798             246.00     1200.00
02799            -254.00      800.00
02800            -254.00     1400.00
02801             246.00     1600.00
02802             246.00     1200.00
02803            -254.00     1200.00
02804            -134.00     1800.00
02805             246.00     1800.00
02806             -64.00     1400.00
02807            -182.00     1800.00
02808              88.00     2000.00
02809            -154.00     1600.00
02810              16.00     2000.00
02811             246.00     2000.00
02812            -154.00     2000.00
02813            -184.00     2000.00
02814             134.00     2400.00
02815               2.00     2000.00
02816             -14.00     2400.00
02817              80.00     2400.00
02818            -196.00     2400.00
02819               8.00     2600.00
02820             246.00     2600.00
02821            -186.00     2400.00
02822            -146.00     2600.00
02823             208.00     2800.00
02824             -34.00     2600.00
02825             -82.00     2800.00
02826              78.00     3000.00
02827             -80.00     2800.00
02828             -16.00     3000.00
02829              78.00     3200.00
02830             -88.00     3200.00
02831               2.00     3200.00
02832              28.00     3200.00
02833             -64.00     3200.00
02834              48.00     3400.00
02835               6.00     3200.00
02836             -96.00     3400.00
02837              32.00     3400.00
02838              16.00     3400.00
02839             -58.00     3400.00
02840              18.00     3600.00
02841               0.00     3400.00
02842             -38.00     3400.00
02843             -14.00     3600.00
02844             -16.00     3600.00
02845              -2.00     3600.00
02846               0.00     3800.00
02847             -32.00     3600.00
02848             -10.00     3600.00
02849              -6.00     3800.00
02850             -30.00     4000.00
02851              -8.00     4000.00
02852               8.00     4000.00
02853             -26.00     4000.00
02854             -26.00     4000.00
02855               2.00     4000.00
02856             -22.00     4000.00
02857             -24.00     4000.00
02858              -4.00     4000.00
02859             -10.00     4200.00
02860             -16.00     4000.00
02861             -22.00     4200.00
02862             -24.00     4000.00
02863              -8.00     4200.00
02864             -18.00     4200.00
02865             -24.00     4000.00
02866              -2.00     4200.00
02867             -18.00     4200.00
02868             -30.00     4200.00
02869             -14.00     4400.00
02870             -16.00     4200.00
02871             -22.00     4200.00
02872             -14.00     4400.00
02873             -14.00     4200.00
02874             -22.00     4200.00
02875             -24.00     4400.00
02876             -24.00     4200.00
02877             -14.00     4200.00
02878             -14.00     4200.00
02879             -22.00     4200.00
02880             -18.00     4200.00
02881             -18.00     4200.00
02882             -26.00     4200.00
02883             -24.00     4400.00
02884             -18.00     4200.00
02885             -18.00     4200.00
02886             -20.00     4200.00
02887             -22.00     4200.00
02888             -24.00     4200.00
02889             -26.00     4200.00
02890             -24.00     4000.00
02891             -24.00     4200.00
02892             -24.00     4200.00
02893             -26.00     4000.00
02894             -24.00     4000.00
02895             -24.00     4200.00
02896             -30.00     4200.00
02897             -26.00     4000.00
02898             -22.00     4000.00
02899             -26.00     4000.00
02900             -26.00     4000.00
02901             -26.00     4000.00
02902             -32.00     4000.00
02903             -34.00     4000.00
02904             -26.00     3800.00
02905             -16.00     4000.00
02906             -20.00     3800.00
02907             -30.00     3800.00
02908             -32.00     3800.00
02909             -30.00     3800.00
02910             -24.00     3800.00
02911             -22.00     3600.00
02912             -22.00     3600.00
02913             -26.00     3800.00
02914             -34.00     3400.00
02915             -26.00     3400.00
02916             -22.00     3600.00
02917             -24.00     3400.00
02918             -22.00     3400.00
02919             -22.00     3400.00
02920             -20.00     3400.00
02921             -26.00     3400.00
02922             -26.00     3200.00
02923             -24.00     3200.00
02924             -22.00     3200.00
02925             -22.00     3200.00
02926             -16.00     3000.00
02927             -18.00     3200.00
02928             -20.00     2800.00
02929             -18.00     2800.00
02930             -16.00     3000.00
02931             -18.00     2800.00
02932             -20.00     2800.00
02933             -16.00     2800.00
02934             -10.00     2800.00
02935             -18.00     2800.00
02936             -24.00     2600.00
02937             -18.00     2600.00
02938             -10.00     2400.00
02939             -10.00     2400.00
02940             -14.00     2400.00
02941             -18.00     2400.00
02942             -24.00     2400.00
02943             -16.00     2200.00
02944              -8.00     2000.00
02945              -4.00     2000.00
02946             -10.00     2000.00
02947             -14.00     2000.00
02948             -10.00     2000.00
02949             -14.00     1800.00
02950             -12.00     1800.00
02951              -8.00     1800.00
02952              -8.00     1800.00
02953              -8.00     1600.00
02954             -10.00     1600.00
02955             -10.00     1600.00
02956             -10.00     1600.00
02957             -10.00     1200.00
02958              -2.00     1200.00
02959              -2.00     1400.00
02960              -8.00     1200.00
02961             -10.00     1000.00
02962             -10.00     1000.00
02963              -2.00     1000.00
02964              -2.00     1000.00
02965              -6.00      800.00
02966              -8.00      800.00
02967              -8.00      800.00
02968              -4.00      600.00
02969              -6.00      400.00
02970              -2.00      400.00
02971             -10.00      400.00
02972             -14.00      200.00
02973             -12.00      400.00
02974               4.00      200.00
02975               8.00      200.00
02976               2.00        0.00
02977              -2.00        0.00
02978               2.00        0.00
02979              -2.00        0.00
02980              -8.00     -200.00
02981              -2.00     -400.00
02982               0.00     -400.00
02983              14.00     -400.00
02984              90.00     -600.00
02985             166.00     -600.00
02986            -114.00     -800.00
02987            -254.00     -800.00
02988             -82.00     -400.00
02989             246.00     -800.00
02990             246.00     -800.00
02991            -254.00    -1000.00
02992            -254.00     -800.00
02993             246.00    -1200.00
02994             246.00    -1000.00
02995            -254.00    -1200.00
02996            -254.00    -1400.00
02997             246.00    -1400.00
02998             174.00    -1200.00
02999              -8.00    -1400.00
03000            -122.00    -1600.00
03001            -238.00    -1400.00
03002             110.00    -1600.00
03003             246.00    -1800.00
03004            -128.00    -1600.00
03005            -254.00    -1800.00
03006              66.00    -2000.00
03007             182.00    -1800.00
03008              34.00    -2000.00
03009             -80.00    -2200.00
03010            -130.00    -2000.00
03011              58.00    -2200.00
03012             198.00    -2400.00
03013             -90.00    -2400.00
03014            -138.00    -2200.00
03015              80.00    -2400.00
03016              90.00    -2400.00
03017             -36.00    -2400.00
03018             -18.00    -2400.00
03019             -14.00    -2600.00
03020              24.00    -2800.00
03021              54.00    -2800.00
03022             -26.00    -2800.00
03023             -38.00    -2800.00
03024              26.00    -3000.00
03025              38.00    -2800.00
03026               0.00    -2800.00
03027             -14.00    -3000.00
03028             -10.00    -3000.00
03029              30.00    -3000.00
03030              30.00    -3200.00
03031             -16.00    -3200.00
03032             -10.00    -3200.00
03033              30.00    -3200.00
03034              16.00    -3200.00
03035             -16.00    -3200.00
03036               2.00    -3400.00
03037              16.00    -3400.00
03038              12.00    -3400.00
03039               8.00    -3200.00
03040               2.00    -3400.00
03041               2.00    -3600.00
03042               8.00    -3600.00
03043              10.00    -3600.00
03044              12.00    -3600.00
03045               6.00    -3600.00
03046               6.00    -3600.00
03047              16.00    -3600.00
03048              10.00    -3600.00
03049               0.00    -3600.00
03050              14.00    -3800.00
03051              20.00    -3800.00
03052              10.00    -3600.00
03053               2.00    -3800.00
03054               0.00    -3800.00
03055               6.00    -3800.00
03056              16.00    -4000.00
03057              16.00    -4000.00
03058              16.00    -3800.00
03059               6.00    -3800.00
03060               0.00    -4000.00
03061              10.00    -4000.00
03062              18.00    -3800.00
03063              16.00    -4000.00
03064              12.00    -4000.00
03065              18.00    -3800.00
03066              14.00    -3800.00
03067               8.00    -3800.00
03068               8.00    -4000.00
03069              16.00    -4000.00
03070              18.00    -4000.00
03071              16.00    -3800.00
03072              16.00    -3800.00
03073              18.00    -4000.00
03074              14.00    -3800.00
03075              10.00    -3800.00
03076              16.00    -3800.00
03077              22.00    -4000.00
03078              24.00    -3800.00
03079              22.00    -4000.00
03080              14.00    -4000.00
03081              14.00    -3800.00
03082              18.00    -3800.00
03083              24.00    -4000.00
03084              24.00    -3800.00
03085              22.00    -3800.00
03086              24.00    -3800.00
03087              20.00    -3600.00
03088              14.00    -3800.00
03089              16.00    -3800.00
03090              26.00    -3800.00
03091              26.00    -3600.00
03092              22.00    -3600.00
03093              16.00    -3600.00
03094              18.00    -3600.00
03095              22.00    -3600.00
03096              22.00    -3600.00
03097              24.00    -3600.00
03098              24.00    -3600.00
03099              20.00    -3400.00
03100              20.00    -3200.00
03101              14.00    -3400.00
03102              16.00    -3200.00
03103              22.00    -3200.00
03104              26.00    -3200.00
03105              20.00    -3200.00
03106              16.00    -3200.00
03107              16.00    -3200.00
03108              16.00    -3200.00
03109              18.00    -3200.00
03110              16.00    -3200.00
03111              18.00    -3000.00
03112              14.00    -3000.00
03113              10.00    -3000.00
03114              14.00    -3000.00
03115              16.00    -3000.00
03116              16.00    -2800.00
03117              14.00    -2800.00
03118              10.00    -2800.00
03119              14.00    -2800.00
03120              14.00    -2800.00
03121               8.00    -2800.00
03122               8.00    -2400.00
03123              10.00    -2400.00
03124              12.00    -2400.00
03125              10.00    -2400.00
03126              10.00    -2400.00
03127               6.00    -2400.00
03128               8.00    -2400.00
03129               8.00    -2200.00
03130              10.00    -2000.00
03131              14.00    -2200.00
03132               8.00    -2000.00
03133               6.00    -2000.00
03134               2.00    -2000.00
03135               2.00    -1800.00
03136              10.00    -1800.00
03137              12.00    -1600.00
03138               8.00    -1600.00
03139               2.00    -1400.00
03140               2.00    -1600.00
03141               6.00    -1400.00
03142               6.00    -1400.00
03143               6.00    -1200.00
03144               6.00    -1200.00
03145               6.00    -1000.00
03146               2.00    -1200.00
03147               2.00    -1000.00
03148               2.00    -1000.00
03149               2.00     -800.00
03150               6.00     -800.00
03151               6.00     -800.00
03152               2.00     -800.00
03153               0.00     -600.00
03154              -2.00     -600.00
03155               0.00     -600.00
03156               2.00     -400.00
03157               0.00     -400.00
03158               0.00     -400.00
03159               0.00     -200.00
03160               0.00        0.00
03161               0.00        0.00
03162               2.00     -200.00
03163              -2.00        0.00
03164              -6.00        0.00
03165              -6.00        0.00
03166               4.00      200.00
03167               6.00      200.00
03168               0.00      200.00
03169               6.00      400.00
03170               6.00      400.00
03171              -2.00      600.00
03172              -8.00      400.00
03173              -2.00      600.00
03174               8.00      800.00
03175              86.00      800.00
03176             206.00     1000.00
03177            -106.00     1000.00
03178            -254.00      800.00
03179             -74.00     1000.00
03180             246.00     1400.00
03181             246.00     1200.00
03182            -254.00      800.00
03183            -254.00     1200.00
03184             246.00     1600.00
03185             246.00     1200.00
03186            -254.00     1200.00
03187            -194.00     1800.00
03188             246.00     1600.00
03189             -34.00     1400.00
03190            -176.00     1800.00
03191             100.00     2000.00
03192            -152.00     1600.00
03193             -16.00     1800.00
03194             246.00     2000.00
03195            -122.00     1800.00
03196            -202.00     2000.00
03197             118.00     2200.00
03198              14.00     2000.00
03199             -12.00     2200.00
03200              90.00     2400.00
03201            -200.00     2400.00
03202             -32.00     2600.00
03203             246.00     2800.00
03204            -144.00     2600.00
03205            -158.00     2600.00
03206             192.00     2800.00
03207             -34.00     2800.00
03208             -94.00     2600.00
03209              86.00     3000.00
03210             -66.00     2800.00
03211             -24.00     2800.00
03212              82.00     3200.00
03213             -88.00     3000.00
03214              -8.00     3200.00
03215              30.00     3200.00
03216             -66.00     3000.00
03217              46.00     3400.00
03218              14.00     3200.00
03219             -96.00     3200.00
03220              24.00     3400.00
03221              18.00     3400.00
03222             -56.00     3400.00
03223              18.00     3600.00
03224               6.00     3600.00
03225             -40.00     3600.00
03226             -18.00     3600.00
03227             -16.00     3600.00
03228               4.00     3600.00
03229              10.00     3800.00
03230             -32.00     3800.00
03231             -18.00     3600.00
03232              -4.00     4000.00
03233             -32.00     3800.00
03234             -10.00     3600.00
03235              10.00     4000.00
03236             -24.00     4000.00
03237             -26.00     4000.00
03238               0.00     4000.00
03239             -24.00     3800.00
03240             -24.00     4000.00
03241              -2.00     4000.00
03242             -10.00     4000.00
03243             -14.00     4000.00
03244             -22.00     4200.00
03245             -22.00     4000.00
03246              -8.00     4000.00
03247             -24.00     4200.00
03248             -26.00     4200.00
03249               0.00     4200.00
03250             -10.00     4200.00
03251             -30.00     4000.00
03252             -16.00     4200.00
03253             -18.00     4200.00
03254             -26.00     4200.00
03255             -16.00     4200.00
03256             -16.00     4200.00
03257             -16.00     4200.00
03258             -16.00     4200.00
03259             -22.00     4200.00
03260             -22.00     4200.00
03261             -22.00     4400.00
03262             -22.00     4200.00
03263              -8.00     4200.00
03264             -14.00     4200.00
03265             -36.00     4200.00
03266             -38.00     4200.00
03267             -22.00     4200.00
03268             -10.00     4200.00
03269              -8.00     4200.00
03270             -16.00     4200.00
03271             -42.00     4200.00
03272             -42.00     4200.00
03273             -18.00     4200.00
03274               0.00     4200.00
03275             -14.00     4200.00
03276             -32.00     4000.00
03277             -42.00     4200.00
03278             -32.00     4200.00
03279             -22.00     4000.00
03280             -16.00     4000.00
03281             -10.00     4000.00
03282             -24.00     4000.00
03283             -40.00     4000.00
03284             -42.00     4000.00
03285             -34.00     4000.00
03286             -18.00     4000.00
03287              -2.00     3800.00
03288             -12.00     4000.00
03289             -44.00     3800.00
03290             -50.00     4000.00
03291             -24.00     3600.00
03292               2.00     4000.00
03293             -12.00     3800.00
03294             -42.00     3600.00
03295             -48.00     3600.00
03296             -24.00     3600.00
03297             -10.00     3600.00
03298             -18.00     3600.00
03299             -26.00     3600.00
03300             -32.00     3400.00
03301             -28.00     3400.00
03302             -18.00     3400.00
03303             -18.00     3400.00
03304             -22.00     3200.00
03305             -24.00     3200.00
03306             -26.00     3200.00
03307             -30.00     3200.00
03308             -26.00     3200.00
03309             -10.00     3000.00
03310              -8.00     2800.00
03311             -14.00     2800.00
03312             -30.00     2800.00
03313             -32.00     2800.00
03314             -22.00     2800.00
03315             -14.00     2800.00
03316              -4.00     2800.00
03317             -10.00     2600.00
03318             -24.00     2600.00
03319             -24.00     2600.00
03320             -16.00     2600.00
03321             -16.00     2400.00
03322             -16.00     2600.00
03323             -14.00     2400.00
03324              -8.00     2400.00
03325              -8.00     2200.00
03326             -16.00     2200.00
03327             -20.00     2200.00
03328             -16.00     2000.00
03329             -14.00     2000.00
03330              -6.00     1800.00
03331              -2.00     2000.00
03332              -8.00     1800.00
03333             -18.00     1800.00
03334             -18.00     1600.00
03335             -16.00     1600.00
03336              -8.00     1600.00
03337              -2.00     1600.00
03338               0.00     1400.00
03339              -6.00     1200.00
03340             -14.00     1200.00
03341             -16.00     1200.00
03342             -10.00     1000.00
03343              -2.00     1200.00
03344               0.00     1200.00
03345               0.00     1200.00
03346              -8.00      800.00
03347             -18.00      800.00
03348             -10.00      800.00
03349               0.00      800.00
03350               0.00      800.00
03351             -10.00      400.00
03352             -14.00      600.00
03353              -2.00      400.00
03354               8.00      400.00
03355              -2.00      400.00
03356             -18.00      200.00
03357             -10.00      200.00
03358               8.00      200.00
03359              14.00        0.00
03360               8.00        0.00
03361              -6.00        0.00
03362             -22.00     -200.00
03363             -16.00     -200.00
03364               8.00     -400.00
03365              22.00     -200.00
03366              30.00     -400.00
03367              78.00     -400.00
03368             150.00     -600.00
03369            -106.00     -800.00
03370            -254.00     -800.00
03371            -110.00     -600.00
03372             246.00     -600.00
03373             246.00     -800.00
03374            -254.00     -800.00
03375            -254.00     -800.00
03376             246.00    -1200.00
03377             246.00    -1000.00
03378            -254.00    -1200.00
03379            -254.00    -1200.00
03380             246.00    -1400.00
03381             192.00    -1200.00
03382             -10.00    -1400.00
03383            -128.00    -1600.00
03384            -248.00    -1400.00
03385              88.00    -1600.00
03386             246.00    -1800.00
03387             -94.00    -1600.00
03388            -254.00    -1600.00
03389              40.00    -2000.00
03390             184.00    -2000.00
03391              42.00    -2000.00
03392             -64.00    -2200.00
03393            -128.00    -2000.00
03394              38.00    -2200.00
03395             196.00    -2400.00
03396             -78.00    -2400.00
03397            -144.00    -2200.00
03398              76.00    -2400.00
03399              94.00    -2400.00
03400             -38.00    -2400.00
03401             -22.00    -2400.00
03402             -14.00    -2600.00
03403              24.00    -2600.00
03404              56.00    -2800.00
03405             -24.00    -2800.00
03406             -46.00    -2800.00
03407              18.00    -2800.00
03408              42.00    -2800.00
03409               8.00    -3000.00
03410              -6.00    -2800.00
03411             -10.00    -3000.00
03412              22.00    -3000.00
03413              24.00    -3200.00
03414             -14.00    -3000.00
03415             -10.00    -3200.00
03416              34.00    -3200.00
03417              16.00    -3200.00
03418             -16.00    -3200.00
03419               6.00    -3200.00
03420              22.00    -3400.00
03421              14.00    -3400.00
03422               0.00    -3400.00
03423              -2.00    -3600.00
03424               6.00    -3600.00
03425              18.00    -3600.00
03426              16.00    -3600.00
03427               6.00    -3600.00
03428              -2.00    -3600.00
03429               0.00    -3800.00
03430              22.00    -3600.00
03431              18.00    -3600.00
03432               0.00    -3600.00
03433               8.00    -3600.00
03434              18.00    -3600.00
03435              10.00    -3800.00
03436               2.00    -3800.00
03437               2.00    -3800.00
03438              10.00    -3800.00
03439              14.00    -3800.00
03440              14.00    -4000.00
03441              14.00    -3800.00
03442              14.00    -4000.00
03443               8.00    -3800.00
03444               6.00    -4000.00
03445              14.00    -3800.00
03446              10.00    -4000.00
03447              12.00    -3800.00
03448              18.00    -4000.00
03449              14.00    -4000.00
03450               6.00    -4000.00
03451               8.00    -4000.00
03452              14.00    -3800.00
03453              22.00    -4000.00
03454              22.00    -3800.00
03455              16.00    -4000.00
03456              10.00    -3800.00
03457              10.00    -3800.00
03458              14.00    -4000.00
03459              18.00    -4000.00
03460              22.00    -3800.00
03461              14.00    -3800.00
03462              16.00    -3800.00
03463              16.00    -3800.00
03464              14.00    -3800.00
03465              20.00    -4000.00
03466              22.00    -3800.00
03467              22.00    -3800.00
03468              24.00    -3800.00
03469              22.00    -3800.00
03470              18.00    -3800.00
03471              16.00    -3800.00
03472              18.00    -3800.00
03473              26.00    -3600.00
03474              28.00    -3600.00
03475              22.00    -3600.00
03476              16.00    -3600.00
03477              14.00    -3600.00
03478              18.00    -3600.00
03479              24.00    -3600.00
03480              28.00    -3600.00
03481              22.00    -3600.00
03482              18.00    -3400.00
03483              16.00    -3400.00
03484              22.00    -3600.00
03485              22.00    -3200.00
03486              18.00    -3400.00
03487              22.00    -3200.00
03488              18.00    -3200.00
03489              16.00    -3200.00
03490              16.00    -3000.00
03491              16.00    -3200.00
03492              16.00    -3200.00
03493              16.00    -3000.00
03494              16.00    -3000.00
03495              16.00    -3000.00
03496              14.00    -3000.00
03497              10.00    -3000.00
03498              14.00    -3000.00
03499              14.00    -2800.00
03500              16.00    -2800.00
03501              18.00    -2800.00
03502              14.00    -2800.00
03503              10.00    -2800.00
03504               8.00    -2800.00
03505              10.00    -2600.00
03506              10.00    -2400.00
03507              14.00    -2400.00
03508              10.00    -2400.00
03509               8.00    -2200.00
03510               8.00    -2400.00
03511               8.00    -2400.00
03512               6.00    -2200.00
03513               8.00    -2200.00
03514               8.00    -2000.00
03515               6.00    -2000.00
03516               6.00    -2000.00
03517               4.00    -2000.00
03518               6.00    -2000.00
03519               8.00    -1800.00
03520              10.00    -1600.00
03521               6.00    -1600.00
03522               6.00    -1600.00
03523               2.00    -1400.00
03524               0.00    -1600.00
03525               2.00    -1400.00
03526               6.00    -1400.00
03527               6.00    -1000.00
03528               6.00    -1000.00
03529               2.00    -1200.00
03530               2.00    -1000.00
03531               2.00     -800.00
03532               0.00     -800.00
03533               6.00     -800.00
03534               2.00     -800.00
03535               2.00     -800.00
03536               0.00     -600.00
03537               0.00     -600.00
03538               0.00     -600.00
03539               2.00     -400.00
03540               2.00     -400.00
03541              -2.00     -400.00
03542               0.00     -400.00
03543               0.00     -200.00
03544               0.00     -400.00
03545              -6.00        0.00
03546               0.00        0.00
03547               2.00        0.00
03548               0.00      200.00
03549               2.00      200.00
03550               2.00        0.00
03551              -2.00      200.00
03552               6.00      400.00
03553              14.00      400.00
03554               4.00      400.00
03555              -8.00      400.00
03556             -16.00      400.00
03557              -8.00      800.00
03558              86.00      800.00
03559             226.00     1000.00
03560             -72.00     1000.00
03561            -254.00      800.00
03562            -136.00      800.00
03563             246.00     1200.00
03564             246.00     1200.00
03565            -254.00      800.00
03566            -254.00     1200.00
03567             246.00     1600.00
03568             246.00     1400.00
03569            -254.00     1200.00
03570            -226.00     1600.00
03571             246.00     1600.00
03572               6.00     1400.00
03573            -212.00     1600.00
03574              68.00     2000.00
03575            -144.00     1800.00
03576             -14.00     1800.00
03577             246.00     2000.00
03578            -106.00     2000.00
03579            -218.00     2000.00
03580             118.00     2400.00
03581              26.00     2200.00
03582             -30.00     2200.00
03583              90.00     2400.00
03584            -176.00     2400.00
03585             -32.00     2600.00
03586             246.00     2600.00
03587            -152.00     2400.00
03588            -186.00     2600.00
03589             202.00     2800.00
03590               0.00     2600.00
03591            -106.00     2800.00
03592              68.00     3000.00
03593             -66.00     2800.00
03594             -26.00     2800.00
03595              90.00     3200.00
03596             -82.00     3000.00
03597             -22.00     3000.00
03598              32.00     3200.00
03599             -64.00     3200.00
03600              40.00     3200.00
03601              22.00     3400.00
03602             -96.00     3400.00
03603              26.00     3400.00
03604              24.00     3400.00
03605             -62.00     3400.00
03606               6.00     3600.00
03607               6.00     3400.00
03608             -32.00     3400.00
03609             -10.00     3600.00
03610             -10.00     3600.00
03611              -4.00     3600.00
03612               2.00     3600.00
03613             -32.00     3600.00
03614             -12.00     3600.00
03615               0.00     3800.00
03616             -28.00     3800.00
03617             -14.00     3800.00
03618               8.00     4000.00
03619             -24.00     4000.00
03620             -24.00     4000.00
03621               0.00     4000.00
03622             -24.00     4000.00
03623             -26.00     4000.00
03624              -4.00     4200.00
03625             -10.00     4000.00
03626             -16.00     4000.00
03627             -26.00     4200.00
03628             -26.00     4200.00
03629              -4.00     4200.00
03630             -14.00     4200.00
03631             -24.00     4000.00
03632              -6.00     4200.00
03633             -18.00     4200.00
03634             -34.00     4200.00
03635             -14.00     4200.00
03636             -14.00     4200.00
03637             -24.00     4400.00
03638             -16.00     4200.00
03639             -16.00     4200.00
03640             -18.00     4200.00
03641             -22.00     4200.00
03642             -22.00     4200.00
03643             -18.00     4200.00
03644             -18.00     4200.00
03645             -24.00     4200.00
03646             -16.00     4200.00
03647             -18.00     4200.00
03648             -32.00     4200.00
03649             -32.00     4200.00
03650             -18.00     4200.00
03651             -22.00     4200.00
03652             -18.00     4200.00
03653             -16.00     4200.00
03654             -24.00     4200.00
03655             -32.00     4200.00
03656             -32.00     4200.00
03657             -26.00     4200.00
03658             -18.00     4200.00
03659             -18.00     4200.00
03660             -24.00     4000.00
03661             -26.00     4000.00
03662             -32.00     4000.00
03663             -32.00     4000.00
03664             -26.00     4200.00
03665             -26.00     4000.00
03666             -30.00     4000.00
03667             -18.00     4000.00
03668             -26.00     4000.00
03669             -32.00     4000.00
03670             -26.00     3800.00
03671             -24.00     4000.00
03672             -22.00     3800.00
03673             -32.00     3800.00
03674             -34.00     4000.00
03675             -24.00     3600.00
03676             -16.00     3800.00
03677             -24.00     3600.00
03678             -24.00     3600.00
03679             -26.00     3800.00
03680             -24.00     3600.00
03681             -24.00     3600.00
03682             -32.00     3600.00
03683             -26.00     3600.00
03684             -10.00     3400.00
03685             -10.00     3400.00
03686             -26.00     3400.00
03687             -40.00     3200.00
03688             -42.00     3200.00
03689             -16.00     3200.00
03690               6.00     3200.00
03691               0.00     3200.00
03692             -24.00     3000.00
03693             -46.00     3200.00
03694             -42.00     3000.00
03695             -14.00     2800.00
03696               6.00     2800.00
03697              -8.00     2800.00
03698             -22.00     2800.00
03699             -30.00     2800.00
03700             -24.00     2600.00
03701             -18.00     2600.00
03702             -18.00     2600.00
03703             -10.00     2400.00
03704              -8.00     2400.00
03705             -16.00     2400.00
03706             -14.00     2400.00
03707             -16.00     2200.00
03708             -10.00     2200.00
03709             -16.00     2000.00
03710             -18.00     2200.00
03711             -14.00     2000.00
03712              -8.00     2000.00
03713              -2.00     2000.00
03714              -8.00     1800.00
03715             -20.00     1800.00
03716             -26.00     1600.00
03717             -16.00     1600.00
03718               2.00     1800.00
03719               8.00     1600.00
03720              -8.00     1600.00
03721             -22.00     1400.00
03722             -26.00     1200.00
03723             -14.00     1200.00
03724               0.00     1200.00
03725               6.00     1000.00
03726              -2.00     1000.00
03727              -8.00     1200.00
03728              -6.00     1000.00
03729             -12.00     1000.00
03730             -20.00     1000.00
03731             -16.00      800.00
03732               4.00      800.00
03733              14.00      800.00
03734               0.00      600.00
03735             -14.00      400.00
03736             -16.00      400.00
03737              -8.00      400.00
03738               2.00      400.00
03739               2.00      400.00
03740               4.00      200.00
03741              -2.00      200.00
03742             -10.00        0.00
03743              -2.00        0.00
03744              10.00        0.00
03745              12.00        0.00
03746               2.00        0.00
03747              -6.00     -200.00
03748              -6.00     -200.00
03749               6.00     -400.00
03750              78.00     -400.00
03751             182.00     -400.00
03752             -62.00     -600.00
03753            -254.00     -800.00
03754            -178.00     -600.00
03755             246.00     -800.00
03756             246.00     -800.00
03757            -254.00    -1000.00
03758            -254.00     -800.00
03759             246.00    -1200.00
03760             246.00     -800.00
03761            -254.00    -1000.00
03762            -254.00    -1200.00
03763             246.00    -1400.00
03764             192.00    -1200.00
03765             -16.00    -1400.00
03766            -112.00    -1400.00
03767            -234.00    -1400.00
03768              74.00    -1600.00
03769             246.00    -1800.00
03770             -88.00    -2000.00
03771            -254.00    -1600.00
03772              32.00    -2000.00
03773             198.00    -1800.00
03774              46.00    -2000.00
03775             -70.00    -2400.00
03776            -132.00    -2000.00
03777              32.00    -2000.00
03778             202.00    -2400.00
03779             -66.00    -2200.00
03780            -154.00    -2200.00
03781              70.00    -2400.00
03782             112.00    -2400.00
03783             -30.00    -2400.00
03784             -26.00    -2600.00
03785             -24.00    -2800.00
03786              14.00    -2400.00
03787              60.00    -2600.00
03788             -10.00    -2800.00
03789             -42.00    -2800.00
03790              18.00    -2800.00
03791              40.00    -2800.00
03792               6.00    -2800.00
03793             -10.00    -3000.00
03794             -14.00    -2800.00
03795              22.00    -3000.00
03796              32.00    -3000.00
03797             -10.00    -3000.00
03798             -14.00    -3000.00
03799              30.00    -3200.00
03800              22.00    -3200.00
03801             -16.00    -3200.00
03802               0.00    -3400.00
03803              18.00    -3400.00
03804              16.00    -3600.00
03805               6.00    -3200.00
03806               2.00    -3600.00
03807               0.00    -3600.00
03808              10.00    -3600.00
03809              16.00    -3600.00
03810              16.00    -3600.00
03811               8.00    -3600.00
03812               4.00    -3600.00
03813              16.00    -3600.00
03814              12.00    -3600.00
03815              -2.00    -3800.00
03816               8.00    -3600.00
03817              22.00    -3800.00
03818              12.00    -3800.00
03819               2.00    -3800.00
03820               4.00    -3800.00
03821              14.00    -3800.00
03822               8.00    -3800.00
03823              10.00    -3800.00
03824              14.00    -3800.00
03825              14.00    -3800.00
03826               8.00    -3800.00
03827               2.00    -4000.00
03828              12.00    -4000.00
03829              14.00    -3800.00
03830              14.00    -3800.00
03831              16.00    -4000.00
03832              14.00    -4000.00
03833               6.00    -4000.00
03834               8.00    -4000.00
03835              16.00    -4000.00
03836              18.00    -4200.00
03837              16.00    -3800.00
03838              16.00    -4000.00
03839              14.00    -4000.00
03840              14.00    -4000.00
03841              12.00    -3800.00
03842              18.00    -3800.00
03843              18.00    -3800.00
03844              22.00    -4000.00
03845              18.00    -3800.00
03846              16.00    -4000.00
03847              12.00    -3800.00
03848              18.00    -3800.00
03849              22.00    -3800.00
03850              24.00    -3800.00
03851              22.00    -3800.00
03852              18.00    -3600.00
03853              16.00    -3800.00
03854              18.00    -3800.00
03855              22.00    -3600.00
03856              24.00    -3800.00
03857              24.00    -3600.00
03858              22.00    -3800.00
03859              22.00    -3600.00
03860              18.00    -3600.00
03861              22.00    -3400.00
03862              22.00    -3400.00
03863              24.00    -3600.00
03864              22.00    -3600.00
03865              18.00    -3400.00
03866              18.00    -3600.00
03867              18.00    -3200.00
03868              18.00    -3400.00
03869              22.00    -3400.00
03870              22.00    -3200.00
03871              22.00    -3200.00
03872              18.00    -3200.00
03873              18.00    -3200.00
03874              16.00    -3000.00
03875              16.00    -3000.00
03876              16.00    -3200.00
03877              22.00    -3000.00
03878              16.00    -3000.00
03879              14.00    -3000.00
03880              14.00    -3000.00
03881              16.00    -2800.00
03882              16.00    -3000.00
03883              16.00    -2800.00
03884              14.00    -2800.00
03885              10.00    -2800.00
03886               8.00    -2800.00
03887              14.00    -2600.00
03888              14.00    -2600.00
03889              10.00    -2400.00
03890               8.00    -2400.00
03891              10.00    -2400.00
03892              14.00    -2400.00
03893              14.00    -2400.00
03894               6.00    -2200.00
03895               2.00    -2200.00
03896               2.00    -2200.00
03897               8.00    -2000.00
03898              14.00    -2000.00
03899              10.00    -2000.00
03900               6.00    -1800.00
03901               4.00    -2000.00
03902               6.00    -1800.00
03903               6.00    -1600.00
03904               4.00    -1600.00
03905               0.00    -1600.00
03906               6.00    -1600.00
03907               8.00    -1400.00
03908               6.00    -1400.00
03909               6.00    -1400.00
03910               0.00    -1400.00
03911               0.00    -1000.00
03912               2.00    -1200.00
03913               2.00    -1000.00
03914               6.00    -1000.00
03915               0.00    -1000.00
03916               0.00     -800.00
03917               6.00     -800.00
03918               4.00     -800.00
03919               0.00     -600.00
03920               0.00     -600.00
03921              -2.00     -600.00
03922               0.00     -400.00
03923               0.00     -400.00
03924               4.00     -200.00
03925               4.00     -400.00
03926               0.00     -400.00
03927              -4.00     -200.00
03928               0.00     -200.00
03929               2.00        0.00
03930              -2.00        0.00
03931               0.00        0.00
03932               6.00      200.00
03933               6.00      200.00
03934               0.00      400.00
03935               0.00      200.00
03936               6.00      400.00
03937               2.00      400.00
03938               0.00      400.00
03939               0.00      600.00
03940               6.00      800.00
03941              66.00      800.00
03942             208.00     1000.00
03943             -50.00     1000.00
03944            -254.00      800.00
03945            -172.00      800.00
03946             246.00     1200.00
03947             246.00     1200.00
03948            -254.00      800.00
03949            -254.00     1200.00
03950             246.00     1600.00
03951             246.00     1200.00
03952            -254.00     1200.00
03953            -254.00     1800.00
03954             246.00     1600.00
03955              22.00     1400.00
03956            -216.00     1800.00
03957              82.00     2000.00
03958            -126.00     1600.00
03959             -36.00     1800.00
03960             246.00     2000.00
03961             -80.00     1800.00
03962            -224.00     2000.00
03963             112.00     2000.00
03964              32.00     2200.00
03965             -42.00     2200.00
03966              94.00     2400.00
03967            -166.00     2200.00
03968             -56.00     2400.00
03969             246.00     2600.00
03970            -126.00     2400.00
03971            -202.00     2600.00
03972             190.00     2800.00
03973              14.00     2600.00
03974            -112.00     2800.00
03975              72.00     3000.00
03976             -62.00     3000.00
03977             -38.00     2800.00
03978              94.00     3200.00
03979             -78.00     3000.00
03980             -26.00     3000.00
03981              40.00     3200.00
03982             -66.00     3000.00
03983              22.00     3200.00
03984              22.00     3400.00
03985             -96.00     3200.00
03986              26.00     3200.00
03987              38.00     3600.00
03988             -64.00     3400.00
03989              -6.00     3600.00
03990               8.00     3600.00
03991             -24.00     3600.00
03992             -10.00     3600.00
03993             -24.00     3600.00
03994             -14.00     3600.00
03995              16.00     3600.00
03996             -10.00     3800.00
03997             -20.00     3600.00
03998             -24.00     4000.00
03999             -38.00     3800.00
04000               0.00     3800.00
04001              32.00     4000.00
04002             -22.00     3800.00
04003             -46.00     4000.00
04004             -14.00     4000.00
04005             -18.00     4000.00
04006             -14.00     4000.00
04007               8.00     4000.00
04008              -8.00     4200.00
04009             -18.00     4200.00
04010             -26.00     4200.00
04011             -32.00     4000.00
04012             -14.00     4200.00
04013             -14.00     4200.00
04014             -10.00     4200.00
04015               8.00     4200.00
04016             -18.00     4200.00
04017             -46.00     4200.00
04018             -22.00     4200.00
04019              -8.00     4200.00
04020             -16.00     4200.00
04021             -18.00     4200.00
04022             -22.00     4200.00
04023             -22.00     4200.00
04024             -16.00     4200.00
04025             -16.00     4400.00
04026             -16.00     4200.00
04027             -24.00     4200.00
04028             -32.00     4200.00
04029             -22.00     4200.00
04030             -10.00     4200.00
04031             -24.00     4200.00
04032             -26.00     4200.00
04033             -26.00     4200.00
04034             -30.00     4200.00
04035             -24.00     4200.00
04036             -16.00     4200.00
04037             -24.00     4200.00
04038             -32.00     4200.00
04039             -26.00     4200.00
04040             -24.00     4200.00
04041             -22.00     4000.00
04042             -30.00     4200.00
04043             -28.00     4200.00
04044             -22.00     4000.00
04045             -26.00     4000.00
04046             -26.00     4000.00
04047             -26.00     4000.00
04048             -32.00     4000.00
04049             -32.00     4000.00
04050             -22.00     4000.00
04051             -24.00     4000.00
04052             -30.00     4000.00
04053             -28.00     4000.00
04054             -26.00     3800.00
04055             -24.00     4000.00
04056             -26.00     4000.00
04057             -26.00     3800.00
04058             -26.00     3800.00
04059             -26.00     3800.00
04060             -22.00     3600.00
04061             -22.00     3600.00
04062             -24.00     3600.00
04063             -30.00     3600.00
04064             -26.00     3600.00
04065             -22.00     3400.00
04066             -22.00     3400.00
04067             -22.00     3400.00
04068             -22.00     3400.00
04069             -22.00     3200.00
04070             -24.00     3400.00
04071             -26.00     3400.00
04072             -18.00     3200.00
04073             -22.00     3200.00
04074             -22.00     3200.00
04075             -16.00     3200.00
04076             -16.00     3200.00
04077             -22.00     3000.00
04078             -18.00     2800.00
04079             -16.00     2800.00
04080             -16.00     2800.00
04081             -22.00     2800.00
04082             -16.00     2800.00
04083             -14.00     2600.00
04084             -18.00     2600.00
04085             -22.00     2600.00
04086             -14.00     2400.00
04087             -14.00     2600.00
04088             -14.00     2400.00
04089             -10.00     2400.00
04090             -10.00     2400.00
04091             -16.00     2200.00
04092             -16.00     2200.00
04093             -16.00     2000.00
04094             -10.00     2000.00
04095             -10.00     2000.00
04096             -10.00     2000.00
04097             -10.00     1800.00
04098             -16.00     1800.00
04099             -16.00     1600.00
04100             -10.00     1600.00
04101              -6.00     1600.00
04102             -10.00     1600.00
04103             -10.00     1600.00
04104             -12.00     1200.00
04105             -12.00     1400.00
04106              -8.00     1200.00
04107              -6.00     1200.00
04108              -4.00     1200.00
04109              -8.00     1000.00
04110             -10.00     1000.00
04111             -10.00     1000.00
04112              -8.00      800.00
04113             -10.00      800.00
04114              -8.00      800.00
04115              -6.00      800.00
04116              -2.00      600.00
04117              -6.00      400.00
04118              -8.00      800.00
04119              -6.00      400.00
04120              -2.00      400.00
04121              -6.00      400.00
04122              -6.00      400.00
04123              -2.00      200.00
04124               2.00      200.00
04125               0.00        0.00
04126               0.00        0.00
04127               6.00        0.00
04128               2.00     -200.00
04129              -6.00     -200.00
04130              -8.00     -200.00
04131               0.00        0.00
04132              16.00     -400.00
04133              78.00     -400.00
04134             174.00     -600.00
04135             -54.00     -800.00
04136            -254.00     -800.00
04137            -218.00     -400.00
04138             246.00     -800.00
04139             246.00     -800.00
04140            -254.00    -1000.00
04141            -254.00     -800.00
04142             246.00    -1200.00
04143             246.00    -1000.00
04144            -254.00    -1200.00
04145            -254.00    -1000.00
04146             246.00    -1200.00
04147             210.00    -1400.00
04148              -6.00    -1400.00
04149            -104.00    -1600.00
04150            -240.00    -1400.00
04151              48.00    -1600.00
04152             246.00    -1600.00
04153             -54.00    -1800.00
04154            -254.00    -1600.00
04155              10.00    -2000.00
04156             198.00    -1600.00
04157              48.00    -2000.00
04158             -62.00    -2200.00
04159            -136.00    -2000.00
04160              16.00    -2000.00
04161             202.00    -2400.00
04162             -48.00    -2400.00
04163            -160.00    -2200.00
04164              54.00    -2400.00
04165             110.00    -2400.00
04166             -32.00    -2400.00
04167             -26.00    -2800.00
04168             -26.00    -2800.00
04169              14.00    -2400.00
04170              54.00    -2600.00
04171              -8.00    -2800.00
04172             -48.00    -2800.00
04173              14.00    -3000.00
04174              40.00    -2800.00
04175               4.00    -3000.00
04176             -10.00    -3000.00
04177             -18.00    -3000.00
04178              20.00    -3000.00
04179              30.00    -3000.00
04180             -10.00    -3000.00
04181             -16.00    -3200.00
04182              28.00    -3200.00
04183              18.00    -3200.00
04184             -16.00    -3200.00
04185               0.00    -3200.00
04186              18.00    -3600.00
04187              18.00    -3400.00
04188              10.00    -3400.00
04189              -2.00    -3400.00
04190              -6.00    -3400.00
04191              14.00    -3600.00
04192              22.00    -3600.00
04193              16.00    -3600.00
04194               2.00    -3600.00
04195              -4.00    -3600.00
04196              14.00    -3600.00
04197              18.00    -3600.00
04198               6.00    -3800.00
04199               8.00    -3800.00
04200              16.00    -3800.00
04201               8.00    -3800.00
04202               2.00    -3800.00
04203              10.00    -3800.00
04204              14.00    -3800.00
04205              10.00    -3800.00
04206               8.00    -3800.00
04207              12.00    -3800.00
04208              16.00    -4000.00
04209              14.00    -4000.00
04210               6.00    -4000.00
04211               8.00    -3800.00
04212               8.00    -4000.00
04213              14.00    -3800.00
04214              20.00    -3800.00
04215              14.00    -4000.00
04216               8.00    -4000.00
04217              10.00    -4000.00
04218              14.00    -4000.00
04219              14.00    -3800.00
04220              14.00    -4000.00
04221              16.00    -4000.00
04222              18.00    -4000.00
04223              14.00    -4000.00
04224               8.00    -3800.00
04225              14.00    -4000.00
04226              20.00    -4000.00
04227              22.00    -4000.00
04228              22.00    -4000.00
04229              14.00    -3800.00
04230              10.00    -4000.00
04231              16.00    -3800.00
04232              22.00    -3800.00
04233              22.00    -4000.00
04234              22.00    -4000.00
04235              18.00    -3800.00
04236              16.00    -3800.00
04237              18.00    -3600.00
04238              22.00    -3600.00
04239              26.00    -3600.00
04240              26.00    -3600.00
04241              18.00    -3800.00
04242              18.00    -3800.00
04243              16.00    -3600.00
04244              16.00    -3600.00
04245              22.00    -3600.00
04246              24.00    -3600.00
04247              26.00    -3600.00
04248              16.00    -3600.00
04249              16.00    -3400.00
04250              18.00    -3600.00
04251              22.00    -3200.00
04252              24.00    -3400.00
04253              24.00    -3400.00
04254              18.00    -3200.00
04255              14.00    -3200.00
04256              16.00    -3200.00
04257              20.00    -3200.00
04258              18.00    -3000.00
04259              20.00    -3000.00
04260              18.00    -3000.00
04261              16.00    -3000.00
04262              14.00    -3000.00
04263              14.00    -2800.00
04264              16.00    -2800.00
04265              16.00    -2800.00
04266              16.00    -2800.00
04267              16.00    -2800.00
04268              14.00    -2800.00
04269              10.00    -2800.00
04270              14.00    -2800.00
04271              14.00    -2600.00
04272              14.00    -2400.00
04273              12.00    -2400.00
04274              14.00    -2400.00
04275               8.00    -2400.00
04276               8.00    -2200.00
04277               6.00    -2200.00
04278               8.00    -2200.00
04279              10.00    -2200.00
04280              10.00    -2200.00
04281              10.00    -2000.00
04282               8.00    -2000.00
04283               2.00    -2000.00
04284               2.00    -1800.00
04285               6.00    -1600.00
04286               8.00    -1600.00
04287               8.00    -1600.00
04288               4.00    -1600.00
04289               6.00    -1400.00
04290               2.00    -1400.00
04291               2.00    -1400.00
04292               0.00    -1400.00
04293               6.00    -1200.00
04294               8.00    -1200.00
04295               2.00    -1000.00
04296               0.00    -1000.00
04297               0.00     -800.00
04298               0.00    -1000.00
04299               2.00    -1000.00
04300               6.00     -800.00
04301               0.00     -800.00
04302               0.00     -600.00
04303               0.00     -600.00
04304               0.00     -600.00
04305               0.00     -600.00
04306               2.00     -400.00
04307               0.00     -400.00
04308               0.00     -200.00
04309              -2.00     -400.00
04310              -2.00        0.00
04311               0.00        0.00
04312              -2.00        0.00
04313              -2.00        0.00
04314               0.00      200.00
04315               2.00      200.00
04316               6.00      200.00
04317               0.00      400.00
04318               4.00      200.00
04319               8.00      400.00
04320               0.00      400.00
04321              -6.00      400.00
04322              -6.00      600.00
04323               4.00      800.00
04324              70.00      800.00
04325             210.00     1000.00
04326             -30.00     1000.00
04327            -254.00      800.00
04328            -222.00     1000.00
04329             246.00     1200.00
04330             246.00     1200.00
04331            -254.00     1000.00
04332            -254.00     1200.00
04333             246.00     1600.00
04334             246.00     1200.00
04335            -254.00     1200.00
04336            -254.00     1600.00
04337             246.00     1800.00
04338              54.00     1200.00
04339            -224.00     1600.00
04340              78.00     1800.00
04341            -114.00     1800.00
04342             -54.00     1800.00
04343             246.00     2000.00
04344             -54.00     2000.00
04345            -236.00     2000.00
04346             102.00     2200.00
04347              46.00     2000.00
04348             -48.00     2400.00
04349              94.00     2400.00
04350            -154.00     2200.00
04351             -74.00     2400.00
04352             246.00     2600.00
04353            -100.00     2400.00
04354            -218.00     2600.00
04355             180.00     2800.00
04356              26.00     2600.00
04357            -122.00     2600.00
04358              70.00     2800.00
04359             -50.00     2800.00
04360             -54.00     2800.00
04361              96.00     3200.00
04362             -66.00     2800.00
04363             -38.00     3000.00
04364              38.00     3200.00
04365             -66.00     3200.00
04366              22.00     3200.00
04367              40.00     3200.00
04368             -96.00     3200.00
04369               0.00     3400.00
04370              32.00     3400.00
04371             -56.00     3400.00
04372              10.00     3600.00
04373              16.00     3400.00
04374             -48.00     3400.00
04375             -18.00     3600.00
04376              -2.00     3600.00
04377              -2.00     3400.00
04378              -2.00     3800.00
04379             -34.00     3600.00
04380             -16.00     3600.00
04381               8.00     3800.00
04382             -26.00     3800.00
04383             -22.00     3800.00
04384               8.00     4000.00
04385             -18.00     4000.00
04386             -26.00     4000.00
04387               0.00     4000.00
04388             -20.00     4000.00
04389             -30.00     4000.00
04390               0.00     4000.00
04391               0.00     4000.00
04392             -16.00     4200.00
04393             -26.00     4200.00
04394             -32.00     4000.00
04395              -6.00     4200.00
04396              -8.00     4200.00
04397             -26.00     4200.00
04398              -6.00     4200.00
04399             -10.00     4200.00
04400             -32.00     4400.00
04401             -22.00     4200.00
04402             -16.00     4200.00
04403             -18.00     4400.00
04404             -10.00     4200.00
04405              -8.00     4200.00
04406             -22.00     4200.00
04407             -26.00     4200.00
04408             -26.00     4200.00
04409             -18.00     4200.00
04410             -14.00     4200.00
04411             -22.00     4200.00
04412             -22.00     4200.00
04413             -16.00     4200.00
04414             -28.00     4400.00
04415             -26.00     4200.00
04416             -16.00     4200.00
04417             -24.00     4200.00
04418             -26.00     4200.00
04419             -22.00     4200.00
04420             -26.00     4400.00
04421             -24.00     4200.00
04422             -24.00     4200.00
04423             -24.00     4000.00
04424             -26.00     4200.00
04425             -30.00     4000.00
04426             -26.00     4200.00
04427             -24.00     4200.00
04428             -26.00     4000.00
04429             -32.00     4000.00
04430             -26.00     4000.00
04431             -26.00     4000.00
04432             -28.00     4000.00
04433             -26.00     4000.00
04434             -26.00     4000.00
04435             -30.00     4000.00
04436             -26.00     4000.00
04437             -24.00     4000.00
04438             -24.00     4000.00
04439             -26.00     3800.00
04440             -30.00     3800.00
04441             -26.00     3800.00
04442             -26.00     3800.00
04443             -24.00     3600.00
04444             -18.00     3600.00
04445             -24.00     3600.00
04446             -32.00     3600.00
04447             -28.00     3600.00
04448             -22.00     3600.00
04449             -18.00     3400.00
04450             -18.00     3400.00
04451             -24.00     3400.00
04452             -26.00     3400.00
04453             -24.00     3200.00
04454             -24.00     3400.00
04455             -18.00     3200.00
04456             -18.00     3200.00
04457             -18.00     3200.00
04458             -18.00     3200.00
04459             -18.00     3200.00
04460             -18.00     3000.00
04461             -16.00     3000.00
04462             -16.00     2800.00
04463             -16.00     2800.00
04464             -16.00     2800.00
04465             -16.00     2800.00
04466             -16.00     2600.00
04467             -18.00     2600.00
04468             -18.00     2600.00
04469             -12.00     2600.00
04470             -14.00     2400.00
04471             -16.00     2400.00
04472             -16.00     2400.00
04473             -14.00     2200.00
04474             -16.00     2200.00
04475             -16.00     2200.00
04476             -14.00     2000.00
04477             -12.00     2000.00
04478             -14.00     2000.00
04479             -10.00     1800.00
04480             -10.00     1800.00
04481             -14.00     1800.00
04482             -16.00     1600.00
04483             -10.00     1800.00
04484              -8.00     1600.00
04485             -10.00     1600.00
04486             -10.00     1600.00
04487             -12.00     1400.00
04488             -16.00     1400.00
04489             -10.00     1200.00
04490              -8.00     1200.00
04491              -2.00     1200.00
04492              -6.00     1200.00
04493             -10.00     1000.00
04494             -10.00     1200.00
04495             -10.00     1000.00
04496             -10.00     1000.00
04497              -6.00      800.00
04498              -2.00      800.00
04499              -6.00      800.00
04500             -10.00      600.00
04501              -8.00      400.00
04502              -2.00      400.00
04503              -2.00      400.00
04504              -6.00      400.00
04505              -8.00      200.00
04506              -6.00      200.00
04507               0.00      200.00
04508               0.00      200.00
04509               2.00        0.00
04510               8.00        0.00
04511               2.00        0.00
04512              -8.00        0.00
04513              -8.00     -200.00
04514               2.00     -400.00
04515              14.00     -400.00
04516              72.00     -400.00
04517             174.00     -600.00
04518             -32.00     -800.00
04519            -254.00     -800.00
04520            -254.00     -400.00
04521             246.00     -600.00
04522             246.00     -800.00
04523            -254.00    -1200.00
04524            -254.00     -800.00
04525             246.00    -1200.00
04526             246.00    -1000.00
04527            -254.00    -1200.00
04528            -254.00    -1000.00
04529             246.00    -1400.00
04530             224.00    -1400.00
04531               0.00    -1400.00
04532             -96.00    -1600.00
04533            -238.00    -1400.00
04534              30.00    -1600.00
04535             246.00    -1800.00
04536             -28.00    -1600.00
04537            -254.00    -2000.00
04538              -8.00    -2000.00
04539             206.00    -1800.00
04540              54.00    -2000.00
04541             -56.00    -2200.00
04542            -138.00    -2000.00
04543               6.00    -2200.00
04544             206.00    -2400.00
04545             -32.00    -2400.00
04546            -168.00    -2200.00
04547              44.00    -2400.00
04548             118.00    -2400.00
04549             -26.00    -2400.00
04550             -26.00    -2600.00
04551             -30.00    -2800.00
04552               8.00    -2800.00
04553              58.00    -2600.00
04554              -2.00    -3000.00
04555             -46.00    -2800.00
04556               8.00    -2800.00
04557              38.00    -2800.00
04558               6.00    -3000.00
04559             -10.00    -3000.00
04560             -18.00    -3000.00
04561              18.00    -3200.00
04562              32.00    -3000.00
04563              -6.00    -3000.00
04564             -18.00    -3200.00
04565              22.00    -3200.00
04566              18.00    -3200.00
04567             -14.00    -3200.00
04568               2.00    -3200.00
04569              22.00    -3200.00
04570              14.00    -3400.00
04571               6.00    -3400.00
04572               0.00    -3600.00
04573               2.00    -3600.00
04574              10.00    -3600.00
04575              16.00    -3600.00
04576              14.00    -3600.00
04577               6.00    -3600.00
04578               2.00    -3600.00
04579              14.00    -3600.00
04580              16.00    -3600.00
04581               2.00    -3600.00
04582               6.00    -3800.00
04583              18.00    -3600.00
04584              10.00    -3800.00
04585               6.00    -3800.00
04586              10.00    -3800.00
04587              10.00    -3800.00
04588               8.00    -3800.00
04589               8.00    -3800.00
04590              16.00    -3800.00
04591              18.00    -3800.00
04592               8.00    -3800.00
04593               6.00    -4000.00
04594              14.00    -3800.00
04595              16.00    -3800.00
04596              16.00    -3800.00
04597              18.00    -3800.00
04598              14.00    -4000.00
04599               8.00    -3800.00
04600              12.00    -4000.00
04601              16.00    -4000.00
04602              16.00    -3800.00
04603              16.00    -3800.00
04604              16.00    -4000.00
04605              16.00    -4000.00
04606              12.00    -4000.00
04607              14.00    -3800.00
04608              22.00    -3800.00
04609              22.00    -4000.00
04610              14.00    -4000.00
04611              18.00    -3800.00
04612              22.00    -4000.00
04613              16.00    -3800.00
04614              16.00    -3800.00
04615              22.00    -3800.00
04616              22.00    -3800.00
04617              22.00    -4000.00
04618              16.00    -3800.00
04619              16.00    -3800.00
04620              18.00    -3800.00
04621              20.00    -3800.00
04622              22.00    -3800.00
04623              22.00    -3600.00
04624              22.00    -3800.00
04625              22.00    -3800.00
04626              18.00    -3600.00
04627              14.00    -3600.00
04628              24.00    -3600.00
04629              30.00    -3600.00
04630              24.00    -3400.00
04631              16.00    -3400.00
04632              18.00    -3600.00
04633              16.00    -3400.00
04634              22.00    -3400.00
04635              18.00    -3200.00
04636              22.00    -3400.00
04637              24.00    -3200.00
04638              16.00    -3200.00
04639              14.00    -3200.00
04640              18.00    -3200.00
04641              18.00    -3000.00
04642              20.00    -3000.00
04643              18.00    -3000.00
04644              16.00    -3000.00
04645              18.00    -3000.00
04646              16.00    -3000.00
04647              10.00    -3000.00
04648              16.00    -2800.00
04649              18.00    -2800.00
04650              18.00    -2800.00
04651              16.00    -2800.00
04652               8.00    -2800.00
04653              10.00    -2600.00
04654              16.00    -2400.00
04655              14.00    -2400.00
04656              12.00    -2400.00
04657              12.00    -2400.00
04658              12.00    -2200.00
04659              10.00    -2400.00
04660              10.00    -2000.00
04661               8.00    -2200.00
04662               8.00    -2200.00
04663              10.00    -2000.00
04664              10.00    -2000.00
04665              10.00    -2000.00
04666               6.00    -2000.00
04667               2.00    -1800.00
04668               6.00    -1600.00
04669               6.00    -1600.00
04670              10.00    -1600.00
04671              10.00    -1600.00
04672               6.00    -1600.00
04673               0.00    -1600.00
04674               0.00    -1400.00
04675               6.00    -1400.00
04676               8.00    -1000.00
04677               2.00    -1400.00
04678               2.00    -1000.00
04679               0.00    -1000.00
04680               0.00     -800.00
04681               0.00    -1000.00
04682               4.00     -800.00
04683               6.00     -800.00
04684               2.00     -600.00
04685              -4.00     -600.00
04686              -2.00     -600.00
04687               2.00     -600.00
04688               2.00     -400.00
04689               2.00     -400.00
04690               0.00     -400.00
04691               0.00     -400.00
04692              -2.00     -200.00
04693               0.00     -200.00
04694              -2.00        0.00
04695               0.00        0.00
04696              -2.00        0.00
04697              -2.00        0.00
04698               0.00      200.00
04699               6.00      200.00
04700               2.00      400.00
04701               6.00      400.00
04702               8.00      400.00
04703              -2.00      400.00
04704             -10.00      600.00
04705              -6.00      800.00
04706               2.00      800.00
04707              66.00      800.00
04708             208.00     1000.00
04709              -8.00     1000.00
04710            -254.00      800.00
04711            -254.00     1000.00
04712             246.00     1200.00
04713             246.00     1400.00
04714            -254.00     1000.00
04715            -254.00     1200.00
04716             246.00     1800.00
04717             246.00     1600.00
04718            -254.00     1200.00
04719            -254.00     1600.00
04720             246.00     1600.00
04721              82.00     1400.00
04722            -230.00     1600.00
04723              78.00     2000.00
04724            -100.00     1600.00
04725             -72.00     1800.00
04726             246.00     2000.00
04727             -26.00     2000.00
04728            -246.00     2000.00
04729              96.00     2400.00
04730              64.00     2000.00
04731             -50.00     2400.00
04732              88.00     2600.00
04733            -154.00     2400.00
04734            -102.00     2400.00
04735             246.00     2600.00
04736             -58.00     2600.00
04737            -234.00     2600.00
04738             154.00     2800.00
04739              32.00     2600.00
04740            -122.00     2600.00
04741              80.00     3000.00
04742             -42.00     2800.00
04743             -66.00     2800.00
04744              90.00     3200.00
04745             -58.00     3000.00
04746             -38.00     3000.00
04747              34.00     3200.00
04748             -68.00     3200.00
04749              24.00     3200.00
04750              54.00     3400.00
04751             -96.00     3200.00
04752             -14.00     3400.00
04753              24.00     3400.00
04754             -50.00     3400.00
04755              16.00     3400.00
04756              22.00     3600.00
04757             -48.00     3400.00
04758             -32.00     3600.00
04759             -10.00     3600.00
04760               6.00     3600.00
04761              10.00     3800.00
04762             -32.00     3600.00
04763             -26.00     3600.00
04764              -2.00     3800.00
04765             -22.00     3800.00
04766             -16.00     3800.00
04767               8.00     4000.00
04768             -20.00     4000.00
04769             -32.00     4000.00
04770               2.00     4000.00
04771             -14.00     4000.00
04772             -28.00     4000.00
04773              -8.00     4200.00
04774              -8.00     4000.00
04775             -14.00     4200.00
04776             -14.00     4200.00
04777             -24.00     4000.00
04778             -10.00     4200.00
04779             -16.00     4200.00
04780             -26.00     4200.00
04781              -2.00     4200.00
04782              -8.00     4200.00
04783             -30.00     4200.00
04784             -16.00     4200.00
04785             -10.00     4400.00
04786             -22.00     4200.00
04787             -18.00     4200.00
04788             -16.00     4200.00
04789             -24.00     4200.00
04790             -18.00     4200.00
04791             -18.00     4400.00
04792             -14.00     4200.00
04793             -10.00     4200.00
04794             -24.00     4200.00
04795             -26.00     4400.00
04796             -24.00     4400.00
04797             -28.00     4200.00
04798             -18.00     4200.00
04799             -10.00     4200.00
04800             -20.00     4200.00
04801             -26.00     4200.00
04802             -24.00     4200.00
04803             -30.00     4200.00
04804             -30.00     4200.00
04805             -26.00     4200.00
04806             -18.00     4200.00
04807             -18.00     4200.00
04808             -26.00     4200.00
04809             -26.00     4000.00
04810             -26.00     4200.00
04811             -32.00     4000.00
04812             -30.00     4000.00
04813             -20.00     4000.00
04814             -22.00     4000.00
04815             -26.00     4000.00
04816             -30.00     4000.00
04817             -30.00     4000.00
04818             -32.00     3800.00
04819             -26.00     4000.00
04820             -24.00     3800.00
04821             -26.00     3800.00
04822             -26.00     4000.00
04823             -26.00     3800.00
04824             -24.00     3800.00
04825             -26.00     3600.00
04826             -30.00     3800.00
04827             -22.00     3600.00
04828             -18.00     3600.00
04829             -26.00     3600.00
04830             -26.00     3600.00
04831             -24.00     3600.00
04832             -24.00     3400.00
04833             -18.00     3400.00
04834             -16.00     3400.00
04835             -22.00     3400.00
04836             -26.00     3400.00
04837             -26.00     3400.00
04838             -22.00     3400.00
04839             -16.00     3400.00
04840             -16.00     3200.00
04841             -14.00     3000.00
04842             -18.00     3000.00
04843             -26.00     3200.00
04844             -22.00     3000.00
04845             -16.00     3000.00
04846             -10.00     2800.00
04847             -16.00     2800.00
04848             -16.00     2800.00
04849             -16.00     2800.00
04850             -18.00     2600.00
04851             -20.00     2600.00
04852             -10.00     2600.00
04853             -10.00     2600.00
04854             -10.00     2600.00
04855             -10.00     2400.00
04856             -14.00     2200.00
04857             -12.00     2400.00
04858             -14.00     2200.00
04859             -14.00     2000.00
04860             -14.00     2000.00
04861             -16.00     2000.00
04862             -10.00     2000.00
04863             -10.00     2000.00
04864             -10.00     1800.00
04865             -14.00     1600.00
04866             -12.00     1600.00
04867             -10.00     1600.00
04868              -8.00     1600.00
04869              -8.00     1600.00
04870             -10.00     1600.00
04871             -14.00     1400.00
04872             -14.00     1400.00
04873             -10.00     1200.00
04874              -2.00     1200.00
04875              -6.00     1200.00
04876              -8.00     1200.00
04877             -10.00     1000.00
04878             -10.00      800.00
04879             -10.00     1000.00
04880              -8.00      800.00
04881              -2.00      800.00
04882              -2.00      800.00
04883              -8.00      800.00
04884             -10.00      400.00
04885              -6.00      400.00
04886              -6.00      400.00
04887              -6.00      400.00
04888              -8.00      400.00
04889              -2.00      200.00
04890               0.00      200.00
04891               0.00        0.00
04892               0.00        0.00
04893               6.00        0.00
04894               6.00        0.00
04895              -8.00     -200.00
04896             -10.00     -200.00
04897              -2.00     -400.00
04898              14.00     -200.00
04899              66.00     -400.00
04900             176.00     -400.00
04901             -10.00     -800.00
04902            -254.00     -800.00
04903            -254.00     -600.00
04904             246.00     -800.00
04905             246.00     -800.00
04906            -254.00    -1200.00
04907            -254.00     -800.00
04908             246.00    -1200.00
04909             246.00    -1000.00
04910            -254.00    -1200.00
04911            -254.00    -1200.00
04912             246.00    -1200.00
04913             240.00    -1400.00
04914               8.00    -1400.00
04915             -92.00    -1600.00
04916            -234.00    -1400.00
04917               8.00    -1600.00
04918             246.00    -1800.00
04919               2.00    -1600.00
04920            -254.00    -1600.00
04921             -30.00    -2000.00
04922             210.00    -2000.00
04923              62.00    -2000.00
04924             -46.00    -2200.00
04925            -136.00    -2000.00
04926              -6.00    -2000.00
04927             200.00    -2200.00
04928             -16.00    -2400.00
04929            -174.00    -2200.00
04930              32.00    -2400.00
04931             118.00    -2400.00
04932             -30.00    -2400.00
04933             -36.00    -2600.00
04934             -24.00    -2800.00
04935              22.00    -2400.00
04936              70.00    -2600.00
04937               6.00    -2800.00
04938             -58.00    -2800.00
04939               0.00    -2800.00
04940              38.00    -2800.00
04941              10.00    -2800.00
04942              -6.00    -3000.00
04943             -16.00    -3000.00
04944              14.00    -3000.00
04945              30.00    -3200.00
04946              -2.00    -3200.00
04947             -16.00    -3200.00
04948              32.00    -3200.00
04949              22.00    -3200.00
04950             -20.00    -3200.00
04951              -8.00    -3200.00
04952              18.00    -3400.00
04953              22.00    -3200.00
04954               8.00    -3400.00
04955              -2.00    -3400.00
04956              -6.00    -3600.00
04957              14.00    -3600.00
04958              18.00    -3600.00
04959              16.00    -3600.00
04960               2.00    -3600.00
04961              -2.00    -3600.00
04962               8.00    -3600.00
04963              18.00    -3600.00
04964               4.00    -3800.00
04965               6.00    -3600.00
04966              18.00    -3600.00
04967              14.00    -3800.00
04968               8.00    -3800.00
04969              10.00    -3800.00
04970              14.00    -3800.00
04971              10.00    -3800.00
04972              10.00    -3800.00
04973              10.00    -3800.00
04974              14.00    -3800.00
04975              10.00    -3800.00
04976               8.00    -4000.00
04977              14.00    -3800.00
04978              10.00    -4000.00
04979              14.00    -4000.00
04980              22.00    -3800.00
04981              20.00    -3800.00
04982               8.00    -4000.00
04983               8.00    -4000.00
04984              14.00    -3800.00
04985              16.00    -4000.00
04986              16.00    -4000.00
04987              16.00    -3800.00
04988              18.00    -4000.00
04989              14.00    -3800.00
04990              12.00    -4000.00
04991              18.00    -4000.00
04992              18.00    -4000.00
04993              18.00    -3800.00
04994              16.00    -3800.00
04995              16.00    -3800.00
04996              14.00    -3800.00
04997              16.00    -3800.00
04998              22.00    -3800.00
04999              22.00    -3800.00
05000              22.00    -3800.00
