Unit:(mV)
                     CH1         CH2
Frequency              ?           ?
00001             -26.00    -2400.00
00002             118.00    -2600.00
00003               6.00    -2400.00
00004             -26.00    -2600.00
00005             -26.00    -2600.00
00006               0.00    -2400.00
00007              48.00    -2800.00
00008              20.00    -2800.00
00009             -56.00    -2800.00
00010              -6.00    -3000.00
00011              48.00    -2800.00
00012              30.00    -3000.00
00013             -14.00    -3000.00
00014             -26.00    -3000.00
00015               2.00    -3000.00
00016              32.00    -3200.00
00017              16.00    -3200.00
00018             -24.00    -3200.00
00019               6.00    -3400.00
00020              30.00    -3200.00
00021              -2.00    -3200.00
00022             -12.00    -3400.00
00023              16.00    -3400.00
00024              16.00    -3400.00
00025               6.00    -3200.00
00026               6.00    -3600.00
00027              -6.00    -3600.00
00028               0.00    -3400.00
00029              14.00    -3600.00
00030              16.00    -3600.00
00031               6.00    -3600.00
00032               2.00    -3800.00
00033               6.00    -3600.00
00034              14.00    -3800.00
00035               4.00    -3800.00
00036               0.00    -3800.00
00037              16.00    -3800.00
00038              18.00    -3800.00
00039               2.00    -3800.00
00040               2.00    -3600.00
00041               6.00    -3800.00
00042               8.00    -3800.00
00043               8.00    -3800.00
00044              10.00    -3800.00
00045              14.00    -4000.00
00046               6.00    -4000.00
00047              -2.00    -3800.00
00048               2.00    -3800.00
00049              10.00    -4000.00
00050              16.00    -3800.00
00051              18.00    -3800.00
00052              10.00    -4000.00
00053              -6.00    -4000.00
00054              -6.00    -4000.00
00055              10.00    -4000.00
00056              18.00    -4000.00
00057              16.00    -4000.00
00058               6.00    -3800.00
00059               0.00    -4000.00
00060               2.00    -4000.00
00061               6.00    -4000.00
00062              10.00    -4000.00
00063              12.00    -3800.00
00064               6.00    -4000.00
00065               6.00    -3800.00
00066               8.00    -4000.00
00067               6.00    -3800.00
00068               8.00    -4000.00
00069              10.00    -3800.00
00070               8.00    -3800.00
00071               8.00    -3800.00
00072               6.00    -3800.00
00073               0.00    -3800.00
00074               2.00    -3800.00
00075               6.00    -3600.00
00076              10.00    -3600.00
00077              10.00    -3600.00
00078               8.00    -3800.00
00079               6.00    -3800.00
00080               2.00    -3600.00
00081               6.00    -3600.00
00082               2.00    -3600.00
00083              10.00    -3600.00
00084               8.00    -3600.00
00085               8.00    -3600.00
00086               8.00    -3600.00
00087               6.00    -3400.00
00088               4.00    -3600.00
00089               4.00    -3400.00
00090               8.00    -3400.00
00091               8.00    -3200.00
00092               4.00    -3200.00
00093               0.00    -3200.00
00094               2.00    -3200.00
00095               4.00    -3000.00
00096               8.00    -3000.00
00097              10.00    -3000.00
00098              10.00    -3000.00
00099               6.00    -3000.00
00100               0.00    -3000.00
00101               2.00    -3000.00
00102               6.00    -3000.00
00103               6.00    -2800.00
00104               8.00    -2800.00
00105              14.00    -2800.00
00106               2.00    -2800.00
00107              -2.00    -2800.00
00108               0.00    -2600.00
00109               6.00    -2600.00
00110              14.00    -2400.00
00111               8.00    -2400.00
00112               0.00    -2400.00
00113              -2.00    -2200.00
00114               2.00    -2200.00
00115               6.00    -2400.00
00116               8.00    -2200.00
00117               6.00    -2200.00
00118               6.00    -2000.00
00119               2.00    -2000.00
00120               0.00    -2000.00
00121               0.00    -1800.00
00122               2.00    -2000.00
00123               2.00    -1600.00
00124               0.00    -1600.00
00125               0.00    -1600.00
00126               2.00    -1600.00
00127               0.00    -1600.00
00128               2.00    -1400.00
00129               0.00    -1400.00
00130               0.00    -1200.00
00131               0.00    -1000.00
00132              -2.00    -1000.00
00133               0.00    -1200.00
00134               2.00    -1000.00
00135               0.00    -1000.00
00136               0.00     -800.00
00137              -2.00     -800.00
00138              -2.00     -800.00
00139              -2.00     -800.00
00140               0.00     -600.00
00141              -2.00     -600.00
00142               0.00     -600.00
00143              -2.00     -400.00
00144               0.00     -400.00
00145              -2.00     -400.00
00146              -2.00     -200.00
00147              -2.00     -200.00
00148              -2.00     -200.00
00149               0.00        0.00
00150              -2.00      200.00
00151              -2.00      200.00
00152               0.00      200.00
00153               4.00      200.00
00154               0.00      400.00
00155              -2.00      400.00
00156               6.00      400.00
00157               6.00      400.00
00158              -6.00      400.00
00159             -10.00      600.00
00160              -2.00      800.00
00161              30.00      800.00
00162             162.00     1000.00
00163             114.00     1000.00
00164            -254.00      800.00
00165            -254.00      800.00
00166             246.00     1200.00
00167             246.00     1400.00
00168            -254.00     1000.00
00169            -254.00     1200.00
00170             208.00     1600.00
00171             246.00     1400.00
00172            -254.00     1200.00
00173            -254.00     1600.00
00174             246.00     1800.00
00175             246.00     1600.00
00176            -194.00     1600.00
00177             -14.00     2000.00
00178             -18.00     1800.00
00179            -140.00     1600.00
00180             182.00     2000.00
00181             136.00     2000.00
00182            -254.00     1800.00
00183              -8.00     2200.00
00184             106.00     2200.00
00185             -58.00     2000.00
00186              80.00     2400.00
00187             -48.00     2400.00
00188            -184.00     2400.00
00189             196.00     2600.00
00190              78.00     2600.00
00191            -254.00     2400.00
00192              62.00     2800.00
00193             120.00     2800.00
00194            -120.00     2600.00
00195              28.00     3000.00
00196               0.00     2800.00
00197             -86.00     2800.00
00198              76.00     3000.00
00199             -10.00     3000.00
00200             -72.00     3200.00
00201              40.00     3200.00
00202             -42.00     3200.00
00203             -16.00     3200.00
00204              56.00     3400.00
00205             -74.00     3400.00
00206             -28.00     3400.00
00207              40.00     3600.00
00208             -38.00     3200.00
00209             -16.00     3400.00
00210              14.00     3600.00
00211             -30.00     3400.00
00212             -16.00     3600.00
00213             -22.00     3800.00
00214              -6.00     3600.00
00215              14.00     3800.00
00216             -30.00     3800.00
00217             -26.00     3600.00
00218               0.00     4000.00
00219             -22.00     3800.00
00220             -16.00     4000.00
00221               8.00     4000.00
00222             -14.00     4000.00
00223             -26.00     4000.00
00224              -6.00     4000.00
00225              -8.00     4000.00
00226             -22.00     4000.00
00227             -14.00     4000.00
00228              -8.00     4000.00
00229              -6.00     4000.00
00230             -14.00     4200.00
00231             -24.00     4200.00
00232             -10.00     4200.00
00233              -8.00     4200.00
00234             -22.00     4200.00
00235              -2.00     4200.00
00236              -4.00     4200.00
00237             -22.00     4200.00
00238             -16.00     4200.00
00239             -10.00     4200.00
00240             -14.00     4400.00
00241             -10.00     4400.00
00242             -10.00     4400.00
00243             -10.00     4400.00
00244             -14.00     4200.00
00245             -22.00     4400.00
00246             -10.00     4400.00
00247              -8.00     4400.00
00248             -14.00     4400.00
00249             -14.00     4400.00
00250             -10.00     4200.00
00251             -16.00     4400.00
00252             -18.00     4400.00
00253             -10.00     4400.00
00254             -14.00     4200.00
00255             -10.00     4200.00
00256             -10.00     4200.00
00257             -14.00     4200.00
00258             -16.00     4400.00
00259             -18.00     4200.00
00260             -16.00     4200.00
00261             -10.00     4400.00
00262             -12.00     4200.00
00263             -14.00     4000.00
00264             -14.00     4200.00
00265             -18.00     4200.00
00266             -16.00     4200.00
00267             -10.00     4000.00
00268             -10.00     4000.00
00269             -16.00     4000.00
00270             -16.00     4200.00
00271             -14.00     4000.00
00272             -16.00     4000.00
00273             -16.00     4000.00
00274             -14.00     3800.00
00275             -10.00     4000.00
00276             -14.00     4000.00
00277             -16.00     3800.00
00278             -14.00     3800.00
00279             -16.00     4000.00
00280             -16.00     3800.00
00281              -8.00     3600.00
00282              -8.00     4000.00
00283             -10.00     3600.00
00284             -14.00     3600.00
00285             -16.00     3600.00
00286             -14.00     3400.00
00287             -10.00     3600.00
00288             -10.00     3400.00
00289              -8.00     3400.00
00290             -14.00     3400.00
00291             -16.00     3400.00
00292             -14.00     3200.00
00293              -8.00     3400.00
00294             -10.00     3200.00
00295              -8.00     3200.00
00296              -8.00     3000.00
00297             -10.00     3200.00
00298             -14.00     3000.00
00299             -10.00     2800.00
00300              -8.00     3000.00
00301              -6.00     2800.00
00302             -10.00     2800.00
00303              -8.00     2800.00
00304             -10.00     2600.00
00305             -14.00     2800.00
00306              -8.00     2600.00
00307              -6.00     2600.00
00308              -8.00     2400.00
00309              -6.00     2600.00
00310              -6.00     2200.00
00311             -10.00     2400.00
00312             -10.00     2000.00
00313             -10.00     2200.00
00314              -6.00     2000.00
00315              -2.00     2000.00
00316              -6.00     2000.00
00317              -8.00     1800.00
00318             -10.00     1800.00
00319             -10.00     1800.00
00320              -8.00     1600.00
00321              -2.00     1800.00
00322              -8.00     1600.00
00323              -8.00     1600.00
00324              -6.00     1600.00
00325              -6.00     1600.00
00326             -10.00     1400.00
00327             -10.00     1200.00
00328              -6.00     1200.00
00329              -2.00     1200.00
00330              -6.00     1000.00
00331              -6.00     1000.00
00332              -2.00     1000.00
00333              -6.00      800.00
00334             -10.00      800.00
00335              -6.00      800.00
00336              -2.00      800.00
00337              -4.00      600.00
00338              -6.00      600.00
00339              -4.00      400.00
00340              -2.00      400.00
00341              -6.00      200.00
00342             -10.00      200.00
00343              -2.00      200.00
00344               6.00      200.00
00345               6.00      200.00
00346               0.00        0.00
00347               2.00        0.00
00348               2.00        0.00
00349              -2.00        0.00
00350              -8.00     -400.00
00351              -2.00     -200.00
00352               8.00     -400.00
00353              38.00     -400.00
00354             146.00     -400.00
00355              86.00     -800.00
00356            -254.00     -600.00
00357            -254.00     -600.00
00358             246.00     -400.00
00359             246.00     -800.00
00360            -118.00    -1000.00
00361            -254.00     -800.00
00362              42.00    -1200.00
00363             246.00    -1200.00
00364             -48.00    -1000.00
00365            -254.00    -1000.00
00366              14.00    -1400.00
00367             246.00    -1400.00
00368              76.00    -1400.00
00369             -46.00    -1600.00
00370            -210.00    -1600.00
00371            -128.00    -1400.00
00372             246.00    -1600.00
00373             202.00    -1600.00
00374            -254.00    -1600.00
00375            -162.00    -2000.00
00376             176.00    -1800.00
00377             112.00    -1600.00
00378               2.00    -2000.00
00379            -130.00    -2200.00
00380             -78.00    -2000.00
00381             162.00    -2200.00
00382              98.00    -2400.00
00383            -168.00    -2200.00
00384             -42.00    -2400.00
00385             120.00    -2400.00
00386              22.00    -2400.00
00387             -26.00    -2400.00
00388             -32.00    -2800.00
00389             -10.00    -2600.00
00390              48.00    -2800.00
00391              32.00    -2800.00
00392             -48.00    -2800.00
00393             -14.00    -2800.00
00394              38.00    -2800.00
00395              24.00    -3000.00
00396              -6.00    -3000.00
00397             -18.00    -3000.00
00398               4.00    -3000.00
00399              30.00    -3200.00
00400              12.00    -3000.00
00401             -22.00    -3200.00
00402               6.00    -3200.00
00403              30.00    -3200.00
00404              -2.00    -3200.00
00405             -16.00    -3200.00
00406              16.00    -3200.00
00407              18.00    -3400.00
00408               6.00    -3400.00
00409               0.00    -3400.00
00410              -4.00    -3600.00
00411               0.00    -3600.00
00412              16.00    -3600.00
00413              14.00    -3800.00
00414               2.00    -3600.00
00415               2.00    -3600.00
00416               6.00    -3600.00
00417              14.00    -3600.00
00418               2.00    -3600.00
00419              -2.00    -3600.00
00420              14.00    -3600.00
00421              18.00    -3800.00
00422               2.00    -3800.00
00423               0.00    -3800.00
00424               8.00    -3800.00
00425               8.00    -3800.00
00426               8.00    -4000.00
00427               8.00    -3800.00
00428               8.00    -3800.00
00429               6.00    -3800.00
00430               2.00    -3800.00
00431               8.00    -4000.00
00432               8.00    -3800.00
00433               8.00    -4000.00
00434              14.00    -4000.00
00435              16.00    -4000.00
00436               2.00    -3800.00
00437               0.00    -4000.00
00438               6.00    -4000.00
00439              14.00    -4000.00
00440              10.00    -3800.00
00441               8.00    -3800.00
00442               6.00    -4000.00
00443               4.00    -4000.00
00444               4.00    -4000.00
00445               8.00    -3800.00
00446              14.00    -4000.00
00447              10.00    -3800.00
00448               8.00    -3800.00
00449               8.00    -3800.00
00450               6.00    -4000.00
00451               2.00    -3800.00
00452              10.00    -3800.00
00453              10.00    -3800.00
00454               8.00    -4000.00
00455               6.00    -3800.00
00456               2.00    -3800.00
00457               4.00    -3800.00
00458               8.00    -3800.00
00459               8.00    -3800.00
00460              10.00    -3600.00
00461               8.00    -3600.00
00462               2.00    -3600.00
00463               6.00    -3600.00
00464               2.00    -3600.00
00465               6.00    -3800.00
00466               8.00    -3600.00
00467              10.00    -3600.00
00468               8.00    -3600.00
00469               2.00    -3600.00
00470               6.00    -3600.00
00471               0.00    -3400.00
00472               6.00    -3200.00
00473               8.00    -3400.00
00474               8.00    -3200.00
00475               6.00    -3200.00
00476               4.00    -3200.00
00477               2.00    -3200.00
00478               2.00    -3200.00
00479               2.00    -3000.00
00480               8.00    -3000.00
00481              10.00    -3000.00
00482               8.00    -3000.00
00483               2.00    -2800.00
00484               2.00    -3000.00
00485               2.00    -3000.00
00486               6.00    -2800.00
00487              10.00    -2800.00
00488               4.00    -2800.00
00489               2.00    -2600.00
00490               2.00    -2800.00
00491               4.00    -2600.00
00492               0.00    -2600.00
00493               6.00    -2400.00
00494              14.00    -2400.00
00495               2.00    -2200.00
00496              -4.00    -2400.00
00497               6.00    -2200.00
00498              10.00    -2200.00
00499               8.00    -2000.00
00500               0.00    -2000.00
00501               0.00    -2000.00
00502               6.00    -2000.00
00503               8.00    -2000.00
00504               2.00    -1800.00
00505               0.00    -1800.00
00506               0.00    -1600.00
00507              -2.00    -1600.00
00508               0.00    -1600.00
00509               8.00    -1600.00
00510              10.00    -1400.00
00511               6.00    -1400.00
00512              -2.00    -1400.00
00513              -8.00    -1400.00
00514              -6.00    -1200.00
00515               2.00    -1000.00
00516              10.00    -1200.00
00517               8.00    -1200.00
00518             -10.00    -1000.00
00519             -22.00    -1200.00
00520              -8.00     -800.00
00521              14.00     -800.00
00522              24.00     -800.00
00523               8.00     -600.00
00524             -26.00     -600.00
00525             -22.00     -600.00
00526               0.00     -400.00
00527              14.00     -400.00
00528               8.00     -200.00
00529             -10.00     -200.00
00530             -10.00     -200.00
00531               2.00        0.00
00532               2.00        0.00
00533              -4.00        0.00
00534              -8.00      200.00
00535              -2.00        0.00
00536               0.00      200.00
00537              -2.00      400.00
00538              -2.00      400.00
00539              14.00      400.00
00540              10.00      400.00
00541              -6.00      400.00
00542             -14.00      400.00
00543             -10.00      800.00
00544              22.00      800.00
00545             158.00      800.00
00546             144.00     1200.00
00547            -254.00      800.00
00548            -254.00      800.00
00549             246.00     1200.00
00550             246.00     1200.00
00551            -154.00     1200.00
00552            -254.00     1000.00
00553             104.00     1400.00
00554             246.00     1600.00
00555            -208.00     1200.00
00556            -254.00     1600.00
00557             236.00     2000.00
00558             246.00     1600.00
00559            -180.00     1600.00
00560             -34.00     2000.00
00561              -6.00     1800.00
00562            -160.00     1600.00
00563             158.00     2000.00
00564             166.00     2000.00
00565            -254.00     2000.00
00566             -24.00     2200.00
00567             114.00     2400.00
00568             -64.00     2000.00
00569              66.00     2400.00
00570             -30.00     2400.00
00571            -190.00     2400.00
00572             182.00     2600.00
00573             108.00     2600.00
00574            -254.00     2600.00
00575              34.00     2800.00
00576             144.00     2600.00
00577            -112.00     2800.00
00578              16.00     3000.00
00579               8.00     3000.00
00580             -88.00     2800.00
00581              74.00     3000.00
00582               6.00     3200.00
00583             -80.00     3000.00
00584              30.00     3200.00
00585             -40.00     3200.00
00586             -20.00     3200.00
00587              66.00     3400.00
00588             -64.00     3400.00
00589             -40.00     3400.00
00590              38.00     3400.00
00591             -34.00     3400.00
00592             -22.00     3400.00
00593              18.00     3600.00
00594             -24.00     3600.00
00595             -18.00     3600.00
00596             -24.00     3600.00
00597             -10.00     3600.00
00598              14.00     3800.00
00599             -22.00     3800.00
00600             -24.00     3600.00
00601               6.00     3800.00
00602             -22.00     3800.00
00603             -26.00     3800.00
00604               6.00     4000.00
00605             -14.00     4000.00
00606             -22.00     4000.00
00607              -6.00     4000.00
00608             -10.00     4000.00
00609             -24.00     4000.00
00610             -16.00     4000.00
00611              -8.00     4200.00
00612              -4.00     4000.00
00613             -14.00     4000.00
00614             -26.00     4200.00
00615             -10.00     4200.00
00616             -14.00     4000.00
00617             -26.00     4000.00
00618              -6.00     4200.00
00619               0.00     4200.00
00620             -18.00     4200.00
00621             -16.00     4200.00
00622             -16.00     4200.00
00623             -16.00     4200.00
00624             -10.00     4200.00
00625              -6.00     4400.00
00626              -8.00     4200.00
00627             -16.00     4400.00
00628             -24.00     4400.00
00629             -14.00     4200.00
00630              -6.00     4400.00
00631             -10.00     4200.00
00632             -10.00     4400.00
00633              -8.00     4400.00
00634             -16.00     4400.00
00635             -16.00     4200.00
00636             -12.00     4200.00
00637             -14.00     4400.00
00638              -8.00     4200.00
00639             -10.00     4200.00
00640             -10.00     4400.00
00641             -16.00     4200.00
00642             -18.00     4200.00
00643             -10.00     4200.00
00644              -6.00     4200.00
00645             -14.00     4400.00
00646             -14.00     4200.00
00647             -10.00     4200.00
00648             -16.00     4200.00
00649             -18.00     4200.00
00650             -14.00     4000.00
00651             -12.00     4200.00
00652             -14.00     4000.00
00653             -14.00     4000.00
00654             -10.00     4000.00
00655             -14.00     4000.00
00656             -18.00     3800.00
00657             -14.00     4000.00
00658             -10.00     4000.00
00659             -12.00     3800.00
00660             -14.00     3800.00
00661             -14.00     3800.00
00662             -14.00     3800.00
00663             -14.00     3600.00
00664             -12.00     3800.00
00665              -8.00     3600.00
00666             -14.00     3600.00
00667             -14.00     3600.00
00668             -14.00     3400.00
00669             -16.00     3600.00
00670             -12.00     3400.00
00671             -10.00     3400.00
00672              -4.00     3400.00
00673              -8.00     3600.00
00674             -16.00     3400.00
00675             -14.00     3200.00
00676             -10.00     3400.00
00677             -14.00     3200.00
00678              -8.00     3200.00
00679              -8.00     3200.00
00680             -10.00     3000.00
00681             -10.00     3000.00
00682             -12.00     3000.00
00683             -10.00     2800.00
00684             -10.00     2800.00
00685              -8.00     3000.00
00686              -8.00     2800.00
00687              -8.00     2800.00
00688             -14.00     2600.00
00689              -6.00     2600.00
00690              -6.00     2600.00
00691             -10.00     2600.00
00692             -10.00     2400.00
00693              -6.00     2400.00
00694             -10.00     2400.00
00695              -8.00     2200.00
00696              -8.00     2400.00
00697              -8.00     2000.00
00698              -8.00     2000.00
00699             -10.00     2000.00
00700              -8.00     1800.00
00701              -6.00     2000.00
00702              -8.00     1800.00
00703              -6.00     1800.00
00704              -6.00     1600.00
00705              -8.00     1600.00
00706              -8.00     1600.00
00707              -6.00     1400.00
00708              -6.00     1600.00
00709              -6.00     1400.00
00710              -6.00     1200.00
00711              -4.00     1200.00
00712              -8.00     1000.00
00713             -10.00     1200.00
00714              -8.00     1000.00
00715              -6.00      800.00
00716              -2.00      800.00
00717              -6.00      800.00
00718              -6.00      800.00
00719              -6.00      800.00
00720              -8.00      600.00
00721              -6.00      600.00
00722              -2.00      400.00
00723               0.00      400.00
00724              -6.00      400.00
00725             -10.00      200.00
00726              -6.00      200.00
00727               0.00      200.00
00728               6.00      200.00
00729               0.00      200.00
00730               2.00        0.00
00731               6.00        0.00
00732              -2.00     -200.00
00733             -10.00     -200.00
00734              -4.00     -400.00
00735               8.00     -400.00
00736              34.00     -400.00
00737             140.00     -400.00
00738             102.00     -800.00
00739            -254.00     -800.00
00740            -254.00     -600.00
00741             246.00     -600.00
00742             246.00     -800.00
00743              -2.00    -1200.00
00744            -254.00     -800.00
00745             -56.00    -1000.00
00746             246.00    -1000.00
00747              38.00    -1200.00
00748            -254.00    -1200.00
00749             -40.00    -1200.00
00750             246.00    -1200.00
00751              88.00    -1400.00
00752             -42.00    -1600.00
00753            -202.00    -1600.00
00754            -152.00    -1400.00
00755             246.00    -1600.00
00756             238.00    -1800.00
00757            -254.00    -1600.00
00758            -190.00    -2000.00
00759             166.00    -2000.00
00760             128.00    -1800.00
00761              10.00    -2000.00
00762            -126.00    -2200.00
00763             -90.00    -2000.00
00764             150.00    -2200.00
00765             120.00    -2400.00
00766            -162.00    -2200.00
00767             -62.00    -2400.00
00768             118.00    -2400.00
00769              32.00    -2400.00
00770             -26.00    -2600.00
00771             -34.00    -2600.00
00772             -10.00    -2600.00
00773              46.00    -2600.00
00774              38.00    -2800.00
00775             -48.00    -2800.00
00776             -18.00    -2800.00
00777              34.00    -2800.00
00778              24.00    -3000.00
00779              -6.00    -3000.00
00780             -14.00    -3000.00
00781               6.00    -3000.00
00782              26.00    -3200.00
00783               8.00    -3200.00
00784             -32.00    -3200.00
00785               2.00    -3200.00
00786              40.00    -3400.00
00787              14.00    -3200.00
00788             -14.00    -3200.00
00789               0.00    -3200.00
00790               6.00    -3400.00
00791               8.00    -3400.00
00792              10.00    -3600.00
00793               0.00    -3600.00
00794               0.00    -3600.00
00795              10.00    -3600.00
00796              10.00    -3600.00
00797               2.00    -3600.00
00798               0.00    -3600.00
00799              10.00    -3600.00
00800              14.00    -3800.00
00801              -2.00    -3600.00
00802              -4.00    -3600.00
00803              12.00    -3800.00
00804              18.00    -3800.00
00805               6.00    -3800.00
00806               0.00    -3800.00
00807               8.00    -3800.00
00808               8.00    -3800.00
00809               6.00    -3800.00
00810               6.00    -3800.00
00811              10.00    -4000.00
00812               8.00    -3800.00
00813               2.00    -4000.00
00814               2.00    -3800.00
00815              14.00    -3800.00
00816              14.00    -3800.00
00817              14.00    -4000.00
00818               6.00    -4000.00
00819              -2.00    -4000.00
00820               0.00    -4000.00
00821              16.00    -4000.00
00822              16.00    -3800.00
00823               8.00    -4000.00
00824               8.00    -4000.00
00825               6.00    -4000.00
00826               2.00    -3800.00
00827               6.00    -4000.00
00828              10.00    -3800.00
00829              16.00    -4000.00
00830              10.00    -3800.00
00831               4.00    -4000.00
00832               6.00    -3800.00
00833               6.00    -4000.00
00834               2.00    -3800.00
00835              14.00    -3800.00
00836              16.00    -4000.00
00837              14.00    -3800.00
00838               6.00    -3800.00
00839               0.00    -3800.00
00840               2.00    -3800.00
00841              10.00    -3800.00
00842              10.00    -3600.00
00843              10.00    -3800.00
00844               8.00    -3800.00
00845               6.00    -3800.00
00846               2.00    -3800.00
00847               2.00    -3600.00
00848               6.00    -3400.00
00849              10.00    -3600.00
00850              10.00    -3600.00
00851               6.00    -3600.00
00852               2.00    -3600.00
00853               6.00    -3600.00
00854               4.00    -3400.00
00855               4.00    -3600.00
00856               2.00    -3200.00
00857               6.00    -3400.00
00858               8.00    -3200.00
00859              10.00    -3400.00
00860               2.00    -3200.00
00861               4.00    -3000.00
00862               2.00    -3200.00
00863               6.00    -3000.00
00864               8.00    -3200.00
00865               6.00    -3000.00
00866               6.00    -3000.00
00867               2.00    -3000.00
00868               0.00    -2800.00
00869               6.00    -2800.00
00870               8.00    -2800.00
00871               2.00    -2800.00
00872               2.00    -2800.00
00873               2.00    -2800.00
00874               8.00    -2600.00
00875               8.00    -2400.00
00876               0.00    -2400.00
00877              -2.00    -2400.00
00878               6.00    -2400.00
00879               8.00    -2400.00
00880               8.00    -2200.00
00881               4.00    -2200.00
00882               2.00    -2200.00
00883               6.00    -2000.00
00884               4.00    -2000.00
00885               0.00    -2000.00
00886               0.00    -2000.00
00887               2.00    -2000.00
00888               2.00    -1800.00
00889               6.00    -1600.00
00890               2.00    -1600.00
00891               2.00    -1600.00
00892               0.00    -1400.00
00893               2.00    -1400.00
00894               2.00    -1600.00
00895               6.00    -1400.00
00896               0.00    -1400.00
00897              -6.00    -1000.00
00898               2.00    -1000.00
00899               4.00    -1000.00
00900               2.00    -1000.00
00901               0.00     -800.00
00902              -2.00    -1000.00
00903               2.00     -800.00
00904               6.00     -800.00
00905               0.00     -800.00
00906              -2.00     -600.00
00907              -2.00     -600.00
00908              -4.00     -600.00
00909              -4.00     -400.00
00910               2.00     -400.00
00911               6.00     -400.00
00912              -2.00     -400.00
00913              -8.00        0.00
00914             -10.00     -200.00
00915              -2.00        0.00
00916               2.00        0.00
00917               2.00        0.00
00918               2.00      200.00
00919              -2.00        0.00
00920             -16.00      400.00
00921              -6.00      400.00
00922              16.00      400.00
00923              22.00      400.00
00924              -6.00      400.00
00925             -26.00      400.00
00926             -16.00      600.00
00927              22.00      800.00
00928             154.00     1000.00
00929             152.00      800.00
00930            -254.00      800.00
00931            -254.00      800.00
00932             246.00     1200.00
00933             246.00     1200.00
00934             -42.00     1200.00
00935            -254.00      800.00
00936               0.00     1400.00
00937             246.00     1600.00
00938             -86.00     1200.00
00939            -254.00     1400.00
00940             152.00     1600.00
00941             246.00     1600.00
00942            -150.00     1400.00
00943             -46.00     2000.00
00944              14.00     1800.00
00945            -178.00     1800.00
00946             134.00     2000.00
00947             202.00     2000.00
00948            -242.00     2000.00
00949             -56.00     2200.00
00950             114.00     2400.00
00951             -58.00     2200.00
00952              62.00     2400.00
00953              -6.00     2400.00
00954            -206.00     2400.00
00955             152.00     2600.00
00956             138.00     2600.00
00957            -254.00     2400.00
00958               8.00     2800.00
00959             154.00     2600.00
00960            -110.00     2600.00
00961               6.00     3000.00
00962              22.00     3000.00
00963             -96.00     2800.00
00964              64.00     3200.00
00965              16.00     3000.00
00966             -82.00     3200.00
00967              38.00     3200.00
00968             -26.00     3200.00
00969             -30.00     3200.00
00970              62.00     3600.00
00971             -58.00     3200.00
00972             -46.00     3400.00
00973              46.00     3600.00
00974             -30.00     3400.00
00975             -26.00     3400.00
00976              14.00     3600.00
00977             -24.00     3400.00
00978             -18.00     3400.00
00979             -18.00     3800.00
00980             -10.00     3600.00
00981              16.00     3600.00
00982             -22.00     4000.00
00983             -28.00     3600.00
00984               0.00     3800.00
00985             -20.00     3800.00
00986             -22.00     3800.00
00987               6.00     4000.00
00988             -10.00     3800.00
00989             -28.00     4000.00
00990             -10.00     4000.00
00991              -6.00     4000.00
00992             -18.00     4000.00
00993             -14.00     4200.00
00994              -8.00     4000.00
00995              -2.00     4000.00
00996             -10.00     4000.00
00997             -30.00     4000.00
00998             -14.00     4200.00
00999              -8.00     4200.00
01000             -22.00     4200.00
01001              -2.00     4200.00
01002               0.00     4200.00
01003             -16.00     4200.00
01004             -16.00     4200.00
01005             -18.00     4400.00
01006             -22.00     4400.00
01007             -10.00     4200.00
01008              -8.00     4400.00
01009             -30.00     4200.00
01010              -8.00     4400.00
01011             -10.00     4400.00
01012              10.00     4400.00
01013               0.00     4400.00
01014             -18.00     4200.00
01015             -22.00     4400.00
01016             -16.00     4200.00
01017             -32.00     4400.00
01018             -22.00     4200.00
01019              -6.00     4400.00
01020               2.00     4400.00
01021               0.00     4200.00
01022             -14.00     4200.00
01023             -12.00     4200.00
01024             -10.00     4200.00
01025             -20.00     4200.00
01026             -22.00     4400.00
01027             -10.00     4400.00
01028             -14.00     4200.00
01029             -16.00     4200.00
01030              -6.00     4000.00
01031             -10.00     4200.00
01032              -8.00     4200.00
01033             -10.00     4200.00
01034             -14.00     4000.00
01035              -8.00     4000.00
01036             -16.00     4000.00
01037             -18.00     4000.00
01038             -16.00     4000.00
01039             -16.00     4000.00
01040             -14.00     3800.00
01041              -4.00     4000.00
01042             -10.00     4000.00
01043             -10.00     4000.00
01044             -10.00     3800.00
01045             -22.00     3600.00
01046             -22.00     3800.00
01047             -12.00     3600.00
01048             -10.00     3600.00
01049              -8.00     3600.00
01050             -14.00     3600.00
01051             -16.00     3600.00
01052             -10.00     3400.00
01053             -14.00     3400.00
01054              -2.00     3400.00
01055              -2.00     3400.00
01056             -22.00     3400.00
01057             -24.00     3400.00
01058             -10.00     3200.00
01059              -6.00     3200.00
01060              -6.00     3200.00
01061             -10.00     3200.00
01062             -16.00     3000.00
01063             -10.00     3000.00
01064               0.00     3200.00
01065             -10.00     2800.00
01066             -22.00     2800.00
01067             -18.00     2800.00
01068              -2.00     2800.00
01069              16.00     2600.00
01070             -10.00     2800.00
01071             -34.00     2600.00
01072             -18.00     2600.00
01073               0.00     2400.00
01074               6.00     2400.00
01075              -2.00     2600.00
01076             -10.00     2400.00
01077             -14.00     2400.00
01078             -16.00     2200.00
01079             -12.00     2000.00
01080              -2.00     2000.00
01081               0.00     2000.00
01082              -6.00     2000.00
01083              -2.00     1800.00
01084              -8.00     1800.00
01085             -22.00     1800.00
01086              -8.00     1600.00
01087               8.00     1800.00
01088               2.00     1600.00
01089             -10.00     1600.00
01090             -22.00     1600.00
01091             -10.00     1200.00
01092               6.00     1400.00
01093               2.00     1400.00
01094              -6.00     1200.00
01095             -10.00     1200.00
01096             -14.00     1000.00
01097              -8.00     1000.00
01098               0.00     1200.00
01099               2.00     1000.00
01100              -8.00      800.00
01101              -8.00      800.00
01102              -6.00      600.00
01103              -4.00      600.00
01104               0.00      400.00
01105              -6.00      400.00
01106              -6.00      400.00
01107              -6.00      400.00
01108             -10.00      200.00
01109              -6.00      200.00
01110               6.00      200.00
01111               2.00      200.00
01112               0.00        0.00
01113               6.00        0.00
01114               4.00        0.00
01115              -6.00        0.00
01116             -14.00     -400.00
01117              -2.00     -200.00
01118              10.00     -400.00
01119              30.00     -400.00
01120             128.00     -400.00
01121             114.00     -800.00
01122            -254.00     -800.00
01123            -254.00     -800.00
01124             214.00     -600.00
01125             246.00     -800.00
01126              94.00    -1200.00
01127            -254.00    -1000.00
01128            -138.00    -1000.00
01129             246.00    -1200.00
01130             118.00    -1200.00
01131            -254.00    -1000.00
01132             -94.00    -1400.00
01133             246.00    -1400.00
01134             102.00    -1400.00
01135             -28.00    -1600.00
01136            -186.00    -1600.00
01137            -176.00    -1400.00
01138             246.00    -1600.00
01139             246.00    -1600.00
01140            -250.00    -1800.00
01141            -210.00    -1800.00
01142             150.00    -2000.00
01143             134.00    -1800.00
01144              18.00    -2000.00
01145            -114.00    -2200.00
01146            -102.00    -2000.00
01147             134.00    -2200.00
01148             136.00    -2400.00
01149            -154.00    -2200.00
01150             -70.00    -2400.00
01151             114.00    -2400.00
01152              40.00    -2400.00
01153             -26.00    -2400.00
01154             -28.00    -2400.00
01155             -14.00    -2600.00
01156              40.00    -2600.00
01157              48.00    -2800.00
01158             -40.00    -2800.00
01159             -24.00    -2800.00
01160              32.00    -2800.00
01161              32.00    -2800.00
01162              -8.00    -3000.00
01163             -18.00    -3000.00
01164               0.00    -3000.00
01165              30.00    -3000.00
01166              22.00    -3000.00
01167             -18.00    -3200.00
01168              -2.00    -3200.00
01169              28.00    -3200.00
01170               0.00    -3200.00
01171             -16.00    -3200.00
01172              16.00    -3400.00
01173              16.00    -3400.00
01174               0.00    -3400.00
01175               4.00    -3400.00
01176               2.00    -3600.00
01177               0.00    -3400.00
01178              14.00    -3600.00
01179              10.00    -3800.00
01180               8.00    -3600.00
01181               2.00    -3600.00
01182               6.00    -3600.00
01183               8.00    -3600.00
01184               6.00    -3800.00
01185               0.00    -3800.00
01186              10.00    -3800.00
01187              18.00    -3800.00
01188               2.00    -3800.00
01189              -2.00    -3800.00
01190              10.00    -3800.00
01191              10.00    -4000.00
01192               4.00    -3800.00
01193              14.00    -3800.00
01194               8.00    -4000.00
01195               8.00    -3800.00
01196               6.00    -3800.00
01197               6.00    -4000.00
01198               8.00    -3800.00
01199               8.00    -4000.00
01200              10.00    -4000.00
01201              10.00    -3800.00
01202               2.00    -4000.00
01203              -2.00    -4200.00
01204              14.00    -4000.00
01205              16.00    -4000.00
01206               4.00    -4000.00
01207               6.00    -4000.00
01208               8.00    -3800.00
01209              10.00    -4000.00
01210               8.00    -4000.00
01211               6.00    -3800.00
01212               8.00    -3800.00
01213              14.00    -3800.00
01214              12.00    -3800.00
01215              14.00    -3800.00
01216               8.00    -3800.00
01217               0.00    -4000.00
01218               6.00    -3800.00
01219              16.00    -3800.00
01220              14.00    -3800.00
01221              10.00    -3800.00
01222               8.00    -3800.00
01223               2.00    -4000.00
01224               6.00    -3800.00
01225               8.00    -3800.00
01226              10.00    -3800.00
01227              16.00    -3600.00
01228               8.00    -3600.00
01229               4.00    -3600.00
01230               2.00    -3600.00
01231               2.00    -3800.00
01232               8.00    -3600.00
01233              14.00    -3600.00
01234               8.00    -3600.00
01235               4.00    -3400.00
01236               6.00    -3600.00
01237               0.00    -3400.00
01238               6.00    -3400.00
01239              14.00    -3200.00
01240               8.00    -3400.00
01241               6.00    -3200.00
01242               2.00    -3200.00
01243               0.00    -3200.00
01244               8.00    -3200.00
01245              10.00    -3000.00
01246               6.00    -3200.00
01247               6.00    -3000.00
01248               0.00    -3000.00
01249               0.00    -3000.00
01250               6.00    -3000.00
01251               8.00    -3000.00
01252               6.00    -2800.00
01253               2.00    -2800.00
01254               0.00    -2800.00
01255               2.00    -2600.00
01256               2.00    -2800.00
01257               2.00    -2800.00
01258               6.00    -2600.00
01259               6.00    -2400.00
01260               0.00    -2400.00
01261               2.00    -2400.00
01262               2.00    -2400.00
01263               2.00    -2200.00
01264               4.00    -2200.00
01265               6.00    -2200.00
01266               6.00    -2000.00
01267               0.00    -2200.00
01268               0.00    -2000.00
01269               0.00    -2000.00
01270               0.00    -1800.00
01271               2.00    -1800.00
01272               2.00    -1600.00
01273               2.00    -1600.00
01274               0.00    -1600.00
01275               2.00    -1400.00
01276               2.00    -1400.00
01277               0.00    -1400.00
01278               0.00    -1400.00
01279               2.00    -1200.00
01280               0.00    -1200.00
01281               0.00    -1200.00
01282               0.00    -1000.00
01283               0.00    -1200.00
01284              -2.00    -1000.00
01285               0.00     -800.00
01286               2.00     -800.00
01287               4.00     -600.00
01288               0.00     -800.00
01289              -2.00     -600.00
01290               0.00     -600.00
01291               0.00     -600.00
01292               0.00     -600.00
01293               2.00     -400.00
01294               0.00     -400.00
01295              -2.00     -200.00
01296              -2.00     -200.00
01297              -8.00        0.00
01298              -2.00        0.00
01299              -2.00        0.00
01300              -6.00        0.00
01301               0.00      200.00
01302               0.00      200.00
01303               0.00      200.00
01304               2.00      400.00
01305               6.00      400.00
01306               2.00      400.00
01307              -8.00      400.00
01308             -10.00      600.00
01309              -6.00      800.00
01310              18.00      800.00
01311             130.00      800.00
01312             162.00      800.00
01313            -254.00     1000.00
01314            -254.00      800.00
01315             226.00     1200.00
01316             246.00     1200.00
01317              70.00     1000.00
01318            -254.00      800.00
01319            -104.00     1600.00
01320             246.00     1600.00
01321              14.00     1000.00
01322            -254.00     1600.00
01323             102.00     1600.00
01324             246.00     1600.00
01325            -150.00     1600.00
01326             -74.00     1800.00
01327              40.00     1800.00
01328            -170.00     1800.00
01329             112.00     2000.00
01330             210.00     2000.00
01331            -236.00     2000.00
01332             -76.00     2200.00
01333             128.00     2400.00
01334             -50.00     2200.00
01335              48.00     2400.00
01336              10.00     2400.00
01337            -212.00     2400.00
01338             128.00     2600.00
01339             160.00     2800.00
01340            -248.00     2600.00
01341             -18.00     2800.00
01342             166.00     2800.00
01343             -98.00     2600.00
01344             -10.00     2800.00
01345              32.00     3000.00
01346             -98.00     2800.00
01347              54.00     3200.00
01348              26.00     3200.00
01349             -82.00     3000.00
01350              38.00     3200.00
01351             -16.00     3200.00
01352             -42.00     3200.00
01353              56.00     3400.00
01354             -46.00     3200.00
01355             -42.00     3400.00
01356              50.00     3600.00
01357             -26.00     3400.00
01358             -40.00     3600.00
01359              14.00     3600.00
01360             -10.00     3600.00
01361             -10.00     3600.00
01362             -16.00     3600.00
01363             -22.00     3600.00
01364              10.00     3800.00
01365             -18.00     3800.00
01366             -26.00     3600.00
01367               2.00     4000.00
01368             -16.00     4000.00
01369             -26.00     3800.00
01370               6.00     3800.00
01371              -8.00     4000.00
01372             -26.00     3800.00
01373             -10.00     4000.00
01374              -2.00     4000.00
01375             -22.00     4000.00
01376             -20.00     4000.00
01377             -10.00     4000.00
01378              -6.00     4000.00
01379             -10.00     4200.00
01380             -24.00     4200.00
01381              -8.00     4200.00
01382              -8.00     4000.00
01383             -24.00     4000.00
01384             -10.00     4200.00
01385              -2.00     4200.00
01386             -24.00     4200.00
01387             -16.00     4200.00
01388             -10.00     4400.00
01389             -16.00     4200.00
01390             -16.00     4200.00
01391             -10.00     4400.00
01392              -8.00     4400.00
01393             -10.00     4200.00
01394             -22.00     4400.00
01395             -16.00     4200.00
01396              -6.00     4400.00
01397             -14.00     4200.00
01398             -16.00     4200.00
01399             -10.00     4200.00
01400             -16.00     4200.00
01401             -18.00     4200.00
01402             -14.00     4400.00
01403             -10.00     4400.00
01404             -10.00     4200.00
01405             -10.00     4200.00
01406             -10.00     4200.00
01407             -14.00     4200.00
01408             -14.00     4200.00
01409             -14.00     4200.00
01410              -8.00     4200.00
01411             -10.00     4200.00
01412             -10.00     4200.00
01413             -10.00     4200.00
01414             -16.00     4200.00
01415             -16.00     4200.00
01416             -10.00     4200.00
01417              -8.00     4000.00
01418             -10.00     4000.00
01419             -14.00     4000.00
01420             -10.00     4000.00
01421             -14.00     4000.00
01422             -14.00     4000.00
01423             -10.00     4000.00
01424              -8.00     4000.00
01425             -10.00     3800.00
01426             -16.00     3800.00
01427             -12.00     3800.00
01428             -10.00     3600.00
01429             -14.00     3600.00
01430             -10.00     3600.00
01431              -8.00     3800.00
01432             -14.00     3600.00
01433             -14.00     3600.00
01434             -12.00     3600.00
01435             -14.00     3400.00
01436             -14.00     3400.00
01437             -10.00     3400.00
01438             -10.00     3400.00
01439              -8.00     3400.00
01440             -14.00     3400.00
01441             -16.00     3200.00
01442             -10.00     3200.00
01443             -12.00     3200.00
01444             -10.00     3200.00
01445              -8.00     3000.00
01446             -14.00     2800.00
01447             -14.00     2800.00
01448             -10.00     2800.00
01449             -10.00     3000.00
01450             -10.00     2800.00
01451             -14.00     2800.00
01452             -10.00     2800.00
01453              -8.00     2600.00
01454             -10.00     2600.00
01455             -12.00     2400.00
01456              -8.00     2600.00
01457              -8.00     2600.00
01458              -6.00     2400.00
01459              -8.00     2400.00
01460             -10.00     2400.00
01461             -14.00     2200.00
01462              -8.00     2000.00
01463              -8.00     2000.00
01464              -6.00     2000.00
01465              -8.00     2000.00
01466              -6.00     1800.00
01467              -6.00     1800.00
01468             -10.00     1800.00
01469              -6.00     1600.00
01470              -6.00     1800.00
01471              -2.00     1600.00
01472              -4.00     1400.00
01473              -8.00     1600.00
01474              -8.00     1600.00
01475              -8.00     1200.00
01476             -10.00     1400.00
01477              -2.00     1200.00
01478               6.00     1200.00
01479              -8.00     1000.00
01480             -10.00     1000.00
01481              -2.00     1200.00
01482             -10.00      800.00
01483              -8.00      800.00
01484              -2.00      800.00
01485               2.00      800.00
01486               2.00      800.00
01487              -6.00      800.00
01488             -16.00      400.00
01489              -2.00      400.00
01490               2.00      400.00
01491               0.00      400.00
01492               2.00      400.00
01493              -6.00        0.00
01494             -10.00      200.00
01495               0.00        0.00
01496              14.00        0.00
01497              14.00        0.00
01498              -2.00        0.00
01499             -18.00     -400.00
01500             -10.00     -400.00
01501              10.00     -200.00
01502              30.00     -600.00
01503             128.00     -400.00
01504             126.00     -600.00
01505            -240.00     -800.00
01506            -254.00     -600.00
01507             150.00     -600.00
01508             246.00     -800.00
01509             198.00    -1200.00
01510            -254.00     -800.00
01511            -232.00     -800.00
01512             246.00    -1000.00
01513             202.00    -1000.00
01514            -254.00    -1200.00
01515            -142.00    -1200.00
01516             246.00    -1400.00
01517             110.00    -1400.00
01518             -18.00    -1600.00
01519            -174.00    -1600.00
01520            -198.00    -1400.00
01521             224.00    -1600.00
01522             246.00    -1600.00
01523            -226.00    -1800.00
01524            -220.00    -2000.00
01525             130.00    -2000.00
01526             138.00    -2000.00
01527              22.00    -2000.00
01528            -108.00    -2200.00
01529            -104.00    -2000.00
01530             122.00    -2200.00
01531             150.00    -2400.00
01532            -148.00    -2200.00
01533             -88.00    -2400.00
01534             106.00    -2400.00
01535              56.00    -2400.00
01536             -22.00    -2400.00
01537             -28.00    -2600.00
01538             -18.00    -2400.00
01539              32.00    -2800.00
01540              46.00    -2800.00
01541             -38.00    -2800.00
01542             -18.00    -2800.00
01543              34.00    -2800.00
01544              34.00    -3000.00
01545             -10.00    -3000.00
01546             -24.00    -3200.00
01547              -2.00    -3000.00
01548              34.00    -3200.00
01549              26.00    -3200.00
01550             -16.00    -3200.00
01551              -6.00    -3200.00
01552              26.00    -3200.00
01553               8.00    -3200.00
01554             -16.00    -3200.00
01555              16.00    -3400.00
01556              24.00    -3400.00
01557               6.00    -3200.00
01558               0.00    -3600.00
01559              -4.00    -3600.00
01560               0.00    -3600.00
01561              16.00    -3600.00
01562              14.00    -3600.00
01563               4.00    -3600.00
01564               0.00    -3600.00
01565               6.00    -3800.00
01566              14.00    -3600.00
01567               6.00    -3600.00
01568              -2.00    -3800.00
01569              10.00    -3800.00
01570              18.00    -3600.00
01571               6.00    -3800.00
01572               0.00    -3800.00
01573               8.00    -3800.00
01574               6.00    -3800.00
01575               6.00    -3800.00
01576               8.00    -3800.00
01577              10.00    -3800.00
01578               8.00    -3800.00
01579               6.00    -4000.00
01580               2.00    -4000.00
01581               6.00    -4000.00
01582               8.00    -4000.00
01583              12.00    -4000.00
01584              14.00    -4000.00
01585               6.00    -4000.00
01586               0.00    -4000.00
01587               8.00    -4000.00
01588              10.00    -3800.00
01589              10.00    -4000.00
01590              10.00    -4000.00
01591               8.00    -4000.00
01592               8.00    -4000.00
01593               6.00    -4000.00
01594               6.00    -3800.00
01595              10.00    -4000.00
01596              10.00    -3800.00
01597              10.00    -4000.00
01598              10.00    -3800.00
01599               6.00    -4000.00
01600               2.00    -3800.00
01601               6.00    -3800.00
01602              14.00    -3800.00
01603              14.00    -3800.00
01604               8.00    -3800.00
01605               2.00    -3800.00
01606               2.00    -3800.00
01607               8.00    -3800.00
01608              12.00    -3800.00
01609              14.00    -3600.00
01610               8.00    -3800.00
01611               6.00    -3600.00
01612               6.00    -3600.00
01613               6.00    -3600.00
01614               8.00    -3600.00
01615              10.00    -3600.00
01616              14.00    -3600.00
01617               6.00    -3600.00
01618               6.00    -3400.00
01619               8.00    -3600.00
01620               2.00    -3400.00
01621               6.00    -3200.00
01622               8.00    -3200.00
01623               8.00    -3400.00
01624               8.00    -3200.00
01625               6.00    -3200.00
01626               2.00    -3200.00
01627               6.00    -3200.00
01628               2.00    -3200.00
01629               6.00    -3200.00
01630               8.00    -3000.00
01631               6.00    -3000.00
01632               2.00    -3000.00
01633               2.00    -3000.00
01634               2.00    -2800.00
01635               2.00    -2800.00
01636               6.00    -2800.00
01637               8.00    -2800.00
01638               2.00    -2800.00
01639               2.00    -2600.00
01640              -2.00    -2600.00
01641               2.00    -2600.00
01642               6.00    -2400.00
01643               6.00    -2400.00
01644               6.00    -2400.00
01645               0.00    -2400.00
01646               0.00    -2200.00
01647               2.00    -2400.00
01648               4.00    -2000.00
01649               6.00    -2200.00
01650               2.00    -2000.00
01651               2.00    -2000.00
01652               2.00    -2000.00
01653               0.00    -2000.00
01654               2.00    -2000.00
01655               6.00    -1600.00
01656               2.00    -1600.00
01657               0.00    -1600.00
01658               0.00    -1600.00
01659               2.00    -1400.00
01660               2.00    -1400.00
01661               0.00    -1400.00
01662               2.00    -1200.00
01663               2.00    -1400.00
01664               0.00    -1200.00
01665               0.00    -1000.00
01666               2.00    -1000.00
01667              -2.00    -1000.00
01668              -2.00    -1000.00
01669               0.00     -800.00
01670               2.00     -800.00
01671               0.00     -800.00
01672               0.00     -600.00
01673               0.00     -600.00
01674               0.00     -400.00
01675               0.00     -600.00
01676               0.00     -400.00
01677               2.00     -400.00
01678               2.00     -200.00
01679              -2.00        0.00
01680              -2.00        0.00
01681              -2.00        0.00
01682              -2.00        0.00
01683              -6.00        0.00
01684              -2.00      200.00
01685               4.00      200.00
01686               6.00      400.00
01687               0.00      200.00
01688               6.00      400.00
01689               0.00      400.00
01690              -6.00      400.00
01691              -8.00      400.00
01692               0.00      600.00
01693              14.00      800.00
01694             118.00     1000.00
01695             170.00     1000.00
01696            -242.00      800.00
01697            -254.00      800.00
01698             160.00     1000.00
01699             246.00     1200.00
01700             190.00     1200.00
01701            -254.00     1000.00
01702            -208.00     1400.00
01703             246.00     1600.00
01704             112.00     1200.00
01705            -254.00     1400.00
01706              40.00     1800.00
01707             246.00     1600.00
01708            -126.00     1600.00
01709            -102.00     1800.00
01710              48.00     2000.00
01711            -170.00     1600.00
01712              86.00     2000.00
01713             230.00     2000.00
01714            -222.00     1800.00
01715            -104.00     2000.00
01716             130.00     2400.00
01717             -40.00     2000.00
01718              38.00     2400.00
01719              32.00     2400.00
01720            -214.00     2400.00
01721              98.00     2600.00
01722             190.00     2600.00
01723            -234.00     2400.00
01724             -48.00     2800.00
01725             174.00     2800.00
01726             -88.00     2600.00
01727             -22.00     2800.00
01728              42.00     2800.00
01729             -96.00     2800.00
01730              40.00     3200.00
01731              40.00     3000.00
01732             -88.00     3000.00
01733              28.00     3200.00
01734             -10.00     3200.00
01735             -42.00     3200.00
01736              62.00     3400.00
01737             -40.00     3200.00
01738             -58.00     3400.00
01739              48.00     3600.00
01740             -14.00     3400.00
01741             -34.00     3400.00
01742              16.00     3600.00
01743             -16.00     3600.00
01744             -18.00     3400.00
01745             -14.00     3800.00
01746             -14.00     3600.00
01747              16.00     3600.00
01748             -14.00     3800.00
01749             -32.00     3600.00
01750               2.00     3800.00
01751             -16.00     4000.00
01752             -24.00     3600.00
01753               6.00     4000.00
01754              -6.00     4000.00
01755             -26.00     4000.00
01756             -10.00     4000.00
01757              -2.00     4000.00
01758             -20.00     4000.00
01759             -16.00     4000.00
01760              -8.00     4000.00
01761              -6.00     4000.00
01762             -10.00     4200.00
01763             -26.00     4000.00
01764             -14.00     4000.00
01765              -6.00     4200.00
01766             -22.00     4200.00
01767             -10.00     4200.00
01768               0.00     4200.00
01769             -22.00     4200.00
01770             -18.00     4200.00
01771             -10.00     4200.00
01772             -16.00     4200.00
01773             -14.00     4200.00
01774             -10.00     4200.00
01775             -10.00     4200.00
01776             -14.00     4400.00
01777             -22.00     4200.00
01778             -18.00     4400.00
01779              -6.00     4400.00
01780             -14.00     4200.00
01781             -10.00     4400.00
01782              -8.00     4200.00
01783             -16.00     4200.00
01784             -22.00     4400.00
01785             -16.00     4400.00
01786              -8.00     4200.00
01787              -6.00     4200.00
01788             -10.00     4200.00
01789             -16.00     4400.00
01790             -20.00     4200.00
01791             -18.00     4400.00
01792             -10.00     4200.00
01793              -2.00     4200.00
01794              -8.00     4200.00
01795             -18.00     4200.00
01796             -16.00     4200.00
01797             -16.00     4000.00
01798             -12.00     4000.00
01799              -2.00     4200.00
01800              -8.00     4000.00
01801             -18.00     4000.00
01802             -16.00     4000.00
01803             -10.00     4000.00
01804              -8.00     4000.00
01805             -10.00     4000.00
01806             -16.00     4000.00
01807             -14.00     4000.00
01808             -14.00     4000.00
01809             -10.00     3800.00
01810              -8.00     3800.00
01811             -10.00     3800.00
01812             -16.00     3800.00
01813             -14.00     3600.00
01814              -8.00     3600.00
01815              -8.00     3600.00
01816             -10.00     3600.00
01817             -14.00     3600.00
01818             -14.00     3400.00
01819             -14.00     3400.00
01820             -10.00     3400.00
01821              -6.00     3400.00
01822             -10.00     3400.00
01823             -16.00     3200.00
01824             -16.00     3200.00
01825             -10.00     3200.00
01826             -10.00     3200.00
01827              -8.00     3200.00
01828              -8.00     3000.00
01829             -14.00     3000.00
01830             -16.00     2800.00
01831             -10.00     3000.00
01832             -10.00     2800.00
01833             -10.00     2800.00
01834             -14.00     2800.00
01835             -10.00     2800.00
01836             -10.00     2600.00
01837             -10.00     2800.00
01838             -14.00     2600.00
01839              -8.00     2400.00
01840              -8.00     2400.00
01841             -10.00     2400.00
01842              -6.00     2400.00
01843             -10.00     2400.00
01844             -14.00     2000.00
01845             -10.00     2000.00
01846              -8.00     2000.00
01847              -8.00     2000.00
01848              -6.00     2000.00
01849              -8.00     2000.00
01850              -8.00     2000.00
01851             -10.00     2000.00
01852              -8.00     1600.00
01853              -4.00     1600.00
01854              -6.00     1800.00
01855              -8.00     1600.00
01856              -8.00     1400.00
01857              -6.00     1400.00
01858              -6.00     1400.00
01859              -6.00     1200.00
01860              -2.00     1200.00
01861              -2.00     1200.00
01862              -6.00     1200.00
01863             -10.00     1000.00
01864              -6.00     1000.00
01865              -2.00      800.00
01866              -6.00     1000.00
01867              -2.00      800.00
01868              -2.00      800.00
01869              -2.00      600.00
01870              -8.00      600.00
01871              -2.00      600.00
01872               0.00      400.00
01873               0.00      400.00
01874              -8.00      200.00
01875              -8.00      200.00
01876               0.00      200.00
01877               6.00      200.00
01878               6.00      200.00
01879               6.00        0.00
01880               4.00        0.00
01881              -2.00     -200.00
01882              -8.00     -200.00
01883               0.00     -200.00
01884               8.00     -400.00
01885              26.00     -400.00
01886             112.00     -400.00
01887             134.00     -800.00
01888            -202.00     -800.00
01889            -254.00     -800.00
01890              86.00     -400.00
01891             246.00     -800.00
01892             246.00     -800.00
01893            -254.00    -1000.00
01894            -254.00     -800.00
01895             246.00    -1200.00
01896             246.00    -1000.00
01897            -254.00    -1200.00
01898            -198.00    -1200.00
01899             246.00    -1400.00
01900             128.00    -1200.00
01901             -10.00    -1600.00
01902            -160.00    -1600.00
01903            -206.00    -1400.00
01904             194.00    -1800.00
01905             246.00    -1600.00
01906            -208.00    -1600.00
01907            -248.00    -2000.00
01908             112.00    -2000.00
01909             158.00    -2000.00
01910              38.00    -2000.00
01911            -100.00    -2400.00
01912            -126.00    -2200.00
01913              94.00    -2200.00
01914             166.00    -2400.00
01915            -122.00    -2400.00
01916             -90.00    -2200.00
01917              96.00    -2600.00
01918              54.00    -2400.00
01919             -34.00    -2400.00
01920             -22.00    -2600.00
01921             -10.00    -2800.00
01922              38.00    -2800.00
01923              46.00    -2800.00
01924             -40.00    -2800.00
01925             -30.00    -2800.00
01926              30.00    -3000.00
01927              38.00    -3000.00
01928              -2.00    -3000.00
01929             -16.00    -3000.00
01930              -2.00    -3000.00
01931              32.00    -3000.00
01932              22.00    -3200.00
01933             -16.00    -3200.00
01934              -6.00    -3200.00
01935              30.00    -3200.00
01936              10.00    -3200.00
01937             -16.00    -3400.00
01938              10.00    -3200.00
01939              24.00    -3200.00
01940               8.00    -3400.00
01941               2.00    -3600.00
01942               0.00    -3600.00
01943               2.00    -3600.00
01944              16.00    -3600.00
01945              16.00    -3600.00
01946               2.00    -3600.00
01947               0.00    -3600.00
01948               8.00    -3800.00
01949              16.00    -3600.00
01950               6.00    -3800.00
01951              -2.00    -3600.00
01952               6.00    -3800.00
01953              16.00    -3800.00
01954               8.00    -3800.00
01955               2.00    -3800.00
01956               6.00    -4000.00
01957               2.00    -3800.00
01958               6.00    -3800.00
01959               8.00    -4000.00
01960              14.00    -4000.00
01961              12.00    -3800.00
01962               0.00    -3800.00
01963               0.00    -4000.00
01964               6.00    -4000.00
01965               6.00    -4000.00
01966              16.00    -4000.00
01967              14.00    -4000.00
01968               2.00    -4000.00
01969              -6.00    -4000.00
01970               8.00    -4000.00
01971              16.00    -4000.00
01972              14.00    -4000.00
01973               6.00    -4200.00
01974               4.00    -4000.00
01975               6.00    -4200.00
01976               8.00    -4000.00
01977               8.00    -4000.00
01978              10.00    -4000.00
01979               6.00    -4000.00
01980               6.00    -3800.00
01981              10.00    -4000.00
01982              10.00    -3800.00
01983               2.00    -3800.00
01984               2.00    -3800.00
01985               8.00    -4000.00
01986              10.00    -4000.00
01987               8.00    -3800.00
01988               8.00    -3800.00
01989               6.00    -4000.00
01990               4.00    -3800.00
01991               8.00    -3800.00
01992              14.00    -3600.00
01993              14.00    -3600.00
01994               6.00    -3800.00
01995               0.00    -3600.00
01996               8.00    -3600.00
01997               8.00    -3600.00
01998              14.00    -3600.00
01999               8.00    -3600.00
02000               6.00    -3600.00
02001               2.00    -3600.00
02002               8.00    -3600.00
02003               6.00    -3400.00
02004               6.00    -3400.00
02005               6.00    -3600.00
02006               6.00    -3400.00
02007              12.00    -3200.00
02008              10.00    -3200.00
02009               6.00    -3200.00
02010               0.00    -3200.00
02011               0.00    -3200.00
02012               6.00    -3200.00
02013              10.00    -3000.00
02014               8.00    -3000.00
02015               0.00    -3000.00
02016               2.00    -3000.00
02017               6.00    -2800.00
02018               8.00    -2800.00
02019              14.00    -2800.00
02020              14.00    -2800.00
02021               8.00    -2800.00
02022              -2.00    -2800.00
02023             -10.00    -2400.00
02024             -10.00    -2600.00
02025              -6.00    -2600.00
02026               6.00    -2400.00
02027              14.00    -2400.00
02028              14.00    -2400.00
02029              10.00    -2200.00
02030               8.00    -2200.00
02031               6.00    -2200.00
02032              -2.00    -2200.00
02033              -8.00    -2200.00
02034             -10.00    -2000.00
02035              -6.00    -2200.00
02036               6.00    -2000.00
02037              10.00    -2000.00
02038              14.00    -1800.00
02039              10.00    -1600.00
02040               0.00    -1600.00
02041              -2.00    -1600.00
02042              -6.00    -1600.00
02043              -6.00    -1400.00
02044              -6.00    -1400.00
02045               0.00    -1400.00
02046               2.00    -1000.00
02047               8.00    -1000.00
02048              10.00    -1000.00
02049               0.00    -1200.00
02050              -2.00     -800.00
02051              -6.00     -800.00
02052               0.00     -800.00
02053               6.00     -800.00
02054              -2.00     -800.00
02055              -6.00     -600.00
02056               0.00     -600.00
02057               0.00     -400.00
02058               0.00     -600.00
02059               6.00     -400.00
02060               6.00     -400.00
02061               2.00     -400.00
02062              -2.00     -400.00
02063             -10.00        0.00
02064              -6.00        0.00
02065              -2.00        0.00
02066              -2.00        0.00
02067               6.00      200.00
02068               8.00      200.00
02069               4.00      200.00
02070               0.00      400.00
02071               6.00      400.00
02072               0.00      400.00
02073              -6.00      400.00
02074             -10.00      400.00
02075              -2.00      400.00
02076              18.00      800.00
02077             112.00     1000.00
02078             182.00     1000.00
02079            -202.00      800.00
02080            -254.00      800.00
02081              88.00     1200.00
02082             246.00     1200.00
02083             246.00     1200.00
02084            -254.00      800.00
02085            -254.00     1200.00
02086             246.00     1600.00
02087             210.00     1200.00
02088            -254.00     1200.00
02089             -24.00     1800.00
02090             246.00     1600.00
02091             -96.00     1400.00
02092            -120.00     1800.00
02093              64.00     2000.00
02094            -168.00     1600.00
02095              62.00     2000.00
02096             242.00     2000.00
02097            -202.00     1800.00
02098            -128.00     2000.00
02099             128.00     2000.00
02100             -28.00     2000.00
02101              22.00     2200.00
02102              46.00     2400.00
02103            -212.00     2400.00
02104              66.00     2600.00
02105             206.00     2600.00
02106            -218.00     2400.00
02107             -74.00     2600.00
02108             180.00     2800.00
02109             -72.00     2600.00
02110             -38.00     2800.00
02111              50.00     3000.00
02112             -90.00     2800.00
02113              26.00     2800.00
02114              48.00     3000.00
02115             -90.00     3000.00
02116              16.00     3200.00
02117               0.00     3200.00
02118             -46.00     3200.00
02119              62.00     3400.00
02120             -32.00     3200.00
02121             -72.00     3200.00
02122              42.00     3400.00
02123              -6.00     3200.00
02124             -38.00     3400.00
02125              18.00     3600.00
02126             -16.00     3400.00
02127             -22.00     3600.00
02128             -16.00     3600.00
02129             -14.00     3600.00
02130              14.00     3600.00
02131             -10.00     3600.00
02132             -34.00     3600.00
02133               2.00     3600.00
02134             -10.00     4000.00
02135             -24.00     3600.00
02136               6.00     4000.00
02137              -2.00     4000.00
02138             -24.00     4000.00
02139             -10.00     3800.00
02140              -2.00     4000.00
02141             -16.00     4000.00
02142             -16.00     4000.00
02143             -10.00     4000.00
02144              -6.00     4200.00
02145              -8.00     4000.00
02146             -26.00     4000.00
02147             -14.00     4200.00
02148              -2.00     4000.00
02149             -22.00     4200.00
02150             -10.00     4200.00
02151              -2.00     4200.00
02152             -18.00     4200.00
02153             -16.00     4200.00
02154              -8.00     4400.00
02155             -16.00     4200.00
02156             -14.00     4200.00
02157             -10.00     4200.00
02158             -12.00     4200.00
02159             -10.00     4200.00
02160             -20.00     4200.00
02161             -18.00     4200.00
02162             -10.00     4400.00
02163             -10.00     4200.00
02164             -10.00     4200.00
02165              -8.00     4200.00
02166             -16.00     4200.00
02167             -22.00     4200.00
02168             -16.00     4200.00
02169             -10.00     4200.00
02170             -10.00     4200.00
02171             -10.00     4200.00
02172             -16.00     4200.00
02173             -18.00     4200.00
02174             -16.00     4000.00
02175             -16.00     4000.00
02176              -8.00     4200.00
02177             -10.00     4000.00
02178             -14.00     4200.00
02179             -14.00     4000.00
02180             -16.00     4200.00
02181             -16.00     4000.00
02182             -10.00     4200.00
02183             -10.00     4000.00
02184             -14.00     4000.00
02185             -14.00     4200.00
02186             -10.00     4000.00
02187             -14.00     4000.00
02188             -16.00     4000.00
02189             -14.00     4000.00
02190             -10.00     4000.00
02191             -10.00     3800.00
02192             -14.00     3800.00
02193             -10.00     4000.00
02194             -14.00     3800.00
02195             -16.00     3800.00
02196             -10.00     3600.00
02197              -6.00     3600.00
02198              -8.00     3600.00
02199             -14.00     3600.00
02200             -14.00     3600.00
02201             -14.00     3600.00
02202             -10.00     3400.00
02203              -8.00     3400.00
02204              -8.00     3400.00
02205             -10.00     3400.00
02206             -14.00     3400.00
02207             -14.00     3200.00
02208              -8.00     3200.00
02209             -10.00     3200.00
02210             -10.00     3200.00
02211              -6.00     3200.00
02212             -10.00     3200.00
02213             -14.00     3000.00
02214             -10.00     2800.00
02215             -10.00     2800.00
02216             -10.00     2800.00
02217             -10.00     2800.00
02218              -8.00     2800.00
02219             -10.00     2600.00
02220             -10.00     2600.00
02221             -14.00     2600.00
02222              -6.00     2600.00
02223              -2.00     2600.00
02224              -8.00     2400.00
02225              -8.00     2400.00
02226             -10.00     2200.00
02227             -10.00     2200.00
02228              -8.00     2200.00
02229             -10.00     2000.00
02230             -10.00     2000.00
02231              -8.00     2000.00
02232              -6.00     1800.00
02233              -6.00     1800.00
02234             -10.00     1800.00
02235             -10.00     1800.00
02236              -6.00     1800.00
02237              -6.00     1600.00
02238              -8.00     1600.00
02239              -2.00     1600.00
02240              -4.00     1400.00
02241             -10.00     1400.00
02242              -6.00     1200.00
02243              -2.00     1200.00
02244              -2.00     1200.00
02245              -4.00     1000.00
02246              -8.00     1000.00
02247              -6.00      800.00
02248              -6.00      800.00
02249              -8.00     1000.00
02250              -2.00      800.00
02251               0.00      800.00
02252               0.00      600.00
02253              -8.00      600.00
02254              -6.00      400.00
02255              -2.00      400.00
02256               0.00      400.00
02257              -4.00      400.00
02258              -6.00      200.00
02259               0.00      200.00
02260               6.00      200.00
02261               2.00        0.00
02262               6.00        0.00
02263               6.00        0.00
02264               0.00        0.00
02265              -6.00        0.00
02266              -2.00     -200.00
02267               2.00     -400.00
02268              22.00     -400.00
02269             110.00     -400.00
02270             150.00     -600.00
02271            -168.00     -800.00
02272            -254.00     -800.00
02273              22.00     -400.00
02274             246.00     -800.00
02275             246.00    -1000.00
02276            -254.00    -1000.00
02277            -254.00     -800.00
02278             246.00    -1200.00
02279             246.00    -1000.00
02280            -254.00    -1200.00
02281            -246.00    -1400.00
02282             246.00    -1400.00
02283             138.00    -1400.00
02284             -10.00    -1400.00
02285            -146.00    -1600.00
02286            -216.00    -1400.00
02287             166.00    -1600.00
02288             246.00    -2000.00
02289            -180.00    -1600.00
02290            -254.00    -2000.00
02291              96.00    -2000.00
02292             168.00    -2000.00
02293              40.00    -2000.00
02294             -96.00    -2200.00
02295            -128.00    -2000.00
02296              82.00    -2200.00
02297             178.00    -2400.00
02298            -112.00    -2400.00
02299            -110.00    -2400.00
02300              90.00    -2400.00
02301              66.00    -2400.00
02302             -32.00    -2600.00
02303             -32.00    -2800.00
02304             -18.00    -2800.00
02305              36.00    -2800.00
02306              56.00    -2800.00
02307             -34.00    -2800.00
02308             -38.00    -3000.00
02309              22.00    -2800.00
02310              40.00    -3000.00
02311               0.00    -3000.00
02312             -16.00    -3200.00
02313             -10.00    -3000.00
02314              24.00    -3000.00
02315              22.00    -3000.00
02316             -14.00    -3200.00
02317              -6.00    -3200.00
02318              30.00    -3200.00
02319              14.00    -3200.00
02320             -22.00    -3200.00
02321               6.00    -3400.00
02322              22.00    -3200.00
02323              14.00    -3400.00
02324               4.00    -3600.00
02325               0.00    -3600.00
02326              -2.00    -3600.00
02327              14.00    -3600.00
02328              20.00    -3600.00
02329               6.00    -3600.00
02330               0.00    -3600.00
02331               6.00    -3800.00
02332              16.00    -3600.00
02333               6.00    -3600.00
02334              -2.00    -3800.00
02335              14.00    -3800.00
02336              22.00    -3800.00
02337               2.00    -3800.00
02338               0.00    -3800.00
02339               8.00    -3800.00
02340               8.00    -3800.00
02341               8.00    -3800.00
02342              10.00    -3800.00
02343               2.00    -4000.00
02344               8.00    -3800.00
02345               8.00    -3800.00
02346              10.00    -4200.00
02347               6.00    -4000.00
02348              -8.00    -4000.00
02349              -2.00    -4000.00
02350              22.00    -3800.00
02351              18.00    -4000.00
02352               2.00    -3800.00
02353               0.00    -4000.00
02354               2.00    -4000.00
02355               8.00    -4000.00
02356              14.00    -4000.00
02357              10.00    -4000.00
02358              14.00    -4000.00
02359               0.00    -4000.00
02360             -10.00    -4000.00
02361               2.00    -4000.00
02362              22.00    -3800.00
02363              26.00    -3800.00
02364              14.00    -4000.00
02365             -12.00    -3800.00
02366             -16.00    -4000.00
02367              10.00    -3800.00
02368              18.00    -4000.00
02369              16.00    -3800.00
02370               6.00    -3800.00
02371               0.00    -3800.00
02372               8.00    -3800.00
02373               8.00    -4000.00
02374               6.00    -3800.00
02375              10.00    -3600.00
02376               8.00    -3800.00
02377               6.00    -3600.00
02378               2.00    -3600.00
02379               6.00    -3600.00
02380               8.00    -3800.00
02381              10.00    -3600.00
02382              10.00    -3600.00
02383              10.00    -3400.00
02384               8.00    -3600.00
02385              -2.00    -3600.00
02386               0.00    -3200.00
02387               8.00    -3600.00
02388              16.00    -3200.00
02389              10.00    -3400.00
02390              -2.00    -3200.00
02391               0.00    -3200.00
02392              14.00    -3200.00
02393              16.00    -3200.00
02394               8.00    -3000.00
02395              -4.00    -3000.00
02396              -2.00    -3000.00
02397              10.00    -3000.00
02398              14.00    -3000.00
02399              10.00    -3000.00
02400               6.00    -3000.00
02401               0.00    -2800.00
02402               4.00    -2800.00
02403              12.00    -2800.00
02404               2.00    -2800.00
02405               0.00    -2800.00
02406               2.00    -2800.00
02407               8.00    -2400.00
02408              10.00    -2400.00
02409               2.00    -2400.00
02410               0.00    -2400.00
02411               2.00    -2400.00
02412               6.00    -2400.00
02413               0.00    -2400.00
02414               2.00    -2200.00
02415               2.00    -2200.00
02416               8.00    -2200.00
02417               6.00    -2000.00
02418              -4.00    -2000.00
02419             -10.00    -2000.00
02420               2.00    -1800.00
02421              10.00    -1800.00
02422              10.00    -1800.00
02423               0.00    -1600.00
02424              -6.00    -1600.00
02425              -6.00    -1600.00
02426               0.00    -1400.00
02427               4.00    -1400.00
02428               8.00    -1400.00
02429               2.00    -1000.00
02430              -2.00    -1400.00
02431              -8.00    -1000.00
02432              -2.00    -1000.00
02433               2.00    -1000.00
02434               4.00     -800.00
02435               4.00     -800.00
02436              -2.00     -800.00
02437              -2.00     -800.00
02438              -2.00     -600.00
02439               0.00     -600.00
02440               0.00     -600.00
02441              -2.00     -400.00
02442               0.00     -400.00
02443               0.00     -400.00
02444               2.00     -400.00
02445               4.00     -200.00
02446              -2.00        0.00
02447              -6.00     -200.00
02448              -8.00        0.00
02449              -2.00      200.00
02450               8.00        0.00
02451               8.00      200.00
02452               2.00      200.00
02453              -8.00      200.00
02454               2.00      400.00
02455               4.00      400.00
02456              -2.00      600.00
02457              -2.00      400.00
02458               2.00      600.00
02459              10.00      800.00
02460              96.00      800.00
02461             186.00     1000.00
02462            -160.00     1000.00
02463            -254.00      800.00
02464              26.00     1000.00
02465             246.00     1200.00
02466             246.00     1200.00
02467            -254.00      800.00
02468            -254.00     1200.00
02469             246.00     1600.00
02470             246.00     1200.00
02471            -254.00     1200.00
02472             -96.00     1800.00
02473             246.00     1600.00
02474             -58.00     1200.00
02475            -138.00     1800.00
02476              54.00     2000.00
02477            -178.00     1600.00
02478              40.00     2000.00
02479             246.00     2000.00
02480            -164.00     1800.00
02481            -154.00     2000.00
02482             114.00     2000.00
02483             -18.00     2200.00
02484              10.00     2200.00
02485              54.00     2400.00
02486            -208.00     2600.00
02487              48.00     2600.00
02488             234.00     2600.00
02489            -198.00     2600.00
02490            -122.00     2600.00
02491             168.00     2800.00
02492             -48.00     2600.00
02493             -34.00     2800.00
02494              60.00     3000.00
02495            -102.00     2800.00
02496               0.00     3000.00
02497              58.00     3200.00
02498             -80.00     3000.00
02499              16.00     3200.00
02500               6.00     3200.00
02501             -58.00     3200.00
02502              48.00     3400.00
02503             -18.00     3200.00
02504             -74.00     3400.00
02505              42.00     3600.00
02506               0.00     3400.00
02507             -42.00     3400.00
02508              10.00     3600.00
02509             -16.00     3600.00
02510             -18.00     3400.00
02511             -14.00     3600.00
02512             -16.00     3400.00
02513              14.00     3600.00
02514             -10.00     3800.00
02515             -38.00     3600.00
02516               0.00     4000.00
02517              -8.00     3800.00
02518             -24.00     3800.00
02519               0.00     4000.00
02520              -2.00     4000.00
02521             -28.00     3800.00
02522             -10.00     4000.00
02523              -2.00     4000.00
02524             -16.00     4000.00
02525             -16.00     4200.00
02526              -8.00     4200.00
02527              -6.00     4000.00
02528             -10.00     4200.00
02529             -24.00     4200.00
02530             -16.00     4200.00
02531              -2.00     4200.00
02532             -18.00     4200.00
02533             -12.00     4000.00
02534               2.00     4200.00
02535             -18.00     4200.00
02536             -22.00     4200.00
02537             -10.00     4200.00
02538             -16.00     4200.00
02539             -12.00     4400.00
02540             -10.00     4400.00
02541             -14.00     4200.00
02542             -14.00     4400.00
02543             -22.00     4400.00
02544             -18.00     4400.00
02545              -8.00     4200.00
02546             -10.00     4200.00
02547             -16.00     4400.00
02548             -10.00     4400.00
02549             -14.00     4200.00
02550             -22.00     4200.00
02551             -16.00     4200.00
02552             -14.00     4200.00
02553             -14.00     4400.00
02554             -10.00     4200.00
02555             -10.00     4200.00
02556             -16.00     4200.00
02557             -18.00     4200.00
02558             -18.00     4200.00
02559             -12.00     4200.00
02560             -10.00     4200.00
02561             -16.00     4200.00
02562             -10.00     4000.00
02563             -14.00     4200.00
02564             -18.00     4200.00
02565             -14.00     4000.00
02566             -10.00     4000.00
02567             -14.00     4000.00
02568             -14.00     4000.00
02569             -10.00     4000.00
02570             -10.00     4000.00
02571             -14.00     4000.00
02572             -14.00     4000.00
02573             -10.00     4000.00
02574             -10.00     3800.00
02575             -14.00     4000.00
02576             -12.00     3800.00
02577             -14.00     3800.00
02578             -14.00     3600.00
02579             -10.00     3600.00
02580              -6.00     3600.00
02581             -10.00     3600.00
02582             -14.00     3600.00
02583             -14.00     3600.00
02584             -14.00     3400.00
02585             -10.00     3600.00
02586             -10.00     3400.00
02587              -8.00     3400.00
02588              -6.00     3400.00
02589             -10.00     3400.00
02590             -16.00     3400.00
02591             -14.00     3400.00
02592             -14.00     3200.00
02593             -10.00     3200.00
02594              -2.00     3200.00
02595              -8.00     3200.00
02596             -10.00     3000.00
02597             -10.00     3000.00
02598             -10.00     2800.00
02599             -10.00     2800.00
02600             -10.00     2800.00
02601              -2.00     2800.00
02602              -6.00     2800.00
02603             -14.00     2600.00
02604             -14.00     2400.00
02605              -8.00     2400.00
02606             -10.00     2400.00
02607              -8.00     2400.00
02608             -10.00     2400.00
02609              -8.00     2400.00
02610             -10.00     2200.00
02611             -10.00     2200.00
02612              -8.00     2000.00
02613              -8.00     2000.00
02614              -8.00     2000.00
02615              -8.00     2000.00
02616              -8.00     1800.00
02617             -10.00     1800.00
02618             -10.00     1600.00
02619              -8.00     1600.00
02620              -6.00     1800.00
02621              -8.00     1600.00
02622              -8.00     1600.00
02623              -6.00     1600.00
02624              -8.00     1200.00
02625              -6.00     1400.00
02626              -6.00     1200.00
02627              -8.00     1000.00
02628              -8.00     1200.00
02629              -8.00     1200.00
02630              -4.00     1200.00
02631              -2.00     1000.00
02632              -6.00      800.00
02633              -6.00      800.00
02634              -2.00      800.00
02635              -2.00      600.00
02636              -6.00      600.00
02637              -6.00      400.00
02638              -2.00      400.00
02639              -2.00      400.00
02640              -6.00      400.00
02641              -2.00      400.00
02642               2.00      200.00
02643               2.00      200.00
02644               0.00      200.00
02645               2.00        0.00
02646               6.00        0.00
02647               0.00        0.00
02648              -6.00        0.00
02649              -6.00     -200.00
02650               2.00     -400.00
02651              18.00     -400.00
02652             102.00     -400.00
02653             152.00     -600.00
02654            -138.00     -800.00
02655            -254.00     -600.00
02656             -40.00     -400.00
02657             246.00     -800.00
02658             246.00     -800.00
02659            -254.00    -1000.00
02660            -254.00     -800.00
02661             246.00    -1000.00
02662             246.00    -1200.00
02663            -254.00    -1200.00
02664            -254.00    -1000.00
02665             246.00    -1400.00
02666             154.00    -1200.00
02667               0.00    -1400.00
02668            -128.00    -1600.00
02669            -228.00    -1400.00
02670             128.00    -1600.00
02671             246.00    -2000.00
02672            -144.00    -1600.00
02673            -254.00    -2000.00
02674              64.00    -2000.00
02675             168.00    -2000.00
02676              46.00    -2000.00
02677             -82.00    -2200.00
02678            -132.00    -2000.00
02679              64.00    -2200.00
02680             184.00    -2400.00
02681             -98.00    -2400.00
02682            -122.00    -2400.00
02683              78.00    -2400.00
02684              80.00    -2400.00
02685             -26.00    -2400.00
02686             -26.00    -2600.00
02687             -22.00    -2600.00
02688              26.00    -2800.00
02689              54.00    -2800.00
02690             -24.00    -2800.00
02691             -36.00    -2800.00
02692              22.00    -3000.00
02693              34.00    -2800.00
02694               0.00    -3000.00
02695             -14.00    -3000.00
02696              -8.00    -3000.00
02697              22.00    -3200.00
02698              22.00    -3200.00
02699             -14.00    -3000.00
02700             -12.00    -3200.00
02701              30.00    -3200.00
02702              16.00    -3200.00
02703             -18.00    -3200.00
02704               2.00    -3400.00
02705              22.00    -3400.00
02706              14.00    -3400.00
02707               6.00    -3400.00
02708               0.00    -3600.00
02709              -2.00    -3600.00
02710              10.00    -3600.00
02711              16.00    -3600.00
02712              10.00    -3600.00
02713               4.00    -3800.00
02714               4.00    -3800.00
02715              10.00    -3600.00
02716              10.00    -3800.00
02717               0.00    -3800.00
02718               8.00    -3800.00
02719              16.00    -3800.00
02720               6.00    -3600.00
02721               0.00    -3800.00
02722               8.00    -3800.00
02723               8.00    -3800.00
02724               8.00    -3800.00
02725              10.00    -3800.00
02726              10.00    -4000.00
02727               8.00    -3800.00
02728               6.00    -4000.00
02729               6.00    -4000.00
02730               8.00    -3800.00
02731               6.00    -4000.00
02732              10.00    -4000.00
02733              14.00    -4000.00
02734               4.00    -3800.00
02735              -2.00    -4000.00
02736               6.00    -4000.00
02737              12.00    -3800.00
02738              10.00    -4000.00
02739               8.00    -4000.00
02740               6.00    -4000.00
02741               6.00    -4000.00
02742               2.00    -4000.00
02743               6.00    -4000.00
02744              10.00    -4000.00
02745               8.00    -3800.00
02746               6.00    -4000.00
02747               8.00    -3800.00
02748               6.00    -3800.00
02749               2.00    -4000.00
02750               6.00    -3800.00
02751              10.00    -4000.00
02752              10.00    -3800.00
02753               8.00    -3800.00
02754               6.00    -3800.00
02755               2.00    -3800.00
02756               2.00    -3800.00
02757              10.00    -3800.00
02758               8.00    -3800.00
02759               8.00    -3600.00
02760               8.00    -3800.00
02761               8.00    -3600.00
02762               2.00    -3600.00
02763               6.00    -3600.00
02764               6.00    -3600.00
02765              14.00    -3600.00
02766               8.00    -3600.00
02767               4.00    -3400.00
02768               2.00    -3600.00
02769               6.00    -3600.00
02770               6.00    -3200.00
02771               8.00    -3400.00
02772               6.00    -3400.00
02773               8.00    -3200.00
02774              14.00    -3200.00
02775               8.00    -3200.00
02776               0.00    -3200.00
02777              -2.00    -3200.00
02778               8.00    -3200.00
02779              16.00    -3200.00
02780              10.00    -3000.00
02781               2.00    -3000.00
02782               2.00    -2800.00
02783               6.00    -2800.00
02784               8.00    -2800.00
02785              14.00    -2800.00
02786               8.00    -2800.00
02787               0.00    -2800.00
02788              -2.00    -2800.00
02789               2.00    -2600.00
02790              14.00    -2600.00
02791              14.00    -2600.00
02792               8.00    -2400.00
02793              -2.00    -2400.00
02794              -8.00    -2400.00
02795              -2.00    -2400.00
02796              14.00    -2200.00
02797              20.00    -2200.00
02798              10.00    -2200.00
02799              -2.00    -2200.00
02800             -10.00    -2000.00
02801              -2.00    -2000.00
02802               8.00    -2000.00
02803              14.00    -1800.00
02804               8.00    -1600.00
02805              -6.00    -1600.00
02806             -10.00    -1600.00
02807               0.00    -1600.00
02808               8.00    -1400.00
02809              10.00    -1400.00
02810               2.00    -1400.00
02811              -6.00    -1400.00
02812              -4.00    -1600.00
02813               0.00    -1000.00
02814               0.00    -1200.00
02815               2.00    -1000.00
02816               2.00    -1200.00
02817              -2.00    -1000.00
02818               0.00     -800.00
02819              -2.00     -800.00
02820              -2.00     -800.00
02821               0.00     -800.00
02822              -2.00     -600.00
02823              -2.00     -600.00
02824              -2.00     -600.00
02825               0.00     -400.00
02826               2.00     -400.00
02827               2.00     -200.00
02828              -6.00     -400.00
02829             -10.00        0.00
02830              -4.00        0.00
02831               0.00        0.00
02832               2.00        0.00
02833               0.00      200.00
02834               0.00      200.00
02835              -2.00      200.00
02836              -2.00      400.00
02837               6.00      400.00
02838               8.00      400.00
02839               0.00      400.00
02840              -6.00      400.00
02841              -4.00      800.00
02842               0.00      800.00
02843              86.00      800.00
02844             194.00     1000.00
02845            -122.00      800.00
02846            -254.00      800.00
02847             -42.00     1000.00
02848             246.00     1200.00
02849             246.00     1200.00
02850            -254.00      800.00
02851            -254.00     1400.00
02852             246.00     1600.00
02853             246.00     1400.00
02854            -254.00     1200.00
02855            -154.00     1800.00
02856             246.00     1800.00
02857             -38.00     1200.00
02858            -158.00     1800.00
02859              72.00     2000.00
02860            -154.00     1600.00
02861              22.00     1800.00
02862             246.00     2000.00
02863            -144.00     2000.00
02864            -174.00     1800.00
02865             118.00     2400.00
02866              -2.00     2000.00
02867              -2.00     2400.00
02868              70.00     2400.00
02869            -194.00     2200.00
02870              12.00     2400.00
02871             234.00     2600.00
02872            -178.00     2400.00
02873            -134.00     2600.00
02874             178.00     2800.00
02875             -38.00     2600.00
02876             -66.00     2800.00
02877              62.00     3000.00
02878             -86.00     2600.00
02879              -2.00     3000.00
02880              70.00     3200.00
02881             -86.00     3000.00
02882               2.00     3200.00
02883              12.00     3200.00
02884             -58.00     3200.00
02885              48.00     3200.00
02886             -10.00     3400.00
02887             -82.00     3400.00
02888              32.00     3400.00
02889               2.00     3200.00
02890             -40.00     3400.00
02891              16.00     3600.00
02892             -10.00     3600.00
02893             -24.00     3600.00
02894             -16.00     3600.00
02895             -18.00     3600.00
02896              14.00     3600.00
02897              -6.00     3800.00
02898             -40.00     3600.00
02899              -6.00     3800.00
02900              -8.00     3800.00
02901             -26.00     3800.00
02902               0.00     4000.00
02903               0.00     4000.00
02904             -26.00     4000.00
02905             -14.00     4000.00
02906               2.00     4000.00
02907             -16.00     4000.00
02908             -18.00     4000.00
02909             -10.00     4200.00
02910              -6.00     4200.00
02911              -2.00     4200.00
02912             -22.00     4000.00
02913             -14.00     4200.00
02914              -6.00     4200.00
02915             -20.00     4000.00
02916             -16.00     4200.00
02917               0.00     4400.00
02918             -16.00     4200.00
02919             -18.00     4400.00
02920             -10.00     4200.00
02921             -10.00     4400.00
02922             -10.00     4200.00
02923             -10.00     4200.00
02924             -10.00     4200.00
02925             -10.00     4200.00
02926             -16.00     4200.00
02927             -16.00     4400.00
02928              -8.00     4200.00
02929             -14.00     4400.00
02930             -16.00     4400.00
02931              -8.00     4200.00
02932             -10.00     4400.00
02933             -16.00     4200.00
02934             -14.00     4200.00
02935             -14.00     4400.00
02936             -10.00     4200.00
02937             -10.00     4000.00
02938             -10.00     4200.00
02939             -14.00     4400.00
02940             -16.00     4200.00
02941             -16.00     4200.00
02942             -10.00     4200.00
02943             -10.00     4200.00
02944             -14.00     4200.00
02945             -14.00     4200.00
02946             -16.00     4200.00
02947             -16.00     4000.00
02948             -10.00     4000.00
02949              -8.00     4000.00
02950             -14.00     4000.00
02951             -14.00     4000.00
02952             -16.00     4000.00
02953             -16.00     4000.00
02954             -14.00     4000.00
02955             -12.00     4000.00
02956             -10.00     4000.00
02957             -14.00     3800.00
02958             -16.00     3800.00
02959             -14.00     3800.00
02960             -14.00     3600.00
02961             -16.00     3600.00
02962             -14.00     3600.00
02963              -8.00     3800.00
02964             -10.00     3600.00
02965             -10.00     3600.00
02966             -14.00     3400.00
02967             -10.00     3400.00
02968             -10.00     3400.00
02969             -12.00     3400.00
02970              -8.00     3200.00
02971             -10.00     3400.00
02972             -12.00     3400.00
02973             -10.00     3200.00
02974              -8.00     3200.00
02975             -10.00     3200.00
02976              -8.00     3200.00
02977              -2.00     3200.00
02978             -10.00     3000.00
02979             -10.00     2800.00
02980             -12.00     2800.00
02981             -10.00     2800.00
02982              -8.00     2800.00
02983              -2.00     2800.00
02984             -14.00     2800.00
02985             -16.00     2800.00
02986             -10.00     2600.00
02987              -6.00     2600.00
02988              -2.00     2600.00
02989              -8.00     2600.00
02990             -16.00     2400.00
02991             -10.00     2400.00
02992               2.00     2200.00
02993              -2.00     2200.00
02994             -16.00     2200.00
02995             -24.00     2000.00
02996              -6.00     2000.00
02997              12.00     2000.00
02998              -2.00     1800.00
02999             -22.00     2000.00
03000             -22.00     1800.00
03001              -6.00     1600.00
03002               2.00     1600.00
03003               0.00     1600.00
03004             -10.00     1600.00
03005             -14.00     1400.00
03006             -14.00     1400.00
03007             -10.00     1400.00
03008              -2.00     1200.00
03009               0.00     1400.00
03010              -2.00     1200.00
03011              -2.00     1000.00
03012              -8.00     1000.00
03013             -16.00     1000.00
03014             -10.00      800.00
03015               0.00      800.00
03016               6.00     1000.00
03017              -2.00      800.00
03018             -16.00      800.00
03019             -16.00      400.00
03020               2.00      600.00
03021               8.00      400.00
03022              -2.00      400.00
03023             -10.00      400.00
03024             -14.00      200.00
03025              -2.00      200.00
03026              10.00      200.00
03027               8.00        0.00
03028               0.00        0.00
03029               0.00        0.00
03030              -6.00        0.00
03031              -6.00        0.00
03032              -2.00     -400.00
03033               6.00     -400.00
03034              16.00     -400.00
03035              88.00     -400.00
03036             156.00     -800.00
03037            -106.00     -800.00
03038            -254.00     -800.00
03039             -96.00     -400.00
03040             246.00     -800.00
03041             246.00    -1000.00
03042            -254.00    -1000.00
03043            -254.00     -800.00
03044             246.00    -1200.00
03045             246.00    -1000.00
03046            -254.00    -1000.00
03047            -254.00    -1200.00
03048             246.00    -1400.00
03049             174.00    -1200.00
03050               6.00    -1400.00
03051            -120.00    -1600.00
03052            -234.00    -1400.00
03053             104.00    -1600.00
03054             246.00    -1800.00
03055            -112.00    -1600.00
03056            -254.00    -1800.00
03057              50.00    -2200.00
03058             182.00    -1800.00
03059              48.00    -2000.00
03060             -74.00    -2200.00
03061            -138.00    -2000.00
03062              48.00    -2200.00
03063             192.00    -2400.00
03064             -82.00    -2400.00
03065            -134.00    -2400.00
03066              66.00    -2400.00
03067              88.00    -2400.00
03068             -24.00    -2400.00
03069             -24.00    -2600.00
03070             -26.00    -2800.00
03071              22.00    -2800.00
03072              54.00    -2800.00
03073             -22.00    -2800.00
03074             -40.00    -2800.00
03075              16.00    -2800.00
03076              40.00    -2800.00
03077               2.00    -3000.00
03078             -16.00    -3000.00
03079             -14.00    -3000.00
03080              22.00    -3200.00
03081              26.00    -3200.00
03082             -10.00    -3200.00
03083             -16.00    -3200.00
03084              24.00    -3200.00
03085              16.00    -3200.00
03086             -18.00    -3200.00
03087               0.00    -3200.00
03088              22.00    -3200.00
03089              12.00    -3400.00
03090               6.00    -3600.00
03091               0.00    -3600.00
03092              -2.00    -3600.00
03093              10.00    -3600.00
03094              20.00    -3600.00
03095               6.00    -3600.00
03096               4.00    -3800.00
03097               6.00    -3600.00
03098               8.00    -3600.00
03099               8.00    -3800.00
03100               6.00    -3600.00
03101               4.00    -3600.00
03102              16.00    -3800.00
03103              14.00    -3800.00
03104              -2.00    -3800.00
03105               8.00    -3800.00
03106              14.00    -3800.00
03107               4.00    -3800.00
03108               8.00    -3800.00
03109              10.00    -3800.00
03110              10.00    -4000.00
03111               8.00    -4000.00
03112               6.00    -4000.00
03113               8.00    -4000.00
03114              14.00    -4000.00
03115               6.00    -4000.00
03116               8.00    -4000.00
03117              14.00    -4000.00
03118               4.00    -4000.00
03119               0.00    -3800.00
03120               8.00    -3800.00
03121              14.00    -4000.00
03122              18.00    -4000.00
03123              12.00    -3800.00
03124               2.00    -4000.00
03125               6.00    -4000.00
03126               6.00    -4000.00
03127               6.00    -4000.00
03128               8.00    -4000.00
03129              10.00    -4000.00
03130               8.00    -3800.00
03131               8.00    -4000.00
03132               0.00    -4000.00
03133               2.00    -3800.00
03134              10.00    -3800.00
03135              12.00    -3800.00
03136               8.00    -3800.00
03137               6.00    -3800.00
03138               2.00    -3800.00
03139               2.00    -3800.00
03140               8.00    -3800.00
03141              10.00    -3800.00
03142               8.00    -3800.00
03143               8.00    -3800.00
03144               6.00    -3800.00
03145               2.00    -3600.00
03146               2.00    -3600.00
03147               2.00    -3600.00
03148              14.00    -3600.00
03149              14.00    -3600.00
03150              10.00    -3400.00
03151               2.00    -3600.00
03152              -2.00    -3400.00
03153               2.00    -3400.00
03154              16.00    -3200.00
03155              14.00    -3400.00
03156               6.00    -3200.00
03157              -2.00    -3200.00
03158               0.00    -3200.00
03159               8.00    -3200.00
03160              12.00    -3200.00
03161              10.00    -3000.00
03162               6.00    -3000.00
03163               4.00    -3000.00
03164               0.00    -3000.00
03165               6.00    -3000.00
03166              10.00    -2800.00
03167               8.00    -3000.00
03168               8.00    -2800.00
03169               6.00    -2800.00
03170               2.00    -2800.00
03171               2.00    -2800.00
03172               0.00    -2600.00
03173               6.00    -2800.00
03174               8.00    -2400.00
03175               8.00    -2400.00
03176               2.00    -2400.00
03177               0.00    -2400.00
03178               2.00    -2400.00
03179               6.00    -2200.00
03180               8.00    -2400.00
03181               6.00    -2200.00
03182               2.00    -2000.00
03183               4.00    -2000.00
03184               4.00    -2000.00
03185               2.00    -2000.00
03186               2.00    -1800.00
03187               0.00    -1800.00
03188               6.00    -1600.00
03189               6.00    -1600.00
03190               2.00    -1600.00
03191               0.00    -1400.00
03192               0.00    -1400.00
03193               0.00    -1400.00
03194               0.00    -1200.00
03195               2.00    -1200.00
03196               2.00    -1200.00
03197               0.00    -1000.00
03198               0.00    -1000.00
03199              -2.00    -1200.00
03200              -2.00    -1000.00
03201               0.00     -800.00
03202               2.00     -800.00
03203               0.00     -800.00
03204              -2.00     -800.00
03205              -2.00     -600.00
03206              -6.00     -600.00
03207              -2.00     -400.00
03208               0.00     -400.00
03209               0.00     -200.00
03210               0.00     -400.00
03211              -6.00     -400.00
03212              -6.00     -200.00
03213               0.00        0.00
03214               0.00        0.00
03215              -6.00        0.00
03216              -2.00        0.00
03217               0.00        0.00
03218               2.00      200.00
03219              -2.00      400.00
03220               6.00      400.00
03221              10.00      400.00
03222              -6.00      400.00
03223             -10.00      400.00
03224              -6.00      600.00
03225               8.00      800.00
03226              80.00      800.00
03227             198.00     1000.00
03228             -90.00     1000.00
03229            -254.00      800.00
03230            -106.00     1000.00
03231             246.00     1200.00
03232             246.00     1200.00
03233            -254.00      800.00
03234            -254.00     1200.00
03235             246.00     1600.00
03236             246.00     1200.00
03237            -254.00     1200.00
03238            -218.00     1800.00
03239             246.00     1800.00
03240               6.00     1600.00
03241            -170.00     1600.00
03242              70.00     2000.00
03243            -152.00     1600.00
03244             -10.00     2000.00
03245             246.00     2000.00
03246            -106.00     1800.00
03247            -190.00     2000.00
03248             110.00     2400.00
03249              10.00     2000.00
03250             -16.00     2200.00
03251              80.00     2400.00
03252            -182.00     2400.00
03253             -16.00     2400.00
03254             240.00     2600.00
03255            -152.00     2600.00
03256            -158.00     2600.00
03257             176.00     2800.00
03258             -22.00     2600.00
03259             -80.00     2800.00
03260              64.00     3000.00
03261             -74.00     2600.00
03262             -10.00     2800.00
03263              74.00     3200.00
03264             -86.00     2800.00
03265             -10.00     3200.00
03266              22.00     3200.00
03267             -56.00     3200.00
03268              48.00     3400.00
03269               2.00     3200.00
03270             -90.00     3200.00
03271              22.00     3400.00
03272              12.00     3400.00
03273             -40.00     3400.00
03274              16.00     3600.00
03275             -14.00     3400.00
03276             -34.00     3400.00
03277             -16.00     3600.00
03278             -10.00     3600.00
03279              16.00     3600.00
03280               0.00     4000.00
03281             -42.00     3600.00
03282             -10.00     3800.00
03283              -2.00     4000.00
03284             -24.00     3800.00
03285              -2.00     4000.00
03286               0.00     4000.00
03287             -24.00     4000.00
03288             -14.00     4000.00
03289               0.00     4000.00
03290             -18.00     4000.00
03291             -22.00     4000.00
03292             -10.00     4000.00
03293              -2.00     4000.00
03294              -6.00     4000.00
03295             -22.00     4200.00
03296             -18.00     4200.00
03297              -2.00     4200.00
03298             -16.00     4200.00
03299             -14.00     4200.00
03300               0.00     4200.00
03301             -16.00     4200.00
03302             -20.00     4200.00
03303             -10.00     4200.00
03304             -14.00     4200.00
03305             -12.00     4000.00
03306              -8.00     4400.00
03307              -6.00     4200.00
03308             -10.00     4400.00
03309             -18.00     4200.00
03310             -22.00     4400.00
03311              -8.00     4400.00
03312              -6.00     4400.00
03313             -10.00     4200.00
03314              -6.00     4400.00
03315             -16.00     4200.00
03316             -24.00     4200.00
03317             -16.00     4400.00
03318              -8.00     4400.00
03319              -6.00     4200.00
03320              -6.00     4200.00
03321             -12.00     4400.00
03322             -14.00     4200.00
03323             -16.00     4200.00
03324             -16.00     4200.00
03325             -10.00     4200.00
03326             -14.00     4200.00
03327             -16.00     4000.00
03328             -14.00     4200.00
03329             -16.00     4000.00
03330             -18.00     4200.00
03331             -10.00     4000.00
03332              -8.00     4000.00
03333             -10.00     4000.00
03334             -14.00     4000.00
03335             -12.00     4000.00
03336             -18.00     4000.00
03337             -16.00     4000.00
03338             -14.00     3800.00
03339              -6.00     3800.00
03340              -6.00     3600.00
03341             -10.00     3800.00
03342             -12.00     3600.00
03343             -16.00     3600.00
03344             -18.00     3800.00
03345             -14.00     3600.00
03346             -10.00     3600.00
03347             -12.00     3600.00
03348             -14.00     3600.00
03349             -14.00     3400.00
03350             -16.00     3400.00
03351             -10.00     3400.00
03352             -10.00     3400.00
03353              -6.00     3400.00
03354             -10.00     3400.00
03355             -16.00     3200.00
03356             -16.00     3200.00
03357             -12.00     3200.00
03358             -10.00     3200.00
03359              -8.00     3200.00
03360              -6.00     3200.00
03361              -8.00     3200.00
03362             -12.00     3200.00
03363             -10.00     2800.00
03364             -10.00     2800.00
03365              -8.00     2800.00
03366             -10.00     2800.00
03367              -8.00     2800.00
03368              -8.00     2600.00
03369             -10.00     2600.00
03370             -12.00     2600.00
03371              -6.00     2400.00
03372              -2.00     2600.00
03373              -8.00     2400.00
03374              -8.00     2200.00
03375             -10.00     2200.00
03376             -10.00     2000.00
03377              -8.00     2000.00
03378              -8.00     2200.00
03379              -4.00     2000.00
03380              -6.00     1800.00
03381              -8.00     2000.00
03382              -8.00     1800.00
03383              -8.00     1600.00
03384             -10.00     1600.00
03385              -8.00     1800.00
03386              -6.00     1600.00
03387              -8.00     1600.00
03388              -8.00     1600.00
03389              -6.00     1600.00
03390              -8.00     1400.00
03391              -8.00     1200.00
03392              -6.00     1200.00
03393              -2.00     1000.00
03394              -6.00     1000.00
03395              -8.00     1000.00
03396              -8.00     1000.00
03397              -6.00      800.00
03398              -8.00      800.00
03399              -6.00      800.00
03400              -2.00      800.00
03401              -2.00      600.00
03402              -6.00      800.00
03403              -8.00      400.00
03404              -2.00      400.00
03405              -2.00      400.00
03406              -6.00      200.00
03407              -8.00      400.00
03408               0.00        0.00
03409               4.00      200.00
03410               0.00      200.00
03411               0.00        0.00
03412               6.00        0.00
03413               0.00     -200.00
03414              -8.00        0.00
03415              -2.00     -400.00
03416               0.00     -400.00
03417              16.00     -400.00
03418              80.00     -400.00
03419             162.00     -600.00
03420             -84.00     -800.00
03421            -254.00     -800.00
03422            -154.00     -600.00
03423             246.00     -800.00
03424             246.00     -800.00
03425            -254.00    -1200.00
03426            -254.00     -600.00
03427             246.00    -1200.00
03428             246.00    -1200.00
03429            -254.00    -1000.00
03430            -254.00    -1200.00
03431             246.00    -1400.00
03432             182.00    -1200.00
03433              10.00    -1400.00
03434            -106.00    -1600.00
03435            -230.00    -1400.00
03436              80.00    -1600.00
03437             246.00    -1800.00
03438             -90.00    -1800.00
03439            -254.00    -1800.00
03440              30.00    -2000.00
03441             192.00    -1800.00
03442              56.00    -2000.00
03443             -72.00    -2200.00
03444            -138.00    -2000.00
03445              34.00    -2000.00
03446             200.00    -2400.00
03447             -56.00    -2200.00
03448            -144.00    -2200.00
03449              50.00    -2400.00
03450              98.00    -2600.00
03451             -18.00    -2400.00
03452             -22.00    -2800.00
03453             -22.00    -2600.00
03454              16.00    -2800.00
03455              54.00    -2800.00
03456             -12.00    -2800.00
03457             -42.00    -2800.00
03458              16.00    -3000.00
03459              46.00    -2800.00
03460               2.00    -2800.00
03461             -16.00    -3000.00
03462             -10.00    -3000.00
03463              18.00    -3200.00
03464              24.00    -3200.00
03465             -10.00    -3200.00
03466             -16.00    -3200.00
03467              28.00    -3200.00
03468              26.00    -3200.00
03469             -24.00    -3200.00
03470              -8.00    -3200.00
03471              22.00    -3400.00
03472              18.00    -3400.00
03473              14.00    -3600.00
03474               0.00    -3400.00
03475             -10.00    -3600.00
03476               2.00    -3600.00
03477              14.00    -3600.00
03478              10.00    -3600.00
03479               8.00    -3600.00
03480               6.00    -3600.00
03481              10.00    -3600.00
03482               8.00    -3800.00
03483              -4.00    -3800.00
03484               6.00    -3800.00
03485              22.00    -3800.00
03486              14.00    -3800.00
03487               2.00    -3800.00
03488               6.00    -3800.00
03489               0.00    -3800.00
03490               2.00    -3800.00
03491               8.00    -3800.00
03492              16.00    -4000.00
03493              16.00    -3800.00
03494               8.00    -4000.00
03495               0.00    -4000.00
03496               6.00    -4000.00
03497               6.00    -3800.00
03498              14.00    -3800.00
03499              18.00    -4000.00
03500               8.00    -4000.00
03501              -2.00    -4000.00
03502               2.00    -3800.00
03503              10.00    -4000.00
03504              14.00    -4000.00
03505              14.00    -4000.00
03506               8.00    -4000.00
03507               8.00    -4000.00
03508               4.00    -3800.00
03509               8.00    -4000.00
03510              12.00    -3800.00
03511              14.00    -3800.00
03512               8.00    -4000.00
03513               8.00    -3800.00
03514               6.00    -3800.00
03515               6.00    -3800.00
03516               8.00    -3800.00
03517              14.00    -3800.00
03518              10.00    -3800.00
03519               6.00    -3800.00
03520               4.00    -3800.00
03521               6.00    -3800.00
03522               8.00    -3800.00
03523              10.00    -3600.00
03524               8.00    -3800.00
03525               8.00    -3800.00
03526               6.00    -3600.00
03527               8.00    -3600.00
03528               6.00    -3600.00
03529               8.00    -3600.00
03530               4.00    -3600.00
03531               8.00    -3600.00
03532               6.00    -3600.00
03533               6.00    -3600.00
03534               8.00    -3600.00
03535               6.00    -3600.00
03536               0.00    -3200.00
03537               6.00    -3400.00
03538              10.00    -3200.00
03539              10.00    -3400.00
03540               8.00    -3200.00
03541               2.00    -3200.00
03542               0.00    -3200.00
03543               0.00    -3200.00
03544               8.00    -3000.00
03545              14.00    -3000.00
03546               8.00    -3000.00
03547               2.00    -3000.00
03548               0.00    -3000.00
03549               2.00    -2800.00
03550               6.00    -3000.00
03551               8.00    -3000.00
03552               6.00    -2800.00
03553               2.00    -2800.00
03554              -2.00    -2800.00
03555               6.00    -2400.00
03556               8.00    -2600.00
03557               8.00    -2600.00
03558               2.00    -2600.00
03559               4.00    -2400.00
03560               6.00    -2400.00
03561               6.00    -2400.00
03562               6.00    -2400.00
03563               2.00    -2200.00
03564               2.00    -2000.00
03565               4.00    -2000.00
03566               6.00    -2000.00
03567               6.00    -2000.00
03568               0.00    -1800.00
03569               0.00    -2000.00
03570               2.00    -1600.00
03571               2.00    -1600.00
03572               2.00    -1600.00
03573               4.00    -1600.00
03574               2.00    -1600.00
03575               0.00    -1400.00
03576               2.00    -1400.00
03577               2.00    -1400.00
03578               2.00    -1200.00
03579               2.00    -1000.00
03580               2.00    -1200.00
03581               2.00     -800.00
03582               0.00    -1000.00
03583              -2.00     -800.00
03584              -2.00     -800.00
03585               4.00     -800.00
03586               0.00     -800.00
03587               0.00     -600.00
03588              -2.00     -600.00
03589              -4.00     -400.00
03590              -2.00     -600.00
03591              -2.00     -400.00
03592               2.00     -400.00
03593               0.00     -400.00
03594              -8.00     -400.00
03595              -8.00     -200.00
03596              -2.00        0.00
03597               0.00        0.00
03598              -2.00        0.00
03599              -4.00      200.00
03600              -2.00      200.00
03601               0.00      200.00
03602               0.00      200.00
03603               6.00      400.00
03604               6.00      400.00
03605              -6.00      600.00
03606             -10.00      400.00
03607              -6.00      600.00
03608               6.00      800.00
03609              72.00      800.00
03610             194.00     1000.00
03611             -58.00     1000.00
03612            -254.00      800.00
03613            -170.00     1000.00
03614             246.00     1200.00
03615             246.00     1400.00
03616            -254.00      800.00
03617            -254.00     1200.00
03618             246.00     1600.00
03619             246.00     1400.00
03620            -254.00     1200.00
03621            -254.00     1800.00
03622             246.00     1800.00
03623              32.00     1400.00
03624            -184.00     1800.00
03625              72.00     1800.00
03626            -134.00     1800.00
03627             -30.00     1800.00
03628             246.00     2000.00
03629             -78.00     2000.00
03630            -210.00     2000.00
03631             102.00     2400.00
03632              32.00     2200.00
03633             -26.00     2400.00
03634              82.00     2400.00
03635            -174.00     2200.00
03636             -46.00     2400.00
03637             246.00     2600.00
03638            -122.00     2400.00
03639            -178.00     2600.00
03640             174.00     2800.00
03641               0.00     2600.00
03642             -88.00     2800.00
03643              64.00     3000.00
03644             -66.00     2800.00
03645             -26.00     3000.00
03646              80.00     3000.00
03647             -72.00     3000.00
03648             -12.00     3200.00
03649              22.00     3200.00
03650             -64.00     3200.00
03651              36.00     3400.00
03652              16.00     3400.00
03653             -86.00     3200.00
03654              22.00     3600.00
03655              14.00     3400.00
03656             -48.00     3400.00
03657              14.00     3600.00
03658              -6.00     3600.00
03659             -30.00     3400.00
03660             -14.00     3800.00
03661             -20.00     3600.00
03662              14.00     3600.00
03663               4.00     3800.00
03664             -40.00     3600.00
03665             -12.00     3600.00
03666              -2.00     3800.00
03667             -26.00     3800.00
03668              -2.00     3600.00
03669               2.00     4000.00
03670             -26.00     4000.00
03671             -22.00     4000.00
03672               0.00     4000.00
03673             -18.00     4000.00
03674             -18.00     4000.00
03675             -10.00     4000.00
03676              -2.00     4000.00
03677              -6.00     4000.00
03678             -22.00     4200.00
03679             -22.00     4000.00
03680              -2.00     4200.00
03681             -16.00     4200.00
03682             -16.00     4200.00
03683               0.00     4200.00
03684             -16.00     4200.00
03685             -22.00     4200.00
03686             -12.00     4200.00
03687             -10.00     4200.00
03688             -12.00     4200.00
03689              -8.00     4400.00
03690             -10.00     4200.00
03691             -10.00     4400.00
03692             -16.00     4200.00
03693             -18.00     4400.00
03694              -8.00     4200.00
03695              -8.00     4200.00
03696             -14.00     4400.00
03697              -8.00     4400.00
03698             -10.00     4200.00
03699             -16.00     4400.00
03700             -16.00     4400.00
03701             -10.00     4400.00
03702             -12.00     4200.00
03703             -10.00     4200.00
03704             -10.00     4400.00
03705             -14.00     4200.00
03706             -16.00     4400.00
03707             -18.00     4200.00
03708             -10.00     4400.00
03709              -8.00     4200.00
03710             -10.00     4200.00
03711             -10.00     4000.00
03712             -16.00     4200.00
03713             -18.00     4000.00
03714             -14.00     4000.00
03715             -10.00     4000.00
03716             -12.00     4000.00
03717             -14.00     4000.00
03718             -10.00     4000.00
03719             -10.00     4000.00
03720             -16.00     4000.00
03721             -16.00     4000.00
03722             -12.00     4000.00
03723              -8.00     3800.00
03724             -14.00     3800.00
03725             -14.00     4000.00
03726             -14.00     4000.00
03727             -18.00     3600.00
03728             -16.00     3600.00
03729             -10.00     3600.00
03730             -10.00     3600.00
03731             -10.00     3600.00
03732             -14.00     3600.00
03733             -16.00     3400.00
03734             -12.00     3600.00
03735             -14.00     3400.00
03736              -8.00     3400.00
03737              -8.00     3400.00
03738             -14.00     3200.00
03739             -18.00     3200.00
03740             -12.00     3400.00
03741             -10.00     3200.00
03742              -8.00     3200.00
03743              -6.00     3200.00
03744             -10.00     3000.00
03745             -16.00     3000.00
03746             -14.00     3000.00
03747              -8.00     2800.00
03748              -4.00     2800.00
03749             -10.00     2800.00
03750             -10.00     2800.00
03751             -10.00     2800.00
03752             -10.00     2600.00
03753             -10.00     2600.00
03754              -6.00     2600.00
03755              -4.00     2400.00
03756              -6.00     2400.00
03757              -8.00     2400.00
03758              -8.00     2200.00
03759             -16.00     2200.00
03760             -10.00     2000.00
03761              -8.00     2200.00
03762              -4.00     2000.00
03763              -6.00     1800.00
03764              -8.00     1800.00
03765              -8.00     1800.00
03766             -10.00     1800.00
03767             -10.00     1800.00
03768              -2.00     1800.00
03769               0.00     1600.00
03770              -8.00     1600.00
03771              -8.00     1600.00
03772              -2.00     1400.00
03773              -6.00     1600.00
03774              -8.00     1200.00
03775              -6.00     1200.00
03776              -4.00     1000.00
03777              -2.00     1200.00
03778              -6.00     1000.00
03779              -6.00      800.00
03780              -6.00     1000.00
03781             -10.00      800.00
03782              -6.00      800.00
03783              -2.00      800.00
03784               2.00      600.00
03785              -8.00      800.00
03786             -10.00      400.00
03787               0.00      400.00
03788               0.00      400.00
03789              -8.00      200.00
03790              -8.00      400.00
03791               2.00      200.00
03792               6.00        0.00
03793              -4.00        0.00
03794               0.00        0.00
03795               6.00     -200.00
03796               2.00        0.00
03797              -2.00        0.00
03798               0.00     -200.00
03799               2.00     -200.00
03800               2.00     -400.00
03801              64.00     -400.00
03802             166.00     -600.00
03803             -38.00     -800.00
03804            -254.00     -800.00
03805            -218.00     -400.00
03806             246.00     -600.00
03807             246.00     -800.00
03808            -254.00    -1200.00
03809            -254.00     -800.00
03810             246.00    -1200.00
03811             246.00    -1000.00
03812            -254.00    -1200.00
03813            -254.00    -1200.00
03814             246.00    -1200.00
03815             230.00    -1000.00
03816              32.00    -1400.00
03817            -106.00    -1600.00
03818            -254.00    -1400.00
03819              38.00    -1400.00
03820             246.00    -1800.00
03821             -28.00    -1800.00
03822            -254.00    -1800.00
03823             -14.00    -2000.00
03824             190.00    -1600.00
03825              70.00    -2000.00
03826             -48.00    -2400.00
03827            -142.00    -2000.00
03828              14.00    -2000.00
03829             194.00    -2400.00
03830             -42.00    -2200.00
03831            -154.00    -2200.00
03832              46.00    -2400.00
03833             112.00    -2400.00
03834             -10.00    -2400.00
03835             -22.00    -2600.00
03836             -32.00    -2800.00
03837               8.00    -2400.00
03838              56.00    -2600.00
03839              -2.00    -2800.00
03840             -40.00    -2800.00
03841              14.00    -3000.00
03842              40.00    -2800.00
03843               0.00    -3000.00
03844             -14.00    -3000.00
03845             -10.00    -3000.00
03846              22.00    -3000.00
03847              24.00    -3200.00
03848              -6.00    -3000.00
03849             -16.00    -3200.00
03850              26.00    -3400.00
03851              22.00    -3200.00
03852             -24.00    -3200.00
03853              -2.00    -3200.00
03854              30.00    -3400.00
03855              22.00    -3200.00
03856               0.00    -3600.00
03857             -10.00    -3600.00
03858             -12.00    -3600.00
03859              16.00    -3600.00
03860              28.00    -3600.00
03861              12.00    -3600.00
03862              -8.00    -3600.00
03863              -6.00    -3800.00
03864              10.00    -3800.00
03865              18.00    -3600.00
03866               4.00    -3600.00
03867               0.00    -3800.00
03868              10.00    -3800.00
03869               8.00    -4000.00
03870               6.00    -3800.00
03871              10.00    -4000.00
03872              10.00    -3800.00
03873               6.00    -3800.00
03874               8.00    -3800.00
03875               8.00    -4000.00
03876              14.00    -3800.00
03877               8.00    -4000.00
03878               8.00    -4000.00
03879               8.00    -4000.00
03880               2.00    -3800.00
03881               4.00    -3800.00
03882              12.00    -3800.00
03883              10.00    -4000.00
03884               8.00    -4000.00
03885              10.00    -4000.00
03886              10.00    -4000.00
03887               6.00    -4000.00
03888               4.00    -4000.00
03889               8.00    -4000.00
03890              16.00    -4000.00
03891               8.00    -4000.00
03892               0.00    -4000.00
03893               8.00    -4000.00
03894              14.00    -3800.00
03895               8.00    -4000.00
03896              10.00    -3800.00
03897               2.00    -4000.00
03898               4.00    -4000.00
03899              14.00    -4000.00
03900               8.00    -3800.00
03901               8.00    -3800.00
03902               6.00    -3800.00
03903               8.00    -3800.00
03904               8.00    -3800.00
03905               6.00    -3600.00
03906               6.00    -3800.00
03907              12.00    -3600.00
03908              14.00    -3800.00
03909               4.00    -3800.00
03910               4.00    -3800.00
03911               2.00    -3600.00
03912               6.00    -3600.00
03913              10.00    -3600.00
03914              10.00    -3600.00
03915               8.00    -3600.00
03916               6.00    -3600.00
03917              -2.00    -3600.00
03918               6.00    -3600.00
03919               8.00    -3200.00
03920              10.00    -3200.00
03921               8.00    -3200.00
03922               0.00    -3400.00
03923               2.00    -3200.00
03924               4.00    -3200.00
03925               6.00    -3200.00
03926               8.00    -3200.00
03927              10.00    -3200.00
03928               6.00    -3000.00
03929               0.00    -3000.00
03930              -2.00    -3000.00
03931               2.00    -2800.00
03932              14.00    -3000.00
03933               6.00    -2800.00
03934              -2.00    -2800.00
03935               0.00    -2800.00
03936               8.00    -2800.00
03937               8.00    -2800.00
03938               2.00    -2600.00
03939              -2.00    -2600.00
03940               6.00    -2600.00
03941               8.00    -2400.00
03942               6.00    -2400.00
03943               0.00    -2400.00
03944              -2.00    -2200.00
03945               0.00    -2200.00
03946              10.00    -2200.00
03947               8.00    -2000.00
03948               2.00    -2000.00
03949               0.00    -2000.00
03950               0.00    -2000.00
03951               6.00    -2000.00
03952               4.00    -2000.00
03953               0.00    -1600.00
03954              -2.00    -1800.00
03955               6.00    -1600.00
03956               8.00    -1600.00
03957               6.00    -1400.00
03958              -2.00    -1400.00
03959              -4.00    -1400.00
03960               0.00    -1400.00
03961               4.00    -1200.00
03962               6.00    -1000.00
03963               2.00    -1200.00
03964               0.00    -1000.00
03965               0.00     -800.00
03966              -2.00     -800.00
03967               0.00     -800.00
03968               6.00     -800.00
03969               2.00     -800.00
03970               0.00     -600.00
03971              -2.00     -600.00
03972              -2.00     -600.00
03973               2.00     -400.00
03974               2.00     -400.00
03975               0.00     -400.00
03976              -2.00     -400.00
03977              -2.00     -400.00
03978              -2.00        0.00
03979               2.00        0.00
03980               2.00        0.00
03981              -6.00        0.00
03982              -6.00        0.00
03983              -2.00      200.00
03984               2.00      200.00
03985               2.00      200.00
03986               6.00      200.00
03987               2.00      400.00
03988              -2.00      400.00
03989              -8.00      600.00
03990              -2.00      800.00
03991               2.00      600.00
03992              58.00      800.00
03993             194.00      800.00
03994             -22.00      800.00
03995            -254.00      800.00
03996            -238.00     1000.00
03997             246.00     1200.00
03998             246.00     1200.00
03999            -254.00      800.00
04000            -254.00     1200.00
04001             246.00     1600.00
04002             246.00     1400.00
04003            -254.00     1200.00
04004            -254.00     1600.00
04005             246.00     1800.00
04006              72.00     1400.00
04007            -192.00     1800.00
04008              70.00     2000.00
04009            -120.00     1800.00
04010             -50.00     1800.00
04011             246.00     2000.00
04012             -42.00     2000.00
04013            -230.00     2000.00
04014              86.00     2400.00
04015              46.00     2200.00
04016             -32.00     2400.00
04017              96.00     2400.00
04018            -152.00     2200.00
04019             -80.00     2400.00
04020             238.00     2600.00
04021             -90.00     2600.00
04022            -184.00     2600.00
04023             174.00     2800.00
04024              14.00     2600.00
04025            -116.00     2800.00
04026              58.00     3000.00
04027             -46.00     2800.00
04028             -26.00     3000.00
04029              84.00     3200.00
04030             -74.00     3000.00
04031             -26.00     3200.00
04032              34.00     3200.00
04033             -56.00     3200.00
04034              22.00     3400.00
04035              18.00     3400.00
04036             -76.00     3200.00
04037              30.00     3400.00
04038              18.00     3400.00
04039             -64.00     3400.00
04040               0.00     3600.00
04041              10.00     3600.00
04042             -16.00     3600.00
04043             -16.00     3600.00
04044             -34.00     3600.00
04045               0.00     3600.00
04046               8.00     3800.00
04047             -30.00     3600.00
04048             -10.00     3600.00
04049              -6.00     3800.00
04050             -32.00     3800.00
04051              -6.00     4000.00
04052               6.00     4000.00
04053             -22.00     4000.00
04054             -22.00     4000.00
04055              -2.00     4000.00
04056             -16.00     4000.00
04057             -22.00     4000.00
04058             -10.00     4000.00
04059              -8.00     4000.00
04060              -4.00     4000.00
04061             -22.00     4000.00
04062             -24.00     4000.00
04063              -2.00     4200.00
04064             -16.00     4200.00
04065             -22.00     4000.00
04066               0.00     4200.00
04067             -10.00     4400.00
04068             -22.00     4000.00
04069             -10.00     4200.00
04070             -14.00     4200.00
04071             -14.00     4200.00
04072             -10.00     4200.00
04073             -10.00     4200.00
04074             -10.00     4400.00
04075             -20.00     4200.00
04076             -22.00     4200.00
04077              -8.00     4400.00
04078             -10.00     4400.00
04079             -14.00     4400.00
04080             -10.00     4200.00
04081             -10.00     4400.00
04082             -20.00     4200.00
04083             -14.00     4200.00
04084              -8.00     4200.00
04085             -10.00     4200.00
04086             -12.00     4200.00
04087             -14.00     4200.00
04088             -14.00     4400.00
04089             -10.00     4200.00
04090             -16.00     4200.00
04091             -10.00     4200.00
04092             -10.00     4200.00
04093             -10.00     4200.00
04094              -8.00     4000.00
04095             -14.00     4000.00
04096             -26.00     4000.00
04097             -14.00     4000.00
04098               0.00     4000.00
04099              -6.00     4200.00
04100             -18.00     4000.00
04101             -22.00     4000.00
04102             -16.00     4000.00
04103              -8.00     4000.00
04104             -10.00     4000.00
04105             -10.00     3800.00
04106             -14.00     3800.00
04107             -16.00     3800.00
04108             -16.00     3800.00
04109              -8.00     3800.00
04110             -14.00     3600.00
04111             -16.00     3600.00
04112             -14.00     3600.00
04113             -12.00     3600.00
04114              -8.00     3600.00
04115              -8.00     3600.00
04116             -12.00     3400.00
04117             -22.00     3400.00
04118             -22.00     3400.00
04119             -14.00     3400.00
04120              -2.00     3400.00
04121               0.00     3400.00
04122              -8.00     3200.00
04123             -18.00     3400.00
04124             -26.00     3200.00
04125             -18.00     3200.00
04126               0.00     3200.00
04127               2.00     3000.00
04128              -8.00     2800.00
04129             -18.00     3000.00
04130             -20.00     2800.00
04131             -10.00     2800.00
04132              -8.00     2600.00
04133              -2.00     2800.00
04134              -8.00     2600.00
04135             -14.00     2600.00
04136             -16.00     2600.00
04137             -10.00     2400.00
04138              -8.00     2400.00
04139              -4.00     2400.00
04140              -6.00     2400.00
04141              -8.00     2200.00
04142             -14.00     2000.00
04143             -14.00     2000.00
04144              -8.00     2000.00
04145              -2.00     2000.00
04146              -8.00     2000.00
04147              -8.00     2000.00
04148              -8.00     2000.00
04149              -4.00     1800.00
04150              -6.00     1600.00
04151              -2.00     1800.00
04152              -6.00     1600.00
04153             -10.00     1600.00
04154              -6.00     1400.00
04155              -2.00     1400.00
04156              -4.00     1600.00
04157              -8.00     1200.00
04158              -8.00     1200.00
04159              -2.00     1200.00
04160              -4.00     1000.00
04161              -6.00     1200.00
04162              -8.00     1000.00
04163              -2.00     1000.00
04164              -6.00      800.00
04165              -2.00      800.00
04166              -2.00      800.00
04167              -6.00      800.00
04168              -8.00      600.00
04169              -2.00      400.00
04170               0.00      400.00
04171               0.00      400.00
04172              -8.00      200.00
04173              -8.00      400.00
04174              -2.00      400.00
04175               2.00      200.00
04176               0.00      200.00
04177               0.00        0.00
04178               6.00        0.00
04179               2.00        0.00
04180              -6.00     -200.00
04181              -8.00     -400.00
04182              -2.00     -400.00
04183              14.00     -400.00
04184              70.00     -400.00
04185             166.00     -600.00
04186             -24.00     -800.00
04187            -254.00     -800.00
04188            -254.00     -600.00
04189             246.00     -800.00
04190             246.00     -800.00
04191            -254.00    -1000.00
04192            -254.00     -800.00
04193             246.00    -1200.00
04194             246.00    -1000.00
04195            -254.00    -1200.00
04196            -254.00    -1200.00
04197             224.00    -1200.00
04198             228.00    -1200.00
04199              26.00    -1400.00
04200             -88.00    -1600.00
04201            -240.00    -1400.00
04202              10.00    -1400.00
04203             246.00    -1800.00
04204               0.00    -1600.00
04205            -254.00    -1600.00
04206             -32.00    -2000.00
04207             198.00    -2000.00
04208              66.00    -2000.00
04209             -42.00    -2200.00
04210            -138.00    -2000.00
04211              -6.00    -2000.00
04212             198.00    -2200.00
04213             -16.00    -2400.00
04214            -154.00    -2400.00
04215              32.00    -2400.00
04216             112.00    -2400.00
04217             -14.00    -2600.00
04218             -22.00    -2600.00
04219             -26.00    -2600.00
04220              14.00    -2800.00
04221              62.00    -2600.00
04222               0.00    -2800.00
04223             -48.00    -2800.00
04224               8.00    -3000.00
04225              42.00    -2800.00
04226              10.00    -3000.00
04227             -10.00    -3000.00
04228             -16.00    -3000.00
04229              18.00    -3200.00
04230              30.00    -3200.00
04231               0.00    -3000.00
04232             -22.00    -3000.00
04233              22.00    -3200.00
04234              26.00    -3200.00
04235             -10.00    -3200.00
04236              -2.00    -3400.00
04237              22.00    -3600.00
04238              14.00    -3600.00
04239               4.00    -3400.00
04240               0.00    -3400.00
04241              -6.00    -3600.00
04242               8.00    -3600.00
04243              16.00    -3600.00
04244              10.00    -3600.00
04245               2.00    -3600.00
04246               0.00    -3600.00
04247               6.00    -3600.00
04248              10.00    -3600.00
04249               6.00    -3800.00
04250               2.00    -3800.00
04251              16.00    -4000.00
04252               8.00    -3800.00
04253              -4.00    -4000.00
04254               2.00    -3800.00
04255               8.00    -4000.00
04256               6.00    -4000.00
04257              14.00    -3800.00
04258              14.00    -3800.00
04259               6.00    -3800.00
04260               0.00    -4000.00
04261              -2.00    -3800.00
04262              10.00    -3800.00
04263              14.00    -3800.00
04264               6.00    -4000.00
04265               8.00    -4000.00
04266              10.00    -4000.00
04267               0.00    -3800.00
04268               2.00    -3800.00
04269               8.00    -4000.00
04270               8.00    -4000.00
04271              14.00    -4000.00
04272              16.00    -4000.00
04273               6.00    -4000.00
04274              -4.00    -4000.00
04275              -2.00    -3800.00
04276              10.00    -4000.00
04277              22.00    -3800.00
04278              14.00    -3800.00
04279               6.00    -3800.00
04280              -2.00    -3800.00
04281               0.00    -3800.00
04282              14.00    -3800.00
04283              10.00    -3800.00
04284               8.00    -3800.00
04285               8.00    -4000.00
04286               8.00    -3800.00
04287              10.00    -3800.00
04288               2.00    -3800.00
04289               2.00    -3800.00
04290               8.00    -3800.00
04291              16.00    -3600.00
04292               8.00    -3600.00
04293               2.00    -3600.00
04294               0.00    -3600.00
04295               8.00    -3600.00
04296              10.00    -3600.00
04297               8.00    -3600.00
04298               2.00    -3600.00
04299               2.00    -3600.00
04300              10.00    -3600.00
04301              14.00    -3600.00
04302               2.00    -3400.00
04303               0.00    -3400.00
04304               2.00    -3400.00
04305              10.00    -3200.00
04306              10.00    -3200.00
04307               6.00    -3200.00
04308               0.00    -3200.00
04309               0.00    -3200.00
04310               6.00    -3200.00
04311              10.00    -3000.00
04312               8.00    -3000.00
04313               2.00    -3000.00
04314               2.00    -2800.00
04315               4.00    -2800.00
04316               4.00    -2800.00
04317               4.00    -2800.00
04318               6.00    -2800.00
04319               2.00    -2800.00
04320               4.00    -2800.00
04321               2.00    -2600.00
04322               2.00    -2800.00
04323               4.00    -2600.00
04324               8.00    -2400.00
04325               6.00    -2400.00
04326               4.00    -2400.00
04327               0.00    -2200.00
04328               0.00    -2200.00
04329               4.00    -2200.00
04330               6.00    -2000.00
04331               6.00    -2000.00
04332               6.00    -2000.00
04333               0.00    -2200.00
04334               0.00    -2000.00
04335               0.00    -1800.00
04336               4.00    -1600.00
04337               6.00    -1600.00
04338               4.00    -1600.00
04339               2.00    -1600.00
04340               2.00    -1600.00
04341               4.00    -1400.00
04342               2.00    -1400.00
04343               6.00    -1400.00
04344               2.00    -1000.00
04345               0.00    -1200.00
04346               0.00    -1000.00
04347               2.00    -1000.00
04348               2.00     -800.00
04349               0.00     -800.00
04350               0.00     -800.00
04351               2.00     -800.00
04352               0.00     -800.00
04353               2.00     -800.00
04354               0.00     -600.00
04355               0.00     -600.00
04356               0.00     -400.00
04357              -2.00     -400.00
04358               2.00     -400.00
04359               0.00     -200.00
04360               0.00     -400.00
04361              -2.00     -200.00
04362               0.00        0.00
04363               0.00      200.00
04364              -6.00        0.00
04365              -4.00      200.00
04366               2.00      200.00
04367               8.00      200.00
04368               0.00      400.00
04369               2.00      400.00
04370              -2.00      400.00
04371              -6.00      400.00
04372              -8.00      400.00
04373               0.00      600.00
04374               8.00      600.00
04375              54.00      800.00
04376             182.00      800.00
04377               0.00      800.00
04378            -254.00      800.00
04379            -254.00      800.00
04380             246.00     1200.00
04381             246.00     1200.00
04382            -254.00     1000.00
04383            -254.00     1200.00
04384             246.00     1600.00
04385             246.00     1400.00
04386            -254.00     1200.00
04387            -254.00     1600.00
04388             246.00     1800.00
04389             114.00     1400.00
04390            -208.00     1600.00
04391              50.00     1800.00
04392            -104.00     1800.00
04393             -70.00     1800.00
04394             246.00     2000.00
04395              -8.00     2000.00
04396            -246.00     1800.00
04397              70.00     2400.00
04398              56.00     2200.00
04399             -42.00     2200.00
04400              96.00     2400.00
04401            -138.00     2200.00
04402             -98.00     2400.00
04403             244.00     2600.00
04404             -60.00     2400.00
04405            -218.00     2600.00
04406             146.00     2800.00
04407              40.00     2600.00
04408            -110.00     2800.00
04409              62.00     3000.00
04410             -44.00     2800.00
04411             -48.00     2800.00
04412              86.00     2800.00
04413             -62.00     2800.00
04414             -34.00     3200.00
04415              38.00     3200.00
04416             -54.00     3200.00
04417              22.00     3400.00
04418              30.00     3400.00
04419             -90.00     3200.00
04420               8.00     3400.00
04421              32.00     3400.00
04422             -46.00     3200.00
04423               6.00     3400.00
04424               2.00     3600.00
04425             -30.00     3600.00
04426             -16.00     3600.00
04427             -18.00     3600.00
04428               8.00     3600.00
04429              10.00     3600.00
04430             -34.00     3800.00
04431             -18.00     3600.00
04432              -2.00     3800.00
04433             -26.00     4000.00
04434              -6.00     3800.00
04435               6.00     3800.00
04436             -26.00     4000.00
04437             -26.00     3800.00
04438              -4.00     4000.00
04439             -14.00     4000.00
04440             -20.00     4000.00
04441             -12.00     4200.00
04442              -8.00     4000.00
04443              -6.00     4200.00
04444             -22.00     4200.00
04445             -22.00     4000.00
04446              -4.00     4200.00
04447             -14.00     4200.00
04448             -18.00     4200.00
04449               0.00     4400.00
04450             -14.00     4200.00
04451             -24.00     4200.00
04452             -10.00     4200.00
04453             -14.00     4200.00
04454             -14.00     4200.00
04455             -10.00     4400.00
04456             -12.00     4400.00
04457             -10.00     4200.00
04458             -16.00     4200.00
04459             -22.00     4200.00
04460              -8.00     4200.00
04461              -6.00     4400.00
04462             -14.00     4400.00
04463             -10.00     4200.00
04464             -14.00     4200.00
04465             -22.00     4200.00
04466             -16.00     4200.00
04467             -10.00     4200.00
04468             -10.00     4200.00
04469             -10.00     4200.00
04470             -14.00     4200.00
04471             -14.00     4200.00
04472             -16.00     4200.00
04473             -16.00     4200.00
04474             -10.00     4200.00
04475             -10.00     4200.00
04476             -14.00     4200.00
04477             -12.00     4200.00
04478             -14.00     4000.00
04479             -18.00     4000.00
04480             -16.00     4200.00
04481              -8.00     4200.00
04482             -10.00     4000.00
04483             -10.00     4200.00
04484             -14.00     4000.00
04485             -14.00     4000.00
04486             -14.00     4000.00
04487             -10.00     4000.00
04488              -8.00     4000.00
04489              -8.00     3800.00
04490             -16.00     4000.00
04491             -14.00     3800.00
04492             -10.00     3800.00
04493             -10.00     3800.00
04494             -12.00     3600.00
04495             -10.00     3600.00
04496              -8.00     3600.00
04497             -14.00     3600.00
04498             -14.00     3600.00
04499             -14.00     3400.00
04500             -14.00     3400.00
04501             -10.00     3400.00
04502              -8.00     3400.00
04503             -10.00     3400.00
04504             -12.00     3400.00
04505             -16.00     3200.00
04506             -14.00     3200.00
04507             -10.00     3200.00
04508             -10.00     3200.00
04509             -10.00     3200.00
04510             -10.00     3000.00
04511             -10.00     2800.00
04512             -10.00     2800.00
04513             -10.00     2800.00
04514             -10.00     2800.00
04515             -14.00     2800.00
04516             -10.00     2800.00
04517             -10.00     2600.00
04518              -8.00     2600.00
04519             -10.00     2600.00
04520              -6.00     2600.00
04521             -10.00     2400.00
04522             -10.00     2400.00
04523             -10.00     2400.00
04524              -6.00     2400.00
04525             -10.00     2200.00
04526             -10.00     2200.00
04527             -10.00     2000.00
04528              -6.00     2000.00
04529              -6.00     2000.00
04530              -8.00     2000.00
04531              -8.00     1800.00
04532              -8.00     1800.00
04533             -10.00     2000.00
04534              -6.00     1600.00
04535              -2.00     1600.00
04536              -6.00     1600.00
04537              -6.00     1600.00
04538             -10.00     1600.00
04539              -8.00     1200.00
04540              -8.00     1400.00
04541              -4.00     1400.00
04542              -2.00     1200.00
04543              -6.00     1200.00
04544              -6.00     1000.00
04545              -4.00     1000.00
04546              -4.00     1000.00
04547              -8.00      800.00
04548              -6.00      800.00
04549               0.00      800.00
04550               0.00      600.00
04551              -4.00      800.00
04552              -8.00      400.00
04553              -2.00      400.00
04554               0.00      400.00
04555              -6.00      400.00
04556              -6.00      200.00
04557               0.00      200.00
04558               6.00      200.00
04559               2.00        0.00
04560              -2.00        0.00
04561               6.00        0.00
04562               0.00        0.00
04563              -6.00        0.00
04564              -8.00     -200.00
04565              -2.00     -400.00
04566              16.00     -400.00
04567              64.00     -400.00
04568             164.00     -400.00
04569               0.00     -800.00
04570            -254.00     -800.00
04571            -254.00     -600.00
04572             246.00     -600.00
04573             246.00     -800.00
04574            -254.00    -1200.00
04575            -254.00     -800.00
04576             246.00    -1200.00
04577             246.00    -1000.00
04578            -254.00    -1000.00
04579            -254.00    -1200.00
04580             192.00    -1400.00
04581             246.00    -1200.00
04582              34.00    -1400.00
04583             -82.00    -1600.00
04584            -240.00    -1400.00
04585             -22.00    -1600.00
04586             246.00    -1800.00
04587              46.00    -1800.00
04588            -254.00    -1600.00
04589             -62.00    -2000.00
04590             192.00    -2000.00
04591              78.00    -2000.00
04592             -34.00    -2200.00
04593            -136.00    -2000.00
04594             -22.00    -2000.00
04595             190.00    -2400.00
04596               4.00    -2400.00
04597            -162.00    -2200.00
04598              20.00    -2400.00
04599             118.00    -2400.00
04600             -10.00    -2400.00
04601             -24.00    -2600.00
04602             -26.00    -2800.00
04603               8.00    -2600.00
04604              56.00    -2800.00
04605              10.00    -2800.00
04606             -50.00    -2800.00
04607               6.00    -3000.00
04608              42.00    -2800.00
04609              10.00    -3000.00
04610             -10.00    -3000.00
04611             -16.00    -3000.00
04612              16.00    -3000.00
04613              30.00    -3200.00
04614               0.00    -3000.00
04615             -22.00    -3200.00
04616              18.00    -3200.00
04617              28.00    -3200.00
04618             -14.00    -3200.00
04619              -4.00    -3400.00
04620              22.00    -3400.00
04621              16.00    -3400.00
04622               6.00    -3400.00
04623               0.00    -3600.00
04624              -6.00    -3600.00
04625               8.00    -3400.00
04626              18.00    -3400.00
04627              16.00    -3800.00
04628               6.00    -3400.00
04629              -4.00    -3600.00
04630               6.00    -3800.00
04631              14.00    -3600.00
04632               0.00    -3800.00
04633               6.00    -3800.00
04634              16.00    -3800.00
04635              10.00    -3800.00
04636               0.00    -3800.00
04637               0.00    -3800.00
04638               8.00    -4000.00
04639               8.00    -3800.00
04640               8.00    -3800.00
04641               8.00    -4000.00
04642              14.00    -4000.00
04643               2.00    -3800.00
04644              -2.00    -4000.00
04645               8.00    -3800.00
04646               6.00    -4000.00
04647               8.00    -4000.00
04648              10.00    -4000.00
04649               8.00    -4000.00
04650               0.00    -3800.00
04651               6.00    -4000.00
04652              10.00    -4000.00
04653              10.00    -4000.00
04654               6.00    -4000.00
04655               6.00    -4000.00
04656              10.00    -4000.00
04657               8.00    -4000.00
04658               6.00    -3800.00
04659               6.00    -4000.00
04660               8.00    -3800.00
04661              10.00    -3800.00
04662              10.00    -4000.00
04663               8.00    -3800.00
04664               4.00    -4000.00
04665               2.00    -3800.00
04666               8.00    -3800.00
04667              10.00    -3600.00
04668              10.00    -3800.00
04669               8.00    -3800.00
04670               6.00    -3800.00
04671               8.00    -3800.00
04672               8.00    -3800.00
04673               8.00    -3800.00
04674              14.00    -3800.00
04675               8.00    -3600.00
04676               6.00    -3600.00
04677               6.00    -3600.00
04678               6.00    -3600.00
04679               6.00    -3600.00
04680              10.00    -3600.00
04681              10.00    -3600.00
04682              10.00    -3600.00
04683               4.00    -3400.00
04684               6.00    -3600.00
04685               2.00    -3400.00
04686              10.00    -3400.00
04687               8.00    -3400.00
04688               8.00    -3200.00
04689               6.00    -3200.00
04690               2.00    -3200.00
04691               2.00    -3200.00
04692               6.00    -3200.00
04693               8.00    -3000.00
04694               8.00    -3200.00
04695               6.00    -3000.00
04696               2.00    -3000.00
04697               2.00    -3000.00
04698               6.00    -3000.00
04699               6.00    -2800.00
04700               6.00    -2800.00
04701               6.00    -2800.00
04702               2.00    -2800.00
04703               2.00    -2800.00
04704               2.00    -2600.00
04705               0.00    -2600.00
04706               6.00    -2600.00
04707               8.00    -2400.00
04708               8.00    -2400.00
04709               4.00    -2400.00
04710              -2.00    -2400.00
04711              -2.00    -2400.00
04712               0.00    -2200.00
04713               6.00    -2200.00
04714               6.00    -2000.00
04715               2.00    -2200.00
04716               0.00    -2200.00
04717               0.00    -2000.00
04718               4.00    -2000.00
04719               6.00    -2000.00
04720               6.00    -1600.00
04721               2.00    -1600.00
04722              -2.00    -1600.00
04723              -2.00    -1600.00
04724               0.00    -1400.00
04725               2.00    -1400.00
04726               2.00    -1400.00
04727               6.00    -1200.00
04728               0.00    -1000.00
04729              -2.00    -1200.00
04730              -2.00    -1000.00
04731              -2.00    -1000.00
04732               0.00     -800.00
04733               4.00     -800.00
04734               6.00     -800.00
04735               0.00     -800.00
04736              -2.00     -600.00
04737               0.00     -600.00
04738               2.00     -400.00
04739               6.00     -400.00
04740               0.00     -400.00
04741              -2.00     -400.00
04742              -2.00     -400.00
04743              -4.00        0.00
04744              -2.00        0.00
04745               0.00        0.00
04746               0.00        0.00
04747              -2.00        0.00
04748              -2.00      200.00
04749               0.00      200.00
04750               2.00      400.00
04751               0.00      200.00
04752               6.00      400.00
04753              10.00      400.00
04754               0.00      400.00
04755              -8.00      400.00
04756              -8.00      600.00
04757               0.00      800.00
04758              46.00      800.00
04759             186.00     1000.00
04760              34.00     1000.00
04761            -254.00      800.00
04762            -254.00      800.00
04763             246.00     1200.00
04764             246.00     1400.00
04765            -254.00     1000.00
04766            -254.00     1200.00
04767             246.00     1600.00
04768             246.00     1400.00
04769            -254.00     1200.00
04770            -254.00     1600.00
04771             246.00     1800.00
04772             158.00     1400.00
04773            -208.00     1600.00
04774              38.00     1800.00
04775             -86.00     1800.00
04776             -90.00     1800.00
04777             238.00     2000.00
04778              26.00     2200.00
04779            -254.00     2000.00
04780              54.00     2200.00
04781              70.00     2200.00
04782             -52.00     2200.00
04783              88.00     2400.00
04784            -114.00     2400.00
04785            -122.00     2600.00
04786             240.00     2400.00
04787             -26.00     2600.00
04788            -234.00     2600.00
04789             130.00     2800.00
04790              64.00     2600.00
04791            -114.00     2600.00
04792              54.00     3200.00
04793             -36.00     3000.00
04794             -58.00     3000.00
04795              88.00     3200.00
04796             -48.00     3200.00
04797             -46.00     3000.00
04798              38.00     3200.00
04799             -52.00     3200.00
04800              14.00     3200.00
04801              38.00     3400.00
04802             -86.00     3200.00
04803               0.00     3400.00
04804              32.00     3400.00
04805             -44.00     3400.00
04806              -2.00     3600.00
04807               6.00     3600.00
04808             -26.00     3600.00
04809             -10.00     3800.00
04810             -18.00     3600.00
04811               0.00     3600.00
04812              10.00     3800.00
04813             -34.00     3600.00
04814             -16.00     3800.00
04815               2.00     4000.00
04816             -26.00     4000.00
04817             -10.00     3800.00
04818               8.00     4000.00
04819             -20.00     4000.00
04820             -24.00     4000.00
04821              -2.00     4000.00
04822             -12.00     4000.00
04823             -22.00     4000.00
04824             -14.00     4000.00
04825             -10.00     4000.00
04826              -6.00     4000.00
04827             -16.00     4000.00
04828             -24.00     4200.00
04829              -2.00     4000.00
04830             -14.00     4200.00
04831             -20.00     4000.00
04832              -2.00     4200.00
04833             -14.00     4200.00
04834             -24.00     4200.00
04835             -14.00     4200.00
04836             -16.00     4400.00
04837             -16.00     4200.00
04838             -10.00     4200.00
04839             -10.00     4200.00
04840             -10.00     4200.00
04841             -16.00     4200.00
04842             -24.00     4200.00
04843             -10.00     4400.00
04844             -10.00     4400.00
04845             -16.00     4200.00
04846             -10.00     4400.00
04847             -10.00     4400.00
04848             -18.00     4400.00
04849             -18.00     4200.00
04850             -14.00     4200.00
04851             -10.00     4200.00
04852             -10.00     4200.00
04853             -14.00     4200.00
04854             -16.00     4200.00
04855             -16.00     4200.00
04856             -16.00     4200.00
04857             -10.00     4000.00
04858             -10.00     4200.00
04859             -16.00     4000.00
04860             -14.00     4200.00
04861             -10.00     4000.00
04862             -14.00     4200.00
04863             -14.00     4200.00
04864              -8.00     4000.00
04865             -10.00     4000.00
04866             -10.00     4200.00
04867             -12.00     4000.00
04868             -14.00     4000.00
04869             -14.00     4000.00
04870             -14.00     4000.00
04871              -8.00     4000.00
04872              -8.00     3800.00
04873             -14.00     3800.00
04874             -16.00     4000.00
04875             -10.00     3800.00
04876             -10.00     3600.00
04877             -14.00     3800.00
04878             -10.00     3600.00
04879             -10.00     3600.00
04880             -10.00     3600.00
04881             -10.00     3600.00
04882             -10.00     3400.00
04883             -14.00     3400.00
04884             -14.00     3400.00
04885              -6.00     3400.00
04886              -2.00     3400.00
04887             -10.00     3400.00
04888             -16.00     3400.00
04889             -16.00     3200.00
04890             -12.00     3200.00
04891             -10.00     3200.00
04892              -6.00     3200.00
04893             -10.00     3200.00
04894             -16.00     3000.00
04895             -10.00     2800.00
04896             -10.00     2800.00
04897              -8.00     2800.00
04898             -10.00     2800.00
04899             -10.00     2800.00
04900             -10.00     2600.00
04901             -10.00     2800.00
04902             -10.00     2400.00
04903              -8.00     2600.00
04904             -10.00     2600.00
04905             -10.00     2400.00
04906             -10.00     2200.00
04907              -8.00     2400.00
04908             -10.00     2200.00
04909              -8.00     2000.00
04910             -10.00     2000.00
04911              -6.00     2000.00
04912              -8.00     2000.00
04913              -8.00     1800.00
04914              -6.00     1600.00
04915              -8.00     2000.00
04916             -16.00     1600.00
04917              -6.00     1800.00
04918              -2.00     1600.00
04919              -8.00     1600.00
04920              -2.00     1600.00
04921              -6.00     1600.00
04922             -10.00     1400.00
04923              -8.00     1200.00
04924              -4.00     1200.00
04925              -8.00     1200.00
04926              -2.00     1000.00
04927              -8.00      800.00
04928              -6.00      800.00
04929               0.00      800.00
04930              -6.00      800.00
04931              -8.00      800.00
04932               2.00      800.00
04933              -2.00      400.00
04934              -6.00      600.00
04935              -4.00      400.00
04936              -6.00      400.00
04937               2.00      400.00
04938               0.00      400.00
04939             -14.00      400.00
04940              -4.00      200.00
04941              12.00      200.00
04942               0.00        0.00
04943              -6.00        0.00
04944               2.00        0.00
04945               6.00        0.00
04946               2.00        0.00
04947              -2.00     -400.00
04948             -10.00     -400.00
04949               8.00     -400.00
04950              60.00     -400.00
04951             168.00     -600.00
04952              26.00     -800.00
04953            -254.00     -800.00
04954            -254.00     -600.00
04955             246.00     -600.00
04956             246.00     -800.00
04957            -254.00    -1200.00
04958            -254.00     -800.00
04959             246.00    -1200.00
04960             246.00    -1000.00
04961            -254.00    -1200.00
04962            -254.00    -1200.00
04963             146.00    -1400.00
04964             246.00    -1400.00
04965              38.00    -1400.00
04966             -70.00    -1600.00
04967            -232.00    -1600.00
04968             -50.00    -1600.00
04969             246.00    -1800.00
04970              86.00    -1800.00
04971            -254.00    -1600.00
04972             -92.00    -2000.00
04973             198.00    -1800.00
04974              94.00    -2000.00
04975             -22.00    -2200.00
04976            -150.00    -2200.00
04977             -48.00    -2000.00
04978             192.00    -2200.00
04979              38.00    -2400.00
04980            -168.00    -2200.00
04981              -2.00    -2400.00
04982             112.00    -2400.00
04983              -6.00    -2400.00
04984             -18.00    -2400.00
04985             -24.00    -2800.00
04986               2.00    -2600.00
04987              48.00    -2800.00
04988               8.00    -2800.00
04989             -50.00    -2800.00
04990               8.00    -2800.00
04991              44.00    -2800.00
04992              16.00    -3000.00
04993             -10.00    -3000.00
04994             -22.00    -3000.00
04995              14.00    -3000.00
04996              34.00    -3200.00
04997               6.00    -3200.00
04998             -24.00    -3200.00
04999              14.00    -3200.00
05000              28.00    -3200.00
