Unit:(mV)
                     CH1         CH2
Frequency              ? 261.454 kHz
00001             246.00     -600.00
00002             246.00     -800.00
00003            -254.00    -1000.00
00004            -254.00     -600.00
00005             158.00    -1000.00
00006             246.00     -800.00
00007             -54.00    -1200.00
00008            -254.00    -1000.00
00009              26.00    -1200.00
00010             246.00    -1400.00
00011             -38.00    -1000.00
00012            -230.00    -1600.00
00013              64.00    -1400.00
00014              54.00    -1400.00
00015              -8.00    -1400.00
00016              48.00    -1600.00
00017             -10.00    -1600.00
00018            -168.00    -1600.00
00019              88.00    -1800.00
00020             206.00    -2200.00
00021            -102.00    -1800.00
00022            -196.00    -1800.00
00023              90.00    -2000.00
00024             160.00    -2200.00
00025             -50.00    -2200.00
00026             -92.00    -2200.00
00027             -10.00    -2200.00
00028              58.00    -2200.00
00029              40.00    -2400.00
00030             -18.00    -2400.00
00031             -42.00    -2400.00
00032              30.00    -2600.00
00033              22.00    -2600.00
00034             -26.00    -2600.00
00035              -2.00    -2600.00
00036              24.00    -2800.00
00037               6.00    -2600.00
00038               6.00    -2800.00
00039               0.00    -2800.00
00040             -34.00    -2600.00
00041              18.00    -2800.00
00042              48.00    -3000.00
00043             -10.00    -3000.00
00044             -42.00    -3000.00
00045              14.00    -3000.00
00046              26.00    -3000.00
00047              -6.00    -3000.00
00048             -10.00    -3200.00
00049               2.00    -3200.00
00050              14.00    -3200.00
00051               8.00    -3200.00
00052              -4.00    -3400.00
00053              -8.00    -3400.00
00054               2.00    -3400.00
00055              10.00    -3200.00
00056               8.00    -3400.00
00057               0.00    -3400.00
00058              -4.00    -3400.00
00059               2.00    -3400.00
00060              10.00    -3400.00
00061               0.00    -3600.00
00062              -2.00    -3400.00
00063              10.00    -3400.00
00064              10.00    -3400.00
00065               0.00    -3800.00
00066              -8.00    -3600.00
00067               2.00    -3800.00
00068               8.00    -3800.00
00069               6.00    -3800.00
00070               6.00    -3600.00
00071               0.00    -3800.00
00072               0.00    -3800.00
00073               6.00    -3600.00
00074               2.00    -3800.00
00075               6.00    -3600.00
00076               6.00    -3800.00
00077               6.00    -3800.00
00078               6.00    -3800.00
00079               0.00    -3800.00
00080               0.00    -3800.00
00081               6.00    -3800.00
00082               8.00    -3600.00
00083               6.00    -3800.00
00084               2.00    -3600.00
00085               6.00    -3800.00
00086               0.00    -3800.00
00087               0.00    -3800.00
00088               8.00    -3800.00
00089              10.00    -3800.00
00090               4.00    -3600.00
00091               2.00    -3800.00
00092               2.00    -3800.00
00093               4.00    -3800.00
00094               6.00    -3800.00
00095               6.00    -3600.00
00096               6.00    -3600.00
00097               2.00    -3600.00
00098               6.00    -3600.00
00099               6.00    -3600.00
00100               0.00    -3600.00
00101               2.00    -3600.00
00102               6.00    -3400.00
00103               8.00    -3400.00
00104               2.00    -3400.00
00105               0.00    -3400.00
00106               6.00    -3400.00
00107               6.00    -3400.00
00108               2.00    -3400.00
00109               6.00    -3400.00
00110               6.00    -3200.00
00111               0.00    -3400.00
00112               0.00    -3200.00
00113               4.00    -3200.00
00114               2.00    -3200.00
00115               0.00    -3000.00
00116               2.00    -3200.00
00117               8.00    -3000.00
00118               2.00    -3200.00
00119              -2.00    -3000.00
00120              -4.00    -3000.00
00121               0.00    -3000.00
00122               6.00    -2800.00
00123               6.00    -2800.00
00124               2.00    -2800.00
00125               0.00    -2800.00
00126              -2.00    -2800.00
00127               0.00    -2600.00
00128               4.00    -2600.00
00129               2.00    -2600.00
00130               2.00    -2600.00
00131               0.00    -2600.00
00132              -2.00    -2600.00
00133               0.00    -2400.00
00134               2.00    -2400.00
00135               2.00    -2400.00
00136               0.00    -2400.00
00137              -2.00    -2200.00
00138               2.00    -2200.00
00139               0.00    -1800.00
00140              -2.00    -2200.00
00141               0.00    -2200.00
00142               0.00    -2000.00
00143               2.00    -1800.00
00144               0.00    -1800.00
00145               0.00    -1800.00
00146               0.00    -1600.00
00147               0.00    -1600.00
00148               0.00    -1600.00
00149               0.00    -1400.00
00150               2.00    -1600.00
00151               0.00    -1400.00
00152               0.00    -1400.00
00153              -2.00    -1400.00
00154              -2.00    -1400.00
00155               0.00    -1200.00
00156               2.00    -1000.00
00157              -2.00    -1000.00
00158              -2.00    -1000.00
00159               0.00     -800.00
00160               0.00    -1000.00
00161              -2.00     -800.00
00162              -2.00     -800.00
00163               0.00     -600.00
00164               0.00     -600.00
00165              -2.00     -600.00
00166              -6.00     -600.00
00167              -2.00     -600.00
00168               0.00     -400.00
00169               0.00     -200.00
00170              -2.00     -200.00
00171              -2.00     -200.00
00172              -2.00     -200.00
00173              -6.00        0.00
00174              -6.00     -200.00
00175              -2.00        0.00
00176              -2.00      200.00
00177              -2.00      200.00
00178              -2.00      200.00
00179              -2.00      200.00
00180               0.00      600.00
00181               6.00      400.00
00182               0.00      400.00
00183              -8.00      600.00
00184              -8.00      600.00
00185              -2.00      800.00
00186              14.00      800.00
00187             120.00     1200.00
00188             152.00     1200.00
00189            -240.00     1000.00
00190            -254.00      800.00
00191              96.00     1200.00
00192             246.00     1400.00
00193             246.00     1400.00
00194            -254.00      800.00
00195            -254.00     1400.00
00196             246.00     1600.00
00197             246.00     1800.00
00198            -254.00     1200.00
00199            -254.00     1600.00
00200             246.00     2000.00
00201             208.00     1600.00
00202            -254.00     1600.00
00203             -38.00     2000.00
00204             246.00     2200.00
00205            -112.00     1800.00
00206            -254.00     1800.00
00207             178.00     2200.00
00208             106.00     2200.00
00209            -234.00     2200.00
00210              48.00     2400.00
00211             200.00     2400.00
00212            -170.00     2200.00
00213            -162.00     2400.00
00214             186.00     2600.00
00215              74.00     2600.00
00216            -136.00     2400.00
00217             -42.00     2600.00
00218              40.00     2800.00
00219              16.00     2600.00
00220               6.00     2800.00
00221             -48.00     3000.00
00222              -8.00     2800.00
00223              50.00     3200.00
00224             -52.00     3000.00
00225             -58.00     3000.00
00226              74.00     3200.00
00227              -8.00     3000.00
00228             -76.00     3000.00
00229              46.00     3200.00
00230              10.00     3400.00
00231             -88.00     3200.00
00232              32.00     3400.00
00233              56.00     3400.00
00234             -66.00     3400.00
00235             -26.00     3400.00
00236              32.00     3600.00
00237             -16.00     3400.00
00238             -16.00     3600.00
00239               0.00     3800.00
00240             -16.00     3600.00
00241               0.00     3800.00
00242             -10.00     3800.00
00243             -24.00     3800.00
00244              10.00     3800.00
00245             -10.00     3800.00
00246             -38.00     3800.00
00247              12.00     4000.00
00248               6.00     3800.00
00249             -40.00     3800.00
00250              -2.00     4000.00
00251               2.00     3800.00
00252             -32.00     4000.00
00253              -8.00     4000.00
00254               8.00     4000.00
00255             -16.00     4000.00
00256             -18.00     4000.00
00257             -14.00     4000.00
00258             -14.00     4000.00
00259              -2.00     4000.00
00260              -8.00     4200.00
00261             -16.00     4200.00
00262              -6.00     4200.00
00263             -14.00     4000.00
00264             -22.00     4200.00
00265              -2.00     4200.00
00266              -8.00     4200.00
00267             -16.00     4000.00
00268              -2.00     4200.00
00269              -8.00     4200.00
00270             -24.00     4200.00
00271             -10.00     4200.00
00272              -4.00     4000.00
00273             -10.00     4200.00
00274              -8.00     4200.00
00275             -10.00     4200.00
00276             -12.00     4200.00
00277             -12.00     4200.00
00278             -10.00     4200.00
00279              -8.00     4200.00
00280              -2.00     4200.00
00281             -10.00     4200.00
00282             -16.00     4200.00
00283              -6.00     4200.00
00284             -10.00     4000.00
00285             -14.00     4000.00
00286              -4.00     4200.00
00287             -10.00     4000.00
00288             -10.00     4000.00
00289              -8.00     4000.00
00290             -10.00     3800.00
00291             -14.00     4000.00
00292             -10.00     4000.00
00293              -6.00     4000.00
00294              -6.00     4000.00
00295             -10.00     4000.00
00296             -14.00     4000.00
00297              -8.00     3800.00
00298              -8.00     3800.00
00299             -10.00     3800.00
00300              -8.00     3800.00
00301              -6.00     3800.00
00302             -12.00     3800.00
00303             -10.00     3800.00
00304              -8.00     3600.00
00305             -10.00     3800.00
00306             -10.00     3600.00
00307              -8.00     3600.00
00308              -8.00     3400.00
00309              -8.00     3400.00
00310             -14.00     3400.00
00311             -14.00     3600.00
00312             -10.00     3400.00
00313              -6.00     3400.00
00314              -6.00     3400.00
00315              -8.00     3200.00
00316             -14.00     3200.00
00317             -14.00     3200.00
00318              -8.00     3200.00
00319              -8.00     3000.00
00320             -10.00     3000.00
00321              -8.00     3000.00
00322              -8.00     3000.00
00323             -10.00     3000.00
00324             -14.00     2800.00
00325              -8.00     3000.00
00326             -10.00     3000.00
00327             -10.00     2600.00
00328              -8.00     2600.00
00329              -8.00     2600.00
00330             -10.00     2600.00
00331             -10.00     2600.00
00332              -8.00     2400.00
00333              -2.00     2400.00
00334              -6.00     2200.00
00335             -10.00     2400.00
00336             -10.00     2200.00
00337             -10.00     2200.00
00338             -10.00     2200.00
00339              -8.00     2200.00
00340              -6.00     2000.00
00341              -8.00     1800.00
00342              -8.00     2000.00
00343              -6.00     1800.00
00344              -6.00     1800.00
00345              -8.00     1600.00
00346              -4.00     1800.00
00347              -2.00     1600.00
00348              -6.00     1600.00
00349              -8.00     1600.00
00350              -8.00     1400.00
00351              -2.00     1600.00
00352              -6.00     1400.00
00353              -6.00     1400.00
00354              -2.00     1400.00
00355              -2.00     1200.00
00356              -6.00     1200.00
00357              -8.00     1000.00
00358              -2.00      800.00
00359               0.00      800.00
00360              -2.00      800.00
00361              -8.00      800.00
00362              -2.00      600.00
00363              -2.00      600.00
00364              -6.00      600.00
00365             -10.00      400.00
00366              -4.00      600.00
00367               0.00      200.00
00368               0.00      200.00
00369               0.00      200.00
00370              -2.00      200.00
00371              -2.00        0.00
00372               6.00        0.00
00373               2.00        0.00
00374              -4.00        0.00
00375              -8.00        0.00
00376              -2.00     -200.00
00377               2.00     -400.00
00378              34.00     -400.00
00379             134.00     -400.00
00380              90.00     -600.00
00381            -254.00     -800.00
00382            -254.00     -400.00
00383             180.00     -600.00
00384             246.00     -600.00
00385             174.00    -1000.00
00386            -254.00     -800.00
00387            -254.00    -1000.00
00388             246.00    -1000.00
00389             246.00    -1000.00
00390            -254.00    -1000.00
00391            -254.00    -1000.00
00392             246.00    -1400.00
00393             192.00    -1200.00
00394            -218.00    -1400.00
00395             -90.00    -1600.00
00396             110.00    -1400.00
00397              -2.00    -1400.00
00398              16.00    -1600.00
00399              54.00    -1600.00
00400            -138.00    -1600.00
00401             -60.00    -1600.00
00402             202.00    -2000.00
00403              72.00    -1800.00
00404            -226.00    -2000.00
00405             -48.00    -2200.00
00406             176.00    -2000.00
00407              56.00    -2200.00
00408            -112.00    -2400.00
00409             -48.00    -2200.00
00410              32.00    -2200.00
00411              62.00    -2200.00
00412               8.00    -2400.00
00413             -50.00    -2200.00
00414               0.00    -2600.00
00415              38.00    -2600.00
00416              -2.00    -2400.00
00417             -26.00    -2600.00
00418              22.00    -2600.00
00419              10.00    -2600.00
00420               6.00    -2600.00
00421              10.00    -2600.00
00422             -22.00    -2800.00
00423             -18.00    -2600.00
00424              46.00    -3000.00
00425              28.00    -2800.00
00426             -38.00    -3000.00
00427             -16.00    -3000.00
00428              32.00    -3000.00
00429              14.00    -3200.00
00430             -14.00    -3000.00
00431               0.00    -3200.00
00432               8.00    -3200.00
00433              10.00    -3200.00
00434               8.00    -3200.00
00435              -6.00    -3200.00
00436              -6.00    -3200.00
00437               8.00    -3400.00
00438              10.00    -3400.00
00439               4.00    -3400.00
00440              -2.00    -3400.00
00441              -2.00    -3400.00
00442               8.00    -3400.00
00443               8.00    -3400.00
00444              -6.00    -3400.00
00445               0.00    -3600.00
00446              14.00    -3400.00
00447               8.00    -3600.00
00448              -4.00    -3600.00
00449               0.00    -3800.00
00450               2.00    -3800.00
00451               6.00    -3800.00
00452               8.00    -3600.00
00453               2.00    -3800.00
00454               0.00    -3800.00
00455               0.00    -3800.00
00456               2.00    -3800.00
00457               2.00    -3600.00
00458               6.00    -3800.00
00459               8.00    -3800.00
00460               6.00    -3800.00
00461               2.00    -3800.00
00462              -2.00    -3800.00
00463               2.00    -3800.00
00464              10.00    -3800.00
00465               8.00    -3800.00
00466               4.00    -3800.00
00467               4.00    -3600.00
00468               2.00    -3800.00
00469              -2.00    -3800.00
00470               2.00    -3800.00
00471              10.00    -3800.00
00472               8.00    -3800.00
00473               0.00    -3600.00
00474               0.00    -3800.00
00475               2.00    -3800.00
00476               6.00    -3600.00
00477               2.00    -3800.00
00478               6.00    -3600.00
00479               6.00    -3400.00
00480               4.00    -3800.00
00481               6.00    -3600.00
00482               0.00    -3600.00
00483               0.00    -3400.00
00484               6.00    -3600.00
00485               8.00    -3400.00
00486               6.00    -3400.00
00487               2.00    -3600.00
00488               0.00    -3400.00
00489               0.00    -3400.00
00490               6.00    -3200.00
00491               2.00    -3400.00
00492               8.00    -3200.00
00493               2.00    -3200.00
00494               2.00    -3200.00
00495               0.00    -3200.00
00496               6.00    -3200.00
00497               2.00    -3000.00
00498               2.00    -3200.00
00499               6.00    -3000.00
00500               4.00    -3000.00
00501               2.00    -3000.00
00502               0.00    -3000.00
00503              -2.00    -3000.00
00504               2.00    -2800.00
00505               4.00    -3000.00
00506               2.00    -2800.00
00507               0.00    -3000.00
00508              -2.00    -2800.00
00509               0.00    -2800.00
00510               2.00    -2600.00
00511               0.00    -2600.00
00512               6.00    -2600.00
00513               0.00    -2400.00
00514              -2.00    -2600.00
00515              -4.00    -2400.00
00516              -2.00    -2600.00
00517               2.00    -2200.00
00518               6.00    -2200.00
00519               0.00    -2200.00
00520              -2.00    -2200.00
00521              -2.00    -2200.00
00522              -2.00    -2200.00
00523               0.00    -2000.00
00524               0.00    -1800.00
00525               0.00    -1800.00
00526               0.00    -1800.00
00527               0.00    -1800.00
00528               0.00    -1800.00
00529              -2.00    -1800.00
00530               0.00    -1600.00
00531               0.00    -1600.00
00532               0.00    -1400.00
00533               2.00    -1400.00
00534               0.00    -1400.00
00535              -4.00    -1200.00
00536              -2.00    -1400.00
00537              -2.00    -1200.00
00538               2.00    -1000.00
00539               2.00    -1000.00
00540              -2.00    -1000.00
00541              -4.00    -1000.00
00542               0.00     -800.00
00543               0.00     -800.00
00544              -2.00     -800.00
00545               0.00     -800.00
00546               0.00     -600.00
00547              -2.00     -600.00
00548              -6.00     -600.00
00549              -8.00     -600.00
00550              -2.00     -400.00
00551               0.00     -200.00
00552              -2.00     -200.00
00553              -2.00     -200.00
00554              -2.00     -200.00
00555              -2.00     -200.00
00556              -2.00        0.00
00557              -2.00        0.00
00558              -2.00      200.00
00559               0.00      200.00
00560               0.00      200.00
00561              -2.00      400.00
00562               0.00      200.00
00563               2.00      400.00
00564               6.00      600.00
00565              -6.00      200.00
00566             -10.00      600.00
00567              -6.00      600.00
00568               2.00      800.00
00569              58.00     1000.00
00570             176.00     1200.00
00571               0.00     1200.00
00572            -254.00      800.00
00573            -254.00     1000.00
00574             246.00     1400.00
00575             246.00     1400.00
00576            -254.00     1000.00
00577            -254.00     1200.00
00578             134.00     1600.00
00579             246.00     1800.00
00580             -94.00     1400.00
00581            -254.00     1400.00
00582             118.00     1800.00
00583             246.00     1800.00
00584            -254.00     1400.00
00585            -254.00     1600.00
00586             246.00     2200.00
00587             192.00     2000.00
00588            -254.00     1600.00
00589             -34.00     2200.00
00590             240.00     2400.00
00591            -126.00     2200.00
00592            -144.00     2200.00
00593             218.00     2400.00
00594              14.00     2200.00
00595            -248.00     2400.00
00596              42.00     2600.00
00597             190.00     2600.00
00598             -70.00     2400.00
00599            -114.00     2600.00
00600              22.00     2600.00
00601              24.00     2600.00
00602              14.00     2800.00
00603             -26.00     3000.00
00604             -48.00     3000.00
00605              40.00     3000.00
00606              12.00     3000.00
00607             -92.00     3000.00
00608              24.00     3200.00
00609              60.00     3200.00
00610             -72.00     3000.00
00611             -16.00     3200.00
00612              62.00     3400.00
00613             -68.00     3200.00
00614             -40.00     3400.00
00615              74.00     3600.00
00616             -14.00     3400.00
00617             -70.00     3400.00
00618              22.00     3600.00
00619               8.00     3400.00
00620             -28.00     3400.00
00621               0.00     3600.00
00622             -10.00     3600.00
00623             -10.00     3600.00
00624               0.00     3800.00
00625             -24.00     3800.00
00626              -8.00     3800.00
00627              16.00     3800.00
00628             -34.00     3800.00
00629             -16.00     3800.00
00630              22.00     3800.00
00631             -24.00     3800.00
00632             -26.00     4000.00
00633              16.00     4000.00
00634             -16.00     4000.00
00635             -26.00     3800.00
00636               6.00     4000.00
00637              -6.00     4000.00
00638             -22.00     4000.00
00639             -10.00     4000.00
00640             -14.00     4000.00
00641             -10.00     4200.00
00642              -2.00     4200.00
00643             -14.00     4000.00
00644              -8.00     4200.00
00645              -6.00     4200.00
00646             -22.00     4200.00
00647             -12.00     4200.00
00648               0.00     4200.00
00649             -16.00     4200.00
00650             -10.00     4000.00
00651               2.00     4200.00
00652             -16.00     4200.00
00653             -18.00     4200.00
00654              -8.00     4200.00
00655              -8.00     4200.00
00656              -8.00     4200.00
00657              -8.00     4200.00
00658             -14.00     4200.00
00659             -12.00     4200.00
00660             -14.00     4200.00
00661             -10.00     4200.00
00662              -2.00     4200.00
00663              -6.00     4200.00
00664             -16.00     4200.00
00665             -10.00     4200.00
00666             -10.00     4200.00
00667             -14.00     4000.00
00668              -8.00     4000.00
00669              -6.00     4200.00
00670             -14.00     4000.00
00671             -10.00     4200.00
00672              -6.00     4000.00
00673             -12.00     4000.00
00674             -16.00     4000.00
00675              -6.00     4000.00
00676              -6.00     4000.00
00677             -10.00     4000.00
00678             -14.00     4000.00
00679             -10.00     4000.00
00680             -10.00     3800.00
00681             -10.00     3800.00
00682             -10.00     3800.00
00683              -2.00     4000.00
00684             -10.00     3800.00
00685             -14.00     3800.00
00686             -10.00     3800.00
00687              -8.00     3800.00
00688             -10.00     3800.00
00689              -6.00     3800.00
00690              -6.00     3800.00
00691             -10.00     3600.00
00692             -10.00     3600.00
00693              -8.00     3400.00
00694             -10.00     3400.00
00695             -10.00     3400.00
00696              -8.00     3400.00
00697              -6.00     3200.00
00698             -10.00     3400.00
00699             -16.00     3200.00
00700             -10.00     3000.00
00701              -8.00     3200.00
00702             -10.00     3200.00
00703              -8.00     3200.00
00704              -8.00     3000.00
00705             -10.00     3000.00
00706             -14.00     3000.00
00707             -10.00     3000.00
00708              -8.00     2800.00
00709              -8.00     2600.00
00710             -10.00     2600.00
00711             -10.00     2600.00
00712             -10.00     2600.00
00713             -10.00     2600.00
00714              -8.00     2600.00
00715              -6.00     2400.00
00716              -8.00     2400.00
00717              -8.00     2400.00
00718              -8.00     2400.00
00719              -8.00     2200.00
00720             -14.00     2200.00
00721             -10.00     2200.00
00722              -4.00     2200.00
00723              -2.00     2200.00
00724             -10.00     1800.00
00725              -8.00     2000.00
00726              -6.00     1800.00
00727              -6.00     1800.00
00728              -6.00     1800.00
00729              -6.00     1600.00
00730              -2.00     1600.00
00731             -10.00     1400.00
00732             -10.00     1400.00
00733              -4.00     1600.00
00734               0.00     1400.00
00735              -6.00     1200.00
00736              -8.00     1400.00
00737              -2.00     1000.00
00738               0.00     1200.00
00739              -6.00     1000.00
00740              -8.00     1000.00
00741              -8.00      800.00
00742              -2.00     1000.00
00743               0.00      800.00
00744              -6.00      800.00
00745              -2.00      600.00
00746              -2.00      600.00
00747              -6.00      600.00
00748              -6.00      400.00
00749              -2.00      400.00
00750               0.00      200.00
00751              -2.00      200.00
00752               0.00      200.00
00753               0.00      200.00
00754               6.00        0.00
00755               8.00        0.00
00756               0.00        0.00
00757              -8.00        0.00
00758              -6.00     -200.00
00759               2.00     -200.00
00760              16.00     -200.00
00761              86.00     -200.00
00762             150.00     -600.00
00763             -80.00     -800.00
00764            -254.00     -600.00
00765            -162.00     -200.00
00766             246.00     -600.00
00767             246.00    -1000.00
00768            -254.00    -1000.00
00769            -254.00     -800.00
00770             222.00    -1000.00
00771             246.00    -1000.00
00772            -106.00    -1000.00
00773            -254.00    -1000.00
00774              68.00    -1000.00
00775             246.00    -1400.00
00776             -58.00    -1200.00
00777            -222.00    -1400.00
00778              70.00    -1400.00
00779              40.00    -1400.00
00780              -2.00    -1400.00
00781              58.00    -1800.00
00782             -26.00    -1600.00
00783            -170.00    -1600.00
00784             100.00    -1800.00
00785             200.00    -1800.00
00786            -120.00    -2000.00
00787            -186.00    -1800.00
00788             102.00    -2000.00
00789             152.00    -2000.00
00790             -58.00    -2200.00
00791             -90.00    -2200.00
00792              -8.00    -2200.00
00793              62.00    -2200.00
00794              38.00    -2400.00
00795             -24.00    -2200.00
00796             -40.00    -2400.00
00797              32.00    -2600.00
00798              18.00    -2400.00
00799             -30.00    -2600.00
00800               0.00    -2600.00
00801              22.00    -2600.00
00802               6.00    -2600.00
00803               8.00    -2600.00
00804              -2.00    -2800.00
00805             -34.00    -2800.00
00806              22.00    -2600.00
00807              50.00    -2800.00
00808             -12.00    -3000.00
00809             -42.00    -3000.00
00810              16.00    -3200.00
00811              28.00    -3000.00
00812              -6.00    -3200.00
00813             -10.00    -3200.00
00814               4.00    -3000.00
00815              12.00    -3200.00
00816               8.00    -3200.00
00817               0.00    -3200.00
00818              -6.00    -3400.00
00819               2.00    -3400.00
00820              10.00    -3200.00
00821               8.00    -3400.00
00822               0.00    -3400.00
00823              -4.00    -3400.00
00824               6.00    -3400.00
00825              10.00    -3600.00
00826               2.00    -3600.00
00827              -6.00    -3400.00
00828               6.00    -3600.00
00829              14.00    -3800.00
00830               0.00    -3600.00
00831              -6.00    -3600.00
00832               0.00    -3800.00
00833               6.00    -3800.00
00834               6.00    -3800.00
00835               4.00    -3600.00
00836               0.00    -3800.00
00837               0.00    -3800.00
00838               0.00    -3800.00
00839               6.00    -3800.00
00840               2.00    -3800.00
00841               2.00    -3800.00
00842               6.00    -3800.00
00843               6.00    -3800.00
00844              -2.00    -3800.00
00845              -2.00    -3800.00
00846               6.00    -3800.00
00847              10.00    -3800.00
00848               6.00    -3800.00
00849               0.00    -3800.00
00850               2.00    -3800.00
00851               0.00    -3800.00
00852               0.00    -3800.00
00853               8.00    -3800.00
00854               8.00    -3800.00
00855               2.00    -3800.00
00856               2.00    -3800.00
00857               4.00    -3800.00
00858               0.00    -3800.00
00859               0.00    -3600.00
00860               6.00    -3800.00
00861               6.00    -3600.00
00862               2.00    -3600.00
00863               2.00    -3600.00
00864               0.00    -3600.00
00865               0.00    -3400.00
00866               2.00    -3600.00
00867               8.00    -3400.00
00868               8.00    -3600.00
00869               0.00    -3400.00
00870               0.00    -3400.00
00871               4.00    -3400.00
00872               2.00    -3400.00
00873               2.00    -3400.00
00874               4.00    -3200.00
00875               6.00    -3200.00
00876               2.00    -3400.00
00877               0.00    -3200.00
00878               2.00    -3200.00
00879               6.00    -3000.00
00880               6.00    -3200.00
00881               2.00    -3200.00
00882               6.00    -3000.00
00883               6.00    -3200.00
00884               2.00    -3000.00
00885               0.00    -2800.00
00886               0.00    -3000.00
00887               2.00    -3000.00
00888               4.00    -2800.00
00889               2.00    -2800.00
00890              -2.00    -2600.00
00891              -2.00    -2800.00
00892               0.00    -2600.00
00893               4.00    -2600.00
00894               0.00    -2600.00
00895               2.00    -2600.00
00896               2.00    -2400.00
00897              -2.00    -2400.00
00898              -2.00    -2400.00
00899               0.00    -2400.00
00900               2.00    -2400.00
00901               0.00    -2400.00
00902               0.00    -2200.00
00903               0.00    -2200.00
00904               0.00    -2200.00
00905              -2.00    -2000.00
00906              -2.00    -2000.00
00907               0.00    -1800.00
00908               0.00    -1600.00
00909               2.00    -1800.00
00910               0.00    -1800.00
00911              -6.00    -1800.00
00912              -4.00    -1600.00
00913               0.00    -1600.00
00914               2.00    -1400.00
00915               0.00    -1400.00
00916              -2.00    -1600.00
00917              -2.00    -1400.00
00918              -2.00    -1000.00
00919              -2.00    -1400.00
00920               0.00    -1000.00
00921               0.00    -1200.00
00922               0.00    -1000.00
00923              -2.00     -800.00
00924              -4.00    -1000.00
00925               0.00    -1000.00
00926              -2.00     -800.00
00927              -2.00     -800.00
00928              -2.00     -600.00
00929               2.00     -600.00
00930               0.00     -600.00
00931              -8.00     -400.00
00932              -4.00     -600.00
00933               2.00     -400.00
00934               0.00     -200.00
00935              -4.00     -200.00
00936              -2.00     -200.00
00937              -2.00        0.00
00938              -2.00        0.00
00939              -4.00        0.00
00940              -2.00      200.00
00941               0.00      200.00
00942               0.00      200.00
00943              -2.00      200.00
00944               0.00      200.00
00945               2.00      400.00
00946               6.00      600.00
00947               2.00      600.00
00948              -6.00      600.00
00949              -8.00      800.00
00950              -2.00      800.00
00951              18.00      800.00
00952             128.00     1000.00
00953             146.00     1200.00
00954            -254.00      800.00
00955            -254.00      800.00
00956             138.00     1400.00
00957             246.00     1400.00
00958             246.00     1400.00
00959            -254.00      800.00
00960            -254.00     1400.00
00961             246.00     1600.00
00962             246.00     1800.00
00963            -254.00     1200.00
00964            -254.00     1600.00
00965             246.00     2000.00
00966             154.00     1800.00
00967            -254.00     1600.00
00968               6.00     2000.00
00969             246.00     2200.00
00970            -150.00     1800.00
00971            -246.00     1800.00
00972             200.00     2400.00
00973              80.00     2200.00
00974            -238.00     2200.00
00975              78.00     2400.00
00976             190.00     2400.00
00977            -186.00     2200.00
00978            -150.00     2400.00
00979             194.00     2600.00
00980              60.00     2600.00
00981            -138.00     2400.00
00982             -34.00     2600.00
00983              38.00     2800.00
00984              14.00     2600.00
00985               2.00     2800.00
00986             -48.00     2800.00
00987              -2.00     3000.00
00988              48.00     3000.00
00989             -58.00     3000.00
00990             -54.00     3000.00
00991              78.00     3200.00
00992             -14.00     3000.00
00993             -74.00     3200.00
00994              48.00     3400.00
00995              -2.00     3400.00
00996             -86.00     3200.00
00997              42.00     3400.00
00998              52.00     3400.00
00999             -72.00     3400.00
01000             -22.00     3400.00
01001              30.00     3600.00
01002             -18.00     3400.00
01003             -10.00     3400.00
01004               0.00     3600.00
01005             -18.00     3400.00
01006               2.00     3800.00
01007             -14.00     3800.00
01008             -24.00     3800.00
01009              14.00     3800.00
01010             -10.00     3800.00
01011             -34.00     3800.00
01012              16.00     4000.00
01013               4.00     3800.00
01014             -40.00     3800.00
01015               2.00     3800.00
01016               6.00     3800.00
01017             -30.00     4000.00
01018              -6.00     4000.00
01019               8.00     4000.00
01020             -16.00     3800.00
01021             -14.00     4000.00
01022             -10.00     4200.00
01023             -14.00     4000.00
01024              -8.00     4200.00
01025             -10.00     4200.00
01026             -14.00     4000.00
01027              -6.00     4200.00
01028             -16.00     4200.00
01029             -22.00     4200.00
01030              -2.00     4200.00
01031              -8.00     4200.00
01032             -18.00     4000.00
01033              -2.00     4200.00
01034              -8.00     4200.00
01035             -24.00     4000.00
01036             -12.00     4200.00
01037              -6.00     4200.00
01038             -10.00     4200.00
01039              -8.00     4200.00
01040             -14.00     4200.00
01041             -18.00     4200.00
01042             -10.00     4000.00
01043             -12.00     4200.00
01044             -10.00     4200.00
01045              -8.00     4200.00
01046             -14.00     4000.00
01047             -14.00     4200.00
01048              -8.00     4000.00
01049             -14.00     4200.00
01050             -16.00     4000.00
01051              -2.00     4200.00
01052              -8.00     4000.00
01053             -16.00     4000.00
01054              -8.00     4000.00
01055             -10.00     4000.00
01056             -18.00     4000.00
01057              -8.00     4000.00
01058              -2.00     4000.00
01059              -8.00     4000.00
01060             -14.00     3800.00
01061             -10.00     3800.00
01062             -10.00     3800.00
01063             -10.00     4000.00
01064             -10.00     3800.00
01065             -10.00     3800.00
01066              -6.00     3800.00
01067             -10.00     3800.00
01068             -10.00     3800.00
01069              -8.00     3800.00
01070             -10.00     3800.00
01071             -10.00     3800.00
01072              -2.00     3600.00
01073              -8.00     3800.00
01074             -14.00     3600.00
01075             -10.00     3400.00
01076             -10.00     3400.00
01077             -10.00     3400.00
01078              -8.00     3400.00
01079              -4.00     3400.00
01080              -6.00     3200.00
01081             -14.00     3200.00
01082             -14.00     3200.00
01083              -6.00     3000.00
01084              -4.00     3200.00
01085              -8.00     3000.00
01086             -10.00     3000.00
01087              -6.00     3000.00
01088             -10.00     2800.00
01089             -10.00     3000.00
01090              -8.00     2800.00
01091              -8.00     2600.00
01092              -8.00     2800.00
01093             -10.00     2600.00
01094              -8.00     2600.00
01095             -10.00     2600.00
01096              -8.00     2600.00
01097              -6.00     2400.00
01098              -8.00     2600.00
01099             -10.00     2400.00
01100              -6.00     2400.00
01101              -8.00     2400.00
01102             -10.00     2200.00
01103             -14.00     2200.00
01104              -8.00     2200.00
01105              -2.00     2000.00
01106              -8.00     1800.00
01107             -10.00     1800.00
01108              -8.00     1800.00
01109              -6.00     1800.00
01110             -10.00     1800.00
01111              -6.00     1600.00
01112              -2.00     1600.00
01113              -4.00     1600.00
01114             -10.00     1600.00
01115              -8.00     1400.00
01116              -2.00     1400.00
01117              -2.00     1400.00
01118              -4.00     1400.00
01119              -2.00     1400.00
01120              -6.00     1000.00
01121              -8.00     1000.00
01122              -8.00     1000.00
01123              -2.00     1000.00
01124              -4.00      800.00
01125              -2.00      800.00
01126              -4.00      800.00
01127              -2.00      600.00
01128              -2.00      600.00
01129              -6.00      600.00
01130              -6.00      400.00
01131              -2.00      400.00
01132              -2.00      400.00
01133               0.00      400.00
01134               0.00      200.00
01135               0.00        0.00
01136               2.00      200.00
01137               6.00        0.00
01138               6.00        0.00
01139              -4.00     -200.00
01140              -8.00     -200.00
01141              -4.00     -200.00
01142               6.00     -200.00
01143              42.00     -200.00
01144             142.00     -600.00
01145              80.00     -600.00
01146            -254.00     -800.00
01147            -254.00     -400.00
01148             222.00     -600.00
01149             246.00     -600.00
01150             112.00    -1000.00
01151            -254.00     -800.00
01152            -254.00     -800.00
01153             246.00    -1000.00
01154             246.00    -1000.00
01155            -254.00    -1000.00
01156            -254.00    -1000.00
01157             246.00    -1400.00
01158             162.00    -1200.00
01159            -222.00    -1400.00
01160             -66.00    -1600.00
01161             102.00    -1400.00
01162              -8.00    -1400.00
01163              22.00    -1600.00
01164              56.00    -1800.00
01165            -152.00    -1400.00
01166             -48.00    -1600.00
01167             208.00    -1800.00
01168              54.00    -1800.00
01169            -232.00    -2000.00
01170             -32.00    -2000.00
01171             182.00    -1800.00
01172              42.00    -2200.00
01173            -112.00    -2200.00
01174             -46.00    -2200.00
01175              34.00    -2200.00
01176              58.00    -2400.00
01177               6.00    -2400.00
01178             -54.00    -2400.00
01179              -2.00    -2400.00
01180              38.00    -2600.00
01181              -6.00    -2400.00
01182             -26.00    -2600.00
01183              18.00    -2800.00
01184               8.00    -2600.00
01185               8.00    -2800.00
01186               8.00    -3000.00
01187             -26.00    -3000.00
01188             -14.00    -2800.00
01189              48.00    -3000.00
01190              22.00    -2800.00
01191             -42.00    -3000.00
01192             -10.00    -3000.00
01193              32.00    -3000.00
01194              10.00    -3000.00
01195             -14.00    -3200.00
01196              -2.00    -3200.00
01197              10.00    -3200.00
01198               8.00    -3200.00
01199               6.00    -3400.00
01200              -4.00    -3200.00
01201              -2.00    -3400.00
01202               8.00    -3200.00
01203               8.00    -3400.00
01204               6.00    -3400.00
01205              -2.00    -3400.00
01206              -2.00    -3400.00
01207               8.00    -3400.00
01208               8.00    -3400.00
01209              -2.00    -3400.00
01210               0.00    -3400.00
01211              14.00    -3600.00
01212               8.00    -3800.00
01213              -6.00    -3600.00
01214              -2.00    -3800.00
01215               6.00    -3400.00
01216               6.00    -3800.00
01217               8.00    -3800.00
01218               2.00    -3800.00
01219               0.00    -3800.00
01220              -2.00    -3800.00
01221               2.00    -3800.00
01222               4.00    -3600.00
01223               2.00    -3800.00
01224               6.00    -3800.00
01225               6.00    -3800.00
01226               0.00    -3800.00
01227              -2.00    -4000.00
01228               0.00    -3800.00
01229               6.00    -3800.00
01230               8.00    -3800.00
01231               2.00    -3800.00
01232               0.00    -3800.00
01233               0.00    -3800.00
01234               0.00    -3800.00
01235               2.00    -3600.00
01236               8.00    -3800.00
01237               6.00    -3600.00
01238               2.00    -3800.00
01239               2.00    -3800.00
01240               0.00    -3600.00
01241               0.00    -3600.00
01242               6.00    -3400.00
01243               6.00    -3600.00
01244               2.00    -3800.00
01245               0.00    -3600.00
01246               6.00    -3600.00
01247               2.00    -3600.00
01248               0.00    -3400.00
01249               2.00    -3400.00
01250               6.00    -3400.00
01251               6.00    -3400.00
01252               0.00    -3400.00
01253               0.00    -3400.00
01254               2.00    -3400.00
01255               2.00    -3200.00
01256               2.00    -3400.00
01257               8.00    -3400.00
01258               6.00    -3200.00
01259               2.00    -3400.00
01260               0.00    -3200.00
01261               0.00    -3200.00
01262               2.00    -3200.00
01263               6.00    -3200.00
01264               8.00    -3200.00
01265               6.00    -3000.00
01266              -2.00    -3000.00
01267               2.00    -3000.00
01268               2.00    -3000.00
01269               2.00    -3000.00
01270               2.00    -2800.00
01271               6.00    -3000.00
01272               2.00    -2800.00
01273               0.00    -2800.00
01274               0.00    -2600.00
01275               4.00    -2600.00
01276               2.00    -2600.00
01277               4.00    -2600.00
01278               2.00    -2600.00
01279               0.00    -2400.00
01280               0.00    -2400.00
01281               0.00    -2400.00
01282               2.00    -2200.00
01283               6.00    -2400.00
01284               2.00    -2200.00
01285               0.00    -2200.00
01286              -2.00    -2200.00
01287              -2.00    -2200.00
01288               0.00    -2000.00
01289               0.00    -1800.00
01290               2.00    -1800.00
01291               0.00    -1800.00
01292               0.00    -1800.00
01293               0.00    -1800.00
01294              -2.00    -1800.00
01295               0.00    -1600.00
01296               0.00    -1600.00
01297               0.00    -1600.00
01298              -2.00    -1400.00
01299               0.00    -1400.00
01300               0.00    -1400.00
01301               0.00    -1400.00
01302              -4.00    -1400.00
01303              -2.00    -1200.00
01304               2.00    -1200.00
01305              -2.00    -1000.00
01306              -2.00    -1000.00
01307              -2.00     -800.00
01308              -2.00    -1000.00
01309              -2.00     -800.00
01310               0.00     -800.00
01311              -2.00     -800.00
01312               0.00     -600.00
01313              -4.00     -600.00
01314              -6.00     -600.00
01315              -2.00     -400.00
01316               0.00     -400.00
01317               0.00     -200.00
01318              -2.00     -200.00
01319              -4.00     -200.00
01320              -4.00     -200.00
01321              -4.00        0.00
01322              -2.00        0.00
01323              -2.00      200.00
01324              -2.00      200.00
01325               2.00      200.00
01326               2.00      200.00
01327               0.00      400.00
01328               2.00      600.00
01329               6.00      400.00
01330               0.00      600.00
01331              -6.00      600.00
01332              -8.00      600.00
01333               2.00      600.00
01334              64.00      800.00
01335             180.00     1200.00
01336             -18.00     1200.00
01337            -254.00      800.00
01338            -230.00     1000.00
01339             246.00     1400.00
01340             246.00     1600.00
01341            -254.00     1000.00
01342            -254.00     1200.00
01343             198.00     1600.00
01344             246.00     1800.00
01345            -158.00     1200.00
01346            -254.00     1400.00
01347             166.00     1800.00
01348             246.00     1800.00
01349            -254.00     1600.00
01350            -254.00     1800.00
01351             246.00     2200.00
01352             154.00     1800.00
01353            -254.00     1600.00
01354              -2.00     2200.00
01355             234.00     2200.00
01356            -152.00     2200.00
01357            -128.00     2200.00
01358             230.00     2400.00
01359             -10.00     2400.00
01360            -246.00     2200.00
01361              62.00     2600.00
01362             182.00     2600.00
01363             -82.00     2400.00
01364            -110.00     2600.00
01365              24.00     2600.00
01366              18.00     2600.00
01367              16.00     2800.00
01368             -26.00     2800.00
01369             -44.00     3000.00
01370              38.00     3000.00
01371               0.00     3000.00
01372             -94.00     3000.00
01373              28.00     3200.00
01374              54.00     3200.00
01375             -72.00     3000.00
01376             -10.00     3200.00
01377              54.00     3400.00
01378             -74.00     3200.00
01379             -30.00     3400.00
01380              78.00     3400.00
01381             -22.00     3400.00
01382             -70.00     3400.00
01383              22.00     3600.00
01384               6.00     3400.00
01385             -28.00     3400.00
01386               0.00     3800.00
01387             -14.00     3600.00
01388              -6.00     3600.00
01389               4.00     3800.00
01390             -26.00     3800.00
01391              -6.00     3800.00
01392              10.00     3800.00
01393             -32.00     3800.00
01394             -10.00     3800.00
01395              22.00     3800.00
01396             -26.00     3800.00
01397             -24.00     3800.00
01398              16.00     4000.00
01399             -16.00     4000.00
01400             -26.00     4000.00
01401              10.00     4000.00
01402              -2.00     4000.00
01403             -18.00     4000.00
01404             -10.00     4200.00
01405             -14.00     4000.00
01406              -8.00     4000.00
01407              -6.00     4200.00
01408             -12.00     4000.00
01409              -8.00     4200.00
01410              -6.00     4200.00
01411             -22.00     4200.00
01412             -12.00     4000.00
01413               0.00     4200.00
01414             -16.00     4200.00
01415             -10.00     4200.00
01416              -2.00     4200.00
01417             -18.00     4200.00
01418             -20.00     4200.00
01419              -8.00     4200.00
01420              -8.00     4200.00
01421             -10.00     4200.00
01422             -10.00     4200.00
01423             -14.00     4200.00
01424             -14.00     4200.00
01425             -10.00     4200.00
01426             -14.00     4200.00
01427              -6.00     4200.00
01428              -8.00     4200.00
01429             -16.00     4200.00
01430             -10.00     4000.00
01431             -10.00     4200.00
01432             -16.00     4200.00
01433              -6.00     4000.00
01434              -2.00     4200.00
01435             -14.00     4000.00
01436             -16.00     4000.00
01437              -8.00     4000.00
01438             -14.00     4000.00
01439             -14.00     4000.00
01440              -8.00     4000.00
01441              -8.00     4000.00
01442             -14.00     4000.00
01443             -10.00     3800.00
01444             -10.00     4000.00
01445              -8.00     4000.00
01446             -10.00     3800.00
01447             -10.00     3800.00
01448              -8.00     3800.00
01449              -8.00     3800.00
01450             -10.00     3800.00
01451             -10.00     3800.00
01452             -10.00     3800.00
01453             -14.00     3800.00
01454              -6.00     3800.00
01455              -2.00     3800.00
01456              -8.00     3400.00
01457             -14.00     3600.00
01458             -10.00     3400.00
01459             -10.00     3400.00
01460              -8.00     3400.00
01461              -6.00     3400.00
01462              -4.00     3200.00
01463              -8.00     3400.00
01464             -16.00     3200.00
01465             -10.00     3200.00
01466              -2.00     3200.00
01467              -6.00     3000.00
01468              -6.00     3200.00
01469             -10.00     3000.00
01470             -10.00     3000.00
01471              -8.00     3000.00
01472              -6.00     3000.00
01473              -2.00     3000.00
01474             -10.00     2800.00
01475             -10.00     2800.00
01476              -8.00     2600.00
01477              -6.00     2600.00
01478              -8.00     2600.00
01479              -8.00     2600.00
01480              -8.00     2400.00
01481              -6.00     2400.00
01482              -8.00     2400.00
01483              -4.00     2400.00
01484              -8.00     2400.00
01485             -14.00     2200.00
01486             -10.00     2200.00
01487              -6.00     2000.00
01488              -2.00     2200.00
01489              -8.00     2000.00
01490             -10.00     1800.00
01491              -8.00     1800.00
01492              -8.00     1600.00
01493              -8.00     1800.00
01494              -2.00     1600.00
01495              -4.00     1600.00
01496              -8.00     1600.00
01497             -10.00     1400.00
01498              -6.00     1400.00
01499              -2.00     1400.00
01500              -4.00     1200.00
01501              -6.00     1400.00
01502              -6.00     1200.00
01503              -6.00     1000.00
01504              -8.00     1200.00
01505              -6.00     1000.00
01506              -2.00     1200.00
01507              -6.00      800.00
01508              -6.00      800.00
01509              -2.00      800.00
01510              -2.00      800.00
01511              -6.00      600.00
01512              -8.00      600.00
01513              -6.00      200.00
01514              -2.00      400.00
01515              -2.00      200.00
01516              -2.00      200.00
01517              -2.00      200.00
01518               0.00      200.00
01519               6.00        0.00
01520               8.00        0.00
01521               2.00        0.00
01522             -10.00        0.00
01523              -8.00     -200.00
01524               2.00     -200.00
01525              22.00     -200.00
01526              94.00     -400.00
01527             146.00     -600.00
01528            -100.00     -800.00
01529            -254.00     -600.00
01530            -122.00     -400.00
01531             246.00     -600.00
01532             246.00     -800.00
01533            -254.00    -1000.00
01534            -254.00     -800.00
01535             246.00    -1000.00
01536             246.00    -1000.00
01537            -154.00    -1000.00
01538            -254.00    -1000.00
01539             106.00    -1000.00
01540             246.00    -1200.00
01541             -82.00    -1000.00
01542            -208.00    -1400.00
01543              86.00    -1400.00
01544              32.00    -1400.00
01545               0.00    -1400.00
01546              58.00    -1800.00
01547             -40.00    -1600.00
01548            -162.00    -1800.00
01549             118.00    -1800.00
01550             192.00    -1800.00
01551            -142.00    -1800.00
01552            -178.00    -2000.00
01553             118.00    -1800.00
01554             146.00    -2200.00
01555             -70.00    -2200.00
01556             -90.00    -2200.00
01557              -6.00    -2200.00
01558              64.00    -2200.00
01559              36.00    -2400.00
01560             -32.00    -2400.00
01561             -42.00    -2400.00
01562              34.00    -2600.00
01563              18.00    -2600.00
01564             -32.00    -2600.00
01565               0.00    -2600.00
01566              16.00    -2600.00
01567               6.00    -2400.00
01568               6.00    -2800.00
01569              -6.00    -2800.00
01570             -34.00    -2600.00
01571              26.00    -3000.00
01572              46.00    -3000.00
01573             -20.00    -3000.00
01574             -38.00    -3000.00
01575              22.00    -3000.00
01576              30.00    -3200.00
01577              -8.00    -3000.00
01578             -10.00    -3200.00
01579               6.00    -3200.00
01580              14.00    -3200.00
01581               8.00    -3200.00
01582              -2.00    -3200.00
01583              -8.00    -3400.00
01584               6.00    -3400.00
01585              10.00    -3400.00
01586               6.00    -3400.00
01587               0.00    -3400.00
01588              -2.00    -3400.00
01589               6.00    -3400.00
01590              14.00    -3400.00
01591               0.00    -3400.00
01592              -2.00    -3400.00
01593               8.00    -3400.00
01594              12.00    -3400.00
01595               0.00    -3600.00
01596              -2.00    -3600.00
01597               2.00    -3400.00
01598               8.00    -3800.00
01599              10.00    -3600.00
01600               8.00    -3800.00
01601               2.00    -3600.00
01602              -2.00    -3600.00
01603               0.00    -3600.00
01604               8.00    -3800.00
01605               6.00    -3800.00
01606               6.00    -3800.00
01607               2.00    -3800.00
01608               2.00    -3800.00
01609               0.00    -3600.00
01610              -2.00    -3800.00
01611               4.00    -3800.00
01612               8.00    -3800.00
01613               2.00    -3800.00
01614               0.00    -3800.00
01615               0.00    -3800.00
01616               2.00    -3800.00
01617               0.00    -3800.00
01618               6.00    -3800.00
01619               6.00    -3600.00
01620               6.00    -3800.00
01621               2.00    -3800.00
01622               0.00    -3800.00
01623               0.00    -3800.00
01624               0.00    -3600.00
01625               8.00    -3800.00
01626               6.00    -3600.00
01627               0.00    -3800.00
01628              -2.00    -3400.00
01629               2.00    -3600.00
01630               0.00    -3400.00
01631               0.00    -3600.00
01632               6.00    -3400.00
01633               8.00    -3400.00
01634               2.00    -3400.00
01635              -2.00    -3400.00
01636               2.00    -3400.00
01637               2.00    -3400.00
01638               6.00    -3400.00
01639               8.00    -3400.00
01640               6.00    -3200.00
01641               0.00    -3200.00
01642               0.00    -3200.00
01643               2.00    -3200.00
01644               2.00    -3400.00
01645               2.00    -3000.00
01646               6.00    -3200.00
01647               6.00    -3000.00
01648               0.00    -3000.00
01649               2.00    -3000.00
01650               0.00    -3000.00
01651               2.00    -3000.00
01652               4.00    -3000.00
01653               6.00    -2800.00
01654               2.00    -3000.00
01655               0.00    -2800.00
01656               0.00    -2800.00
01657               2.00    -2600.00
01658               6.00    -2600.00
01659               6.00    -2600.00
01660               2.00    -2600.00
01661               2.00    -2600.00
01662               0.00    -2400.00
01663               2.00    -2400.00
01664               0.00    -2400.00
01665               6.00    -2400.00
01666               2.00    -2200.00
01667               0.00    -2200.00
01668               0.00    -2200.00
01669               0.00    -2000.00
01670               0.00    -2200.00
01671               0.00    -2200.00
01672               2.00    -1800.00
01673               2.00    -2000.00
01674               0.00    -1800.00
01675              -2.00    -1800.00
01676               0.00    -1600.00
01677              -2.00    -1600.00
01678               0.00    -1600.00
01679               2.00    -1600.00
01680               0.00    -1400.00
01681               0.00    -1600.00
01682              -2.00    -1400.00
01683               0.00    -1400.00
01684              -2.00    -1200.00
01685               0.00    -1200.00
01686               2.00    -1000.00
01687               2.00    -1000.00
01688              -2.00    -1000.00
01689              -2.00     -800.00
01690              -2.00    -1000.00
01691               0.00     -800.00
01692               0.00     -800.00
01693               0.00     -600.00
01694              -2.00     -600.00
01695              -4.00     -600.00
01696              -2.00     -400.00
01697              -2.00     -600.00
01698               0.00     -600.00
01699              -2.00     -200.00
01700              -2.00     -200.00
01701              -2.00     -200.00
01702              -2.00     -200.00
01703              -6.00        0.00
01704              -8.00        0.00
01705              -2.00        0.00
01706              -2.00      200.00
01707               0.00        0.00
01708               0.00      400.00
01709               0.00      200.00
01710               2.00      200.00
01711               2.00      600.00
01712               0.00      600.00
01713              -6.00      600.00
01714              -8.00      600.00
01715              -2.00      800.00
01716              24.00      800.00
01717             136.00      800.00
01718             136.00     1200.00
01719            -254.00      800.00
01720            -254.00      800.00
01721             182.00     1200.00
01722             246.00     1400.00
01723             184.00     1400.00
01724            -254.00     1000.00
01725            -254.00     1400.00
01726             246.00     1600.00
01727             246.00     1800.00
01728            -254.00     1000.00
01729            -254.00     1600.00
01730             246.00     1800.00
01731             112.00     1600.00
01732            -254.00     1600.00
01733              44.00     2000.00
01734             246.00     2200.00
01735            -176.00     1800.00
01736            -230.00     2000.00
01737             216.00     2200.00
01738              58.00     2200.00
01739            -234.00     2000.00
01740              96.00     2400.00
01741             172.00     2200.00
01742            -202.00     2200.00
01743            -128.00     2400.00
01744             200.00     2600.00
01745              40.00     2400.00
01746            -138.00     2600.00
01747             -28.00     2800.00
01748              34.00     2600.00
01749              14.00     2600.00
01750               0.00     2800.00
01751             -50.00     2800.00
01752              -2.00     2800.00
01753              46.00     3000.00
01754             -62.00     3000.00
01755             -42.00     3000.00
01756              78.00     3200.00
01757             -24.00     3000.00
01758             -70.00     3000.00
01759              58.00     3200.00
01760             -10.00     3200.00
01761             -88.00     3200.00
01762              48.00     3400.00
01763              42.00     3400.00
01764             -76.00     3200.00
01765             -18.00     3400.00
01766              26.00     3600.00
01767             -22.00     3400.00
01768             -14.00     3600.00
01769               0.00     3600.00
01770             -16.00     3600.00
01771               2.00     3800.00
01772             -16.00     3600.00
01773             -24.00     3800.00
01774              14.00     3800.00
01775             -16.00     4000.00
01776             -34.00     3800.00
01777              16.00     4000.00
01778              -2.00     3800.00
01779             -34.00     3800.00
01780               6.00     3800.00
01781               2.00     4000.00
01782             -32.00     3800.00
01783              -2.00     4000.00
01784               8.00     4000.00
01785             -16.00     4000.00
01786             -16.00     4200.00
01787             -10.00     4000.00
01788             -10.00     4000.00
01789               0.00     4000.00
01790             -10.00     4200.00
01791             -14.00     4000.00
01792              -2.00     4200.00
01793             -14.00     4000.00
01794             -18.00     4000.00
01795               0.00     4200.00
01796             -10.00     4200.00
01797             -18.00     4200.00
01798              -2.00     4000.00
01799              -6.00     4000.00
01800             -18.00     4200.00
01801             -10.00     4200.00
01802              -6.00     4000.00
01803              -8.00     4200.00
01804              -2.00     4200.00
01805             -10.00     4200.00
01806             -16.00     4200.00
01807             -10.00     4200.00
01808             -10.00     4200.00
01809             -10.00     4200.00
01810              -6.00     4200.00
01811             -14.00     4200.00
01812             -14.00     4200.00
01813             -10.00     4200.00
01814             -16.00     4200.00
01815             -12.00     4000.00
01816              -2.00     4000.00
01817             -10.00     4000.00
01818             -14.00     4000.00
01819             -10.00     4000.00
01820             -10.00     3800.00
01821             -14.00     4000.00
01822             -10.00     4000.00
01823              -8.00     4000.00
01824              -8.00     4000.00
01825             -10.00     3800.00
01826             -12.00     4000.00
01827             -12.00     4000.00
01828             -10.00     3800.00
01829             -10.00     3800.00
01830              -6.00     3800.00
01831             -10.00     3800.00
01832             -14.00     3800.00
01833             -10.00     3800.00
01834              -8.00     3800.00
01835             -10.00     3600.00
01836              -8.00     3600.00
01837              -6.00     3600.00
01838              -6.00     3400.00
01839             -16.00     3600.00
01840             -10.00     3400.00
01841             -10.00     3400.00
01842              -8.00     3400.00
01843             -10.00     3200.00
01844              -6.00     3400.00
01845              -6.00     3200.00
01846             -10.00     3200.00
01847             -14.00     3200.00
01848              -8.00     3200.00
01849              -6.00     3200.00
01850              -6.00     3000.00
01851              -8.00     3000.00
01852              -8.00     3000.00
01853             -10.00     3000.00
01854             -10.00     3000.00
01855              -6.00     2800.00
01856              -8.00     3000.00
01857              -8.00     3000.00
01858              -6.00     2600.00
01859              -8.00     2600.00
01860              -8.00     2600.00
01861             -10.00     2600.00
01862              -6.00     2400.00
01863              -2.00     2400.00
01864              -6.00     2400.00
01865              -8.00     2200.00
01866              -8.00     2200.00
01867              -8.00     2200.00
01868             -10.00     2200.00
01869              -4.00     2200.00
01870              -2.00     2000.00
01871              -8.00     2000.00
01872             -10.00     1800.00
01873              -8.00     1800.00
01874              -6.00     1800.00
01875              -8.00     1800.00
01876             -10.00     1600.00
01877              -6.00     1600.00
01878              -8.00     1600.00
01879              -8.00     1400.00
01880              -8.00     1600.00
01881              -6.00     1400.00
01882              -6.00     1400.00
01883              -6.00     1200.00
01884              -2.00     1400.00
01885              -6.00     1200.00
01886              -8.00     1000.00
01887              -8.00     1200.00
01888              -2.00      800.00
01889              -6.00      800.00
01890              -6.00      800.00
01891              -4.00      800.00
01892              -6.00      600.00
01893              -6.00      600.00
01894              -8.00      600.00
01895              -6.00      400.00
01896              -2.00      400.00
01897              -4.00      200.00
01898              -6.00      200.00
01899               0.00      200.00
01900               0.00        0.00
01901               0.00      200.00
01902               4.00        0.00
01903               6.00        0.00
01904              -2.00        0.00
01905              -8.00     -200.00
01906              -6.00     -200.00
01907               6.00     -200.00
01908              46.00     -200.00
01909             144.00     -600.00
01910              64.00     -600.00
01911            -254.00     -800.00
01912            -254.00     -400.00
01913             246.00     -600.00
01914             246.00     -600.00
01915              56.00    -1000.00
01916            -254.00     -800.00
01917            -234.00    -1000.00
01918             246.00    -1000.00
01919             246.00    -1000.00
01920            -254.00    -1200.00
01921            -254.00    -1000.00
01922             246.00    -1400.00
01923             138.00    -1200.00
01924            -230.00    -1400.00
01925             -48.00    -1600.00
01926              98.00    -1400.00
01927             -10.00    -1400.00
01928              30.00    -1600.00
01929              50.00    -1600.00
01930            -154.00    -1600.00
01931             -32.00    -1800.00
01932             216.00    -1800.00
01933              38.00    -1800.00
01934            -234.00    -1800.00
01935             -16.00    -2000.00
01936             182.00    -2000.00
01937              32.00    -2200.00
01938            -110.00    -2400.00
01939             -42.00    -2200.00
01940              38.00    -2200.00
01941              56.00    -2400.00
01942               6.00    -2600.00
01943             -56.00    -2400.00
01944               2.00    -2600.00
01945              32.00    -2600.00
01946             -10.00    -2600.00
01947             -24.00    -2600.00
01948              20.00    -2600.00
01949               6.00    -2600.00
01950               8.00    -2800.00
01951               6.00    -2800.00
01952             -30.00    -2800.00
01953             -10.00    -2800.00
01954              48.00    -3000.00
01955              18.00    -3000.00
01956             -46.00    -3000.00
01957              -8.00    -3000.00
01958              30.00    -3200.00
01959               8.00    -3000.00
01960             -16.00    -3200.00
01961              -2.00    -3200.00
01962               8.00    -3200.00
01963               8.00    -3400.00
01964               2.00    -3400.00
01965              -6.00    -3200.00
01966              -2.00    -3400.00
01967               8.00    -3200.00
01968              10.00    -3400.00
01969               2.00    -3400.00
01970              -4.00    -3400.00
01971              -2.00    -3400.00
01972              10.00    -3400.00
01973               6.00    -3400.00
01974              -2.00    -3400.00
01975               0.00    -3400.00
01976              14.00    -3800.00
01977               8.00    -3600.00
01978              -2.00    -3600.00
01979               0.00    -3800.00
01980               6.00    -3800.00
01981               6.00    -3800.00
01982               8.00    -3800.00
01983               8.00    -3600.00
01984               2.00    -3800.00
01985               0.00    -3800.00
01986               6.00    -3800.00
01987               6.00    -3800.00
01988               8.00    -3800.00
01989               6.00    -3600.00
01990               4.00    -3800.00
01991               2.00    -3800.00
01992               0.00    -3800.00
01993               4.00    -3800.00
01994              10.00    -3800.00
01995               8.00    -3600.00
01996               4.00    -3800.00
01997               4.00    -3800.00
01998               2.00    -3800.00
01999               0.00    -3800.00
02000               4.00    -3800.00
02001               8.00    -3800.00
02002               6.00    -3600.00
02003               2.00    -3800.00
02004               2.00    -3800.00
02005               0.00    -3800.00
02006               0.00    -3800.00
02007               6.00    -3800.00
02008               8.00    -3800.00
02009               2.00    -3800.00
02010               0.00    -3800.00
02011               2.00    -3400.00
02012               2.00    -3600.00
02013               4.00    -3800.00
02014               2.00    -3400.00
02015               6.00    -3400.00
02016               2.00    -3400.00
02017               0.00    -3400.00
02018               0.00    -3400.00
02019               0.00    -3400.00
02020               2.00    -3400.00
02021               4.00    -3400.00
02022               2.00    -3400.00
02023               2.00    -3400.00
02024               0.00    -3200.00
02025               2.00    -3400.00
02026               2.00    -3200.00
02027               4.00    -3200.00
02028               2.00    -3000.00
02029               6.00    -3200.00
02030               6.00    -3000.00
02031               0.00    -3200.00
02032               0.00    -3000.00
02033               0.00    -2800.00
02034               2.00    -3000.00
02035               6.00    -3000.00
02036               4.00    -2600.00
02037               0.00    -2600.00
02038               0.00    -2600.00
02039               0.00    -2600.00
02040               6.00    -2600.00
02041               6.00    -2600.00
02042               2.00    -2600.00
02043               2.00    -2400.00
02044               0.00    -2400.00
02045               0.00    -2400.00
02046               0.00    -2400.00
02047               2.00    -2400.00
02048               4.00    -2400.00
02049               2.00    -2200.00
02050               0.00    -2200.00
02051               0.00    -2200.00
02052               0.00    -2200.00
02053               0.00    -2200.00
02054               0.00    -2000.00
02055               2.00    -1800.00
02056               0.00    -1800.00
02057               2.00    -1800.00
02058               0.00    -1800.00
02059               0.00    -1800.00
02060              -2.00    -1600.00
02061               2.00    -1400.00
02062               2.00    -1400.00
02063               0.00    -1400.00
02064              -4.00    -1600.00
02065               0.00    -1400.00
02066               0.00    -1400.00
02067              -2.00    -1200.00
02068              -2.00    -1200.00
02069               0.00    -1200.00
02070               0.00    -1000.00
02071               0.00    -1000.00
02072              -6.00    -1000.00
02073              -2.00    -1000.00
02074              -2.00     -800.00
02075              -2.00     -800.00
02076               0.00     -800.00
02077              -2.00     -600.00
02078              -2.00     -600.00
02079              -6.00     -400.00
02080              -6.00     -400.00
02081              -2.00     -400.00
02082              -2.00     -200.00
02083              -2.00     -200.00
02084              -4.00     -200.00
02085              -6.00     -200.00
02086              -8.00        0.00
02087              -2.00        0.00
02088              -2.00      200.00
02089              -6.00      200.00
02090              -2.00      200.00
02091              -2.00      400.00
02092               0.00      200.00
02093               4.00      400.00
02094               6.00      400.00
02095              -2.00      600.00
02096              -8.00      600.00
02097              -8.00      600.00
02098               2.00      800.00
02099              76.00     1000.00
02100             182.00     1000.00
02101             -42.00     1200.00
02102            -254.00      800.00
02103            -194.00     1200.00
02104             246.00     1200.00
02105             246.00     1600.00
02106            -254.00     1000.00
02107            -254.00     1200.00
02108             246.00     1600.00
02109             246.00     1800.00
02110            -218.00     1400.00
02111            -254.00     1400.00
02112             216.00     2000.00
02113             246.00     1800.00
02114            -254.00     1600.00
02115            -254.00     1800.00
02116             246.00     2200.00
02117             122.00     1800.00
02118            -254.00     1800.00
02119              26.00     2200.00
02120             226.00     2200.00
02121            -164.00     2000.00
02122            -106.00     2200.00
02123             232.00     2400.00
02124             -30.00     2400.00
02125            -242.00     2400.00
02126              80.00     2600.00
02127             170.00     2600.00
02128             -94.00     2400.00
02129            -102.00     2600.00
02130              30.00     2600.00
02131              18.00     2600.00
02132              16.00     2600.00
02133             -30.00     2800.00
02134             -42.00     2600.00
02135              42.00     3000.00
02136              -2.00     3000.00
02137             -90.00     3000.00
02138              38.00     3200.00
02139              44.00     3200.00
02140             -80.00     3200.00
02141               0.00     3200.00
02142              54.00     3400.00
02143             -86.00     3200.00
02144             -24.00     3200.00
02145              78.00     3400.00
02146             -26.00     3400.00
02147             -64.00     3200.00
02148              22.00     3400.00
02149               0.00     3400.00
02150             -26.00     3400.00
02151               0.00     3600.00
02152             -14.00     3400.00
02153              -6.00     3600.00
02154               0.00     3800.00
02155             -32.00     3600.00
02156              -6.00     3800.00
02157              10.00     3600.00
02158             -34.00     3600.00
02159              -8.00     3800.00
02160              18.00     4000.00
02161             -30.00     3800.00
02162             -16.00     3800.00
02163              14.00     3800.00
02164             -22.00     3800.00
02165             -22.00     3800.00
02166              10.00     4000.00
02167              -6.00     4000.00
02168             -18.00     4200.00
02169             -10.00     4200.00
02170             -10.00     4000.00
02171              -6.00     4000.00
02172              -6.00     4200.00
02173             -16.00     4200.00
02174              -2.00     4200.00
02175              -6.00     4200.00
02176             -22.00     4000.00
02177              -8.00     4000.00
02178               0.00     4200.00
02179             -14.00     4200.00
02180             -10.00     4200.00
02181               0.00     4200.00
02182             -16.00     4200.00
02183             -16.00     4200.00
02184              -6.00     4200.00
02185              -8.00     4200.00
02186              -6.00     4000.00
02187              -6.00     4200.00
02188             -12.00     4200.00
02189             -14.00     4200.00
02190             -10.00     4200.00
02191             -10.00     4200.00
02192              -4.00     4200.00
02193             -10.00     4200.00
02194             -14.00     4200.00
02195              -8.00     4200.00
02196             -10.00     4200.00
02197             -18.00     4000.00
02198              -8.00     4200.00
02199              -2.00     4000.00
02200             -14.00     3800.00
02201             -10.00     4000.00
02202             -10.00     4000.00
02203             -16.00     4000.00
02204             -10.00     4000.00
02205              -6.00     4000.00
02206             -10.00     4000.00
02207             -10.00     4000.00
02208             -10.00     3800.00
02209             -10.00     4000.00
02210             -10.00     3800.00
02211             -12.00     4000.00
02212              -8.00     3800.00
02213              -2.00     4000.00
02214             -10.00     3800.00
02215             -16.00     3800.00
02216             -10.00     3800.00
02217              -6.00     3600.00
02218             -10.00     3600.00
02219              -8.00     3600.00
02220              -6.00     3600.00
02221             -10.00     3600.00
02222             -14.00     3400.00
02223             -10.00     3800.00
02224             -10.00     3400.00
02225             -10.00     3400.00
02226              -8.00     3400.00
02227              -6.00     3400.00
02228             -10.00     3200.00
02229             -14.00     3200.00
02230             -10.00     3200.00
02231              -8.00     3000.00
02232              -8.00     3200.00
02233              -6.00     3200.00
02234              -8.00     3000.00
02235             -10.00     3000.00
02236             -10.00     3000.00
02237              -8.00     3000.00
02238              -6.00     2600.00
02239              -8.00     2600.00
02240             -10.00     2600.00
02241              -8.00     2600.00
02242              -8.00     2600.00
02243              -8.00     2600.00
02244              -8.00     2600.00
02245              -6.00     2400.00
02246              -6.00     2400.00
02247              -8.00     2400.00
02248              -8.00     2200.00
02249              -6.00     2400.00
02250             -10.00     2200.00
02251              -6.00     2200.00
02252              -2.00     2200.00
02253              -2.00     2000.00
02254              -8.00     1800.00
02255              -6.00     1800.00
02256              -8.00     1800.00
02257             -10.00     1800.00
02258              -6.00     1800.00
02259              -4.00     1600.00
02260              -2.00     1600.00
02261              -8.00     1400.00
02262              -8.00     1600.00
02263              -6.00     1400.00
02264              -8.00     1400.00
02265              -4.00     1400.00
02266              -2.00     1400.00
02267              -2.00     1200.00
02268              -6.00     1000.00
02269             -10.00      800.00
02270              -8.00     1000.00
02271              -2.00     1000.00
02272              -6.00     1000.00
02273             -10.00      800.00
02274              -8.00      800.00
02275              -4.00      600.00
02276              -6.00      600.00
02277              -6.00      600.00
02278              -8.00      400.00
02279              -2.00      200.00
02280              -6.00      200.00
02281              -2.00      200.00
02282              -2.00        0.00
02283               0.00        0.00
02284               2.00      200.00
02285               6.00        0.00
02286               0.00     -200.00
02287             -10.00        0.00
02288              -8.00     -200.00
02289              -2.00     -200.00
02290              22.00     -200.00
02291              98.00     -200.00
02292             144.00     -600.00
02293            -126.00     -800.00
02294            -254.00     -600.00
02295             -90.00     -200.00
02296             246.00     -600.00
02297             246.00     -800.00
02298            -254.00    -1000.00
02299            -254.00     -800.00
02300             246.00    -1000.00
02301             246.00    -1000.00
02302            -202.00    -1000.00
02303            -254.00    -1000.00
02304             146.00    -1200.00
02305             246.00    -1400.00
02306            -100.00    -1400.00
02307            -200.00    -1400.00
02308              90.00    -1400.00
02309              24.00    -1600.00
02310               2.00    -1400.00
02311              62.00    -1800.00
02312             -50.00    -1600.00
02313            -152.00    -1600.00
02314             130.00    -1800.00
02315             182.00    -1800.00
02316            -156.00    -1800.00
02317            -160.00    -2000.00
02318             128.00    -2200.00
02319             138.00    -2000.00
02320             -74.00    -2200.00
02321             -80.00    -2200.00
02322               0.00    -2200.00
02323              62.00    -2200.00
02324              32.00    -2400.00
02325             -32.00    -2400.00
02326             -34.00    -2400.00
02327              38.00    -2600.00
02328              16.00    -2600.00
02329             -30.00    -2600.00
02330               6.00    -2600.00
02331              16.00    -2600.00
02332               6.00    -2600.00
02333               6.00    -2800.00
02334              -8.00    -2800.00
02335             -32.00    -3000.00
02336              28.00    -3000.00
02337              42.00    -3000.00
02338             -22.00    -3000.00
02339             -36.00    -3000.00
02340              22.00    -3000.00
02341              26.00    -3000.00
02342             -10.00    -3200.00
02343              -8.00    -3200.00
02344               6.00    -3200.00
02345              16.00    -3200.00
02346               8.00    -3400.00
02347              -6.00    -3200.00
02348              -8.00    -3200.00
02349               4.00    -3400.00
02350              14.00    -3400.00
02351               8.00    -3200.00
02352              -2.00    -3400.00
02353              -6.00    -3600.00
02354               6.00    -3400.00
02355               8.00    -3400.00
02356               0.00    -3400.00
02357              -4.00    -3400.00
02358              10.00    -3600.00
02359              14.00    -3600.00
02360               0.00    -3600.00
02361              -2.00    -3600.00
02362               2.00    -3800.00
02363               6.00    -3800.00
02364               8.00    -3800.00
02365              10.00    -3600.00
02366               4.00    -3600.00
02367              -2.00    -3800.00
02368               0.00    -3800.00
02369               8.00    -3800.00
02370               8.00    -3600.00
02371               6.00    -3800.00
02372               2.00    -3600.00
02373               4.00    -3800.00
02374               4.00    -3800.00
02375               0.00    -3800.00
02376               6.00    -3800.00
02377               8.00    -3800.00
02378               6.00    -3600.00
02379               6.00    -3800.00
02380               6.00    -3800.00
02381               0.00    -3800.00
02382               2.00    -3800.00
02383               6.00    -3600.00
02384               8.00    -3800.00
02385               6.00    -3800.00
02386               4.00    -3800.00
02387               4.00    -3800.00
02388               0.00    -3600.00
02389               2.00    -3800.00
02390               6.00    -3600.00
02391               6.00    -3800.00
02392               4.00    -3600.00
02393               0.00    -3800.00
02394               0.00    -3400.00
02395               6.00    -3400.00
02396               2.00    -3600.00
02397               2.00    -3400.00
02398               8.00    -3400.00
02399               6.00    -3400.00
02400               2.00    -3400.00
02401              -2.00    -3400.00
02402              -2.00    -3400.00
02403               6.00    -3400.00
02404               8.00    -3200.00
02405               2.00    -3400.00
02406               0.00    -3200.00
02407               0.00    -3200.00
02408               2.00    -3200.00
02409               6.00    -3200.00
02410               2.00    -3200.00
02411               6.00    -3200.00
02412               0.00    -3000.00
02413               0.00    -3000.00
02414               0.00    -3000.00
02415               0.00    -3000.00
02416               2.00    -3000.00
02417               2.00    -2800.00
02418               2.00    -2800.00
02419               2.00    -2600.00
02420               0.00    -2800.00
02421               0.00    -2600.00
02422               0.00    -2600.00
02423               0.00    -2600.00
02424               4.00    -2600.00
02425               0.00    -2600.00
02426               0.00    -2600.00
02427              -2.00    -2600.00
02428               0.00    -2400.00
02429               2.00    -2400.00
02430               2.00    -2400.00
02431               0.00    -2200.00
02432               0.00    -2200.00
02433               0.00    -2200.00
02434               0.00    -2200.00
02435               0.00    -2200.00
02436               0.00    -1800.00
02437               2.00    -2000.00
02438               0.00    -1800.00
02439               0.00    -1800.00
02440               4.00    -1600.00
02441               0.00    -1800.00
02442               0.00    -1600.00
02443              -2.00    -1600.00
02444               0.00    -1400.00
02445               2.00    -1400.00
02446               0.00    -1400.00
02447              -2.00    -1400.00
02448              -2.00    -1400.00
02449              -2.00    -1000.00
02450               0.00    -1000.00
02451               2.00    -1000.00
02452               2.00    -1000.00
02453              -2.00    -1000.00
02454              -2.00    -1000.00
02455              -6.00     -800.00
02456              -2.00     -800.00
02457               2.00     -800.00
02458               2.00     -600.00
02459              -2.00     -600.00
02460              -6.00     -600.00
02461              -8.00     -600.00
02462              -2.00     -400.00
02463               0.00     -400.00
02464               0.00     -200.00
02465              -6.00     -200.00
02466              -2.00     -200.00
02467              -2.00     -200.00
02468              -2.00        0.00
02469              -4.00        0.00
02470              -4.00        0.00
02471              -6.00      200.00
02472              -2.00      200.00
02473               0.00      200.00
02474               0.00      200.00
02475               0.00      400.00
02476               4.00      600.00
02477               0.00      400.00
02478              -6.00      600.00
02479             -10.00      600.00
02480              -6.00      800.00
02481              22.00      800.00
02482             146.00     1000.00
02483             126.00     1200.00
02484            -254.00     1000.00
02485            -254.00      800.00
02486             222.00     1200.00
02487             246.00     1600.00
02488             120.00     1400.00
02489            -254.00     1000.00
02490            -254.00     1400.00
02491             246.00     1800.00
02492             246.00     1600.00
02493            -254.00     1000.00
02494            -226.00     1800.00
02495             246.00     1800.00
02496              64.00     1600.00
02497            -254.00     1400.00
02498              78.00     2000.00
02499             246.00     2200.00
02500            -204.00     1600.00
02501            -204.00     2000.00
02502             230.00     2200.00
02503              36.00     2200.00
02504            -234.00     2200.00
02505             118.00     2400.00
02506             158.00     2400.00
02507            -212.00     2200.00
02508            -104.00     2600.00
02509             208.00     2600.00
02510              26.00     2600.00
02511            -136.00     2600.00
02512             -18.00     2600.00
02513              38.00     2800.00
02514              16.00     2600.00
02515              -2.00     2800.00
02516             -50.00     3000.00
02517               8.00     3000.00
02518              46.00     3000.00
02519             -66.00     3000.00
02520             -34.00     3000.00
02521              78.00     3200.00
02522             -32.00     3200.00
02523             -64.00     3000.00
02524              58.00     3400.00
02525             -20.00     3200.00
02526             -82.00     3200.00
02527              54.00     3400.00
02528              38.00     3400.00
02529             -78.00     3200.00
02530             -12.00     3400.00
02531              26.00     3400.00
02532             -24.00     3400.00
02533             -10.00     3600.00
02534              -6.00     3800.00
02535             -16.00     3400.00
02536               6.00     3800.00
02537             -16.00     3800.00
02538             -24.00     3800.00
02539              14.00     3800.00
02540             -16.00     3800.00
02541             -32.00     3800.00
02542              16.00     3800.00
02543              -6.00     4000.00
02544             -34.00     3800.00
02545               6.00     4000.00
02546              -2.00     4000.00
02547             -32.00     4000.00
02548              -2.00     4000.00
02549               8.00     4000.00
02550             -16.00     4000.00
02551             -16.00     4000.00
02552             -10.00     4200.00
02553             -10.00     4000.00
02554               0.00     4200.00
02555             -10.00     4200.00
02556             -14.00     4000.00
02557              -2.00     4000.00
02558             -16.00     4000.00
02559             -16.00     4000.00
02560               0.00     4200.00
02561             -10.00     4200.00
02562             -16.00     4200.00
02563               0.00     4200.00
02564              -8.00     4200.00
02565             -22.00     4000.00
02566             -10.00     4200.00
02567              -6.00     4200.00
02568             -10.00     4200.00
02569              -2.00     4200.00
02570             -10.00     4200.00
02571             -16.00     4200.00
02572             -14.00     4200.00
02573             -12.00     4200.00
02574              -2.00     4200.00
02575              -2.00     4200.00
02576             -16.00     4200.00
02577             -16.00     4200.00
02578              -6.00     4200.00
02579             -14.00     4200.00
02580             -10.00     4200.00
02581              -6.00     4200.00
02582             -10.00     4200.00
02583             -14.00     4000.00
02584              -8.00     4200.00
02585             -10.00     4000.00
02586             -14.00     4000.00
02587              -8.00     4000.00
02588              -8.00     4000.00
02589             -10.00     4000.00
02590             -10.00     4000.00
02591             -10.00     4000.00
02592             -10.00     4000.00
02593             -14.00     3800.00
02594             -10.00     3800.00
02595              -6.00     3800.00
02596             -10.00     3800.00
02597             -16.00     3800.00
02598             -12.00     3800.00
02599              -8.00     3800.00
02600             -12.00     3800.00
02601             -10.00     3400.00
02602              -6.00     3600.00
02603             -10.00     3800.00
02604             -10.00     3600.00
02605             -10.00     3400.00
02606             -10.00     3400.00
02607             -10.00     3400.00
02608              -8.00     3400.00
02609              -8.00     3400.00
02610              -6.00     3400.00
02611             -14.00     3400.00
02612             -14.00     3200.00
02613             -10.00     3000.00
02614              -8.00     3200.00
02615              -8.00     3200.00
02616              -8.00     3200.00
02617              -8.00     3000.00
02618             -14.00     3000.00
02619              -8.00     3000.00
02620              -6.00     3000.00
02621             -10.00     3000.00
02622             -10.00     2800.00
02623              -8.00     2600.00
02624              -2.00     2600.00
02625             -10.00     2600.00
02626              -8.00     2400.00
02627              -8.00     2600.00
02628               0.00     2400.00
02629              -8.00     2400.00
02630              -6.00     2400.00
02631              -8.00     2200.00
02632              -8.00     2200.00
02633             -10.00     2200.00
02634              -4.00     2400.00
02635              -2.00     2200.00
02636              -6.00     2000.00
02637              -6.00     2000.00
02638              -8.00     1800.00
02639              -8.00     1800.00
02640              -4.00     1800.00
02641              -2.00     1800.00
02642              -2.00     1600.00
02643              -8.00     1600.00
02644              -8.00     1600.00
02645              -6.00     1400.00
02646              -2.00     1400.00
02647              -6.00     1400.00
02648              -6.00     1400.00
02649               0.00     1400.00
02650              -2.00     1000.00
02651              -8.00     1200.00
02652              -8.00     1200.00
02653              -4.00      800.00
02654              -2.00      800.00
02655              -8.00      800.00
02656              -6.00      800.00
02657              -2.00      800.00
02658              -6.00      600.00
02659              -8.00      600.00
02660              -6.00      600.00
02661              -2.00      200.00
02662              -2.00      400.00
02663              -2.00      200.00
02664              -6.00      200.00
02665               0.00        0.00
02666               0.00        0.00
02667               6.00        0.00
02668               2.00        0.00
02669              -2.00        0.00
02670              -8.00     -200.00
02671              -2.00     -200.00
02672               6.00     -200.00
02673              50.00     -200.00
02674             146.00     -400.00
02675              50.00     -800.00
02676            -254.00     -800.00
02677            -254.00     -400.00
02678             246.00     -600.00
02679             246.00     -600.00
02680              -8.00    -1000.00
02681            -254.00     -800.00
02682            -178.00    -1000.00
02683             246.00    -1000.00
02684             246.00    -1000.00
02685            -254.00    -1200.00
02686            -218.00    -1000.00
02687             246.00    -1400.00
02688             114.00    -1200.00
02689            -234.00    -1400.00
02690             -30.00    -1400.00
02691              96.00    -1400.00
02692             -10.00    -1400.00
02693              32.00    -1600.00
02694              48.00    -1600.00
02695            -162.00    -1600.00
02696             -14.00    -1600.00
02697             218.00    -1800.00
02698              16.00    -1800.00
02699            -234.00    -1800.00
02700               2.00    -2000.00
02701             182.00    -2200.00
02702              26.00    -2200.00
02703            -106.00    -2200.00
02704             -40.00    -2200.00
02705              46.00    -2200.00
02706              56.00    -2400.00
02707              -6.00    -2400.00
02708             -64.00    -2200.00
02709              16.00    -2600.00
02710              54.00    -2600.00
02711              14.00    -2400.00
02712             -26.00    -2600.00
02713               6.00    -2600.00
02714             -10.00    -2600.00
02715              -4.00    -2800.00
02716               6.00    -3000.00
02717             -10.00    -2800.00
02718              10.00    -2600.00
02719              52.00    -3000.00
02720               0.00    -3000.00
02721             -50.00    -3000.00
02722               0.00    -3000.00
02723              40.00    -3000.00
02724               8.00    -3000.00
02725             -22.00    -3200.00
02726             -10.00    -3200.00
02727               6.00    -3200.00
02728              18.00    -3200.00
02729              10.00    -3400.00
02730              -8.00    -3200.00
02731              -8.00    -3400.00
02732              10.00    -3400.00
02733              16.00    -3400.00
02734               6.00    -3400.00
02735              -8.00    -3400.00
02736             -10.00    -3400.00
02737               2.00    -3400.00
02738               6.00    -3400.00
02739              -2.00    -3400.00
02740               8.00    -3400.00
02741              16.00    -3400.00
02742               2.00    -3600.00
02743              -2.00    -3600.00
02744               0.00    -3800.00
02745              -2.00    -3800.00
02746              -2.00    -3600.00
02747               2.00    -3800.00
02748              10.00    -3800.00
02749              10.00    -3600.00
02750               4.00    -3600.00
02751               0.00    -3800.00
02752               0.00    -3800.00
02753               6.00    -3600.00
02754               6.00    -3800.00
02755               2.00    -3800.00
02756              -4.00    -3800.00
02757              -6.00    -3800.00
02758               6.00    -3800.00
02759              16.00    -3800.00
02760              10.00    -3800.00
02761               4.00    -3800.00
02762              -2.00    -3800.00
02763              -2.00    -3800.00
02764               2.00    -3800.00
02765              10.00    -3600.00
02766              10.00    -3800.00
02767               2.00    -3800.00
02768              -6.00    -3800.00
02769               6.00    -3800.00
02770               6.00    -3800.00
02771               0.00    -3600.00
02772               2.00    -3800.00
02773               6.00    -3600.00
02774               8.00    -3600.00
02775               4.00    -3800.00
02776               2.00    -3600.00
02777               2.00    -3400.00
02778               2.00    -3400.00
02779               2.00    -3400.00
02780               6.00    -3400.00
02781               6.00    -3400.00
02782               2.00    -3400.00
02783               0.00    -3400.00
02784               2.00    -3400.00
02785               2.00    -3400.00
02786               2.00    -3200.00
02787               6.00    -3400.00
02788               2.00    -3400.00
02789               2.00    -3200.00
02790               2.00    -3200.00
02791               0.00    -3200.00
02792               0.00    -3200.00
02793               2.00    -3200.00
02794               6.00    -3000.00
02795               6.00    -3200.00
02796               0.00    -3000.00
02797               0.00    -3000.00
02798               0.00    -3000.00
02799               2.00    -2800.00
02800               2.00    -3000.00
02801               2.00    -3000.00
02802               0.00    -2800.00
02803              -2.00    -2800.00
02804              -2.00    -2600.00
02805               2.00    -2600.00
02806               2.00    -2600.00
02807               6.00    -2600.00
02808               0.00    -2600.00
02809              -2.00    -2400.00
02810              -2.00    -2400.00
02811               0.00    -2400.00
02812               2.00    -2400.00
02813               0.00    -2200.00
02814               0.00    -2200.00
02815               2.00    -2200.00
02816               0.00    -2200.00
02817              -2.00    -2000.00
02818              -2.00    -2000.00
02819               0.00    -1800.00
02820               2.00    -2200.00
02821               0.00    -1600.00
02822               0.00    -1800.00
02823               0.00    -1800.00
02824               0.00    -1800.00
02825               0.00    -1600.00
02826               2.00    -1600.00
02827               2.00    -1400.00
02828               0.00    -1400.00
02829              -2.00    -1400.00
02830              -2.00    -1400.00
02831               0.00    -1400.00
02832               0.00    -1200.00
02833               0.00    -1200.00
02834               2.00    -1000.00
02835               0.00    -1000.00
02836              -2.00    -1000.00
02837              -2.00     -800.00
02838              -2.00     -800.00
02839               0.00     -800.00
02840               2.00     -800.00
02841               2.00     -800.00
02842              -2.00     -600.00
02843              -2.00     -600.00
02844              -2.00     -600.00
02845               0.00     -400.00
02846              -2.00     -400.00
02847              -4.00     -400.00
02848              -2.00     -200.00
02849              -2.00     -200.00
02850              -2.00        0.00
02851              -8.00     -200.00
02852              -2.00        0.00
02853              -2.00        0.00
02854              -2.00      200.00
02855              -2.00      200.00
02856               0.00      200.00
02857               0.00      400.00
02858               2.00      200.00
02859               2.00      600.00
02860              -2.00      400.00
02861              -8.00      600.00
02862              -8.00      600.00
02863               2.00      600.00
02864              78.00     1000.00
02865             182.00     1000.00
02866             -68.00     1200.00
02867            -254.00     1000.00
02868            -158.00     1000.00
02869             246.00     1400.00
02870             246.00     1600.00
02871            -254.00      800.00
02872            -254.00     1200.00
02873             246.00     1800.00
02874             246.00     1800.00
02875            -254.00     1200.00
02876            -254.00     1400.00
02877             246.00     2000.00
02878             246.00     1800.00
02879            -254.00     1600.00
02880            -248.00     1800.00
02881             246.00     2200.00
02882              88.00     1800.00
02883            -254.00     1600.00
02884              50.00     2200.00
02885             214.00     2400.00
02886            -182.00     2000.00
02887             -82.00     2200.00
02888             238.00     2600.00
02889             -54.00     2200.00
02890            -238.00     2400.00
02891             102.00     2600.00
02892             160.00     2400.00
02893             -98.00     2400.00
02894             -94.00     2600.00
02895              32.00     2800.00
02896              22.00     2800.00
02897              14.00     2800.00
02898             -32.00     2800.00
02899             -34.00     2800.00
02900              48.00     3000.00
02901             -10.00     3000.00
02902             -88.00     3000.00
02903              48.00     3200.00
02904              42.00     3200.00
02905             -80.00     3000.00
02906               8.00     3200.00
02907              48.00     3400.00
02908             -82.00     3200.00
02909             -16.00     3400.00
02910              80.00     3400.00
02911             -36.00     3400.00
02912             -58.00     3400.00
02913              26.00     3800.00
02914              -2.00     3400.00
02915             -26.00     3400.00
02916               0.00     3600.00
02917             -16.00     3600.00
02918              -6.00     3600.00
02919               0.00     3600.00
02920             -30.00     4000.00
02921              -2.00     3800.00
02922               8.00     3800.00
02923             -34.00     3800.00
02924              -2.00     3800.00
02925              16.00     3800.00
02926             -34.00     3800.00
02927             -20.00     4000.00
02928              14.00     4000.00
02929             -22.00     4000.00
02930             -22.00     4000.00
02931               8.00     4000.00
02932             -10.00     3800.00
02933             -20.00     4200.00
02934             -10.00     4200.00
02935             -12.00     4000.00
02936             -10.00     4000.00
02937             -10.00     4200.00
02938             -18.00     4200.00
02939              -6.00     4200.00
02940              -2.00     4200.00
02941             -24.00     4200.00
02942             -10.00     4200.00
02943              -2.00     4200.00
02944             -14.00     4200.00
02945              -8.00     4200.00
02946              -2.00     4200.00
02947             -22.00     4000.00
02948             -16.00     4000.00
02949              -6.00     4200.00
02950             -10.00     4200.00
02951              -8.00     4200.00
02952             -10.00     4200.00
02953             -14.00     4200.00
02954             -10.00     4200.00
02955             -10.00     4200.00
02956             -10.00     4200.00
02957              -2.00     4000.00
02958              -8.00     4200.00
02959             -14.00     4200.00
02960             -10.00     4000.00
02961             -10.00     4200.00
02962             -16.00     4200.00
02963              -6.00     4200.00
02964              -2.00     4200.00
02965             -14.00     4200.00
02966             -10.00     4200.00
02967              -8.00     4000.00
02968             -14.00     4000.00
02969             -10.00     4000.00
02970              -6.00     4000.00
02971              -8.00     4000.00
02972             -10.00     4000.00
02973             -10.00     4000.00
02974             -10.00     3800.00
02975             -10.00     3800.00
02976             -10.00     3800.00
02977              -8.00     4000.00
02978              -2.00     4000.00
02979             -10.00     3800.00
02980             -16.00     3800.00
02981             -10.00     3600.00
02982             -10.00     3400.00
02983             -14.00     3400.00
02984              -8.00     3800.00
02985              -6.00     3400.00
02986             -12.00     3400.00
02987             -14.00     3600.00
02988             -12.00     3600.00
02989             -10.00     3400.00
02990             -10.00     3400.00
02991              -8.00     3400.00
02992              -8.00     3400.00
02993             -10.00     3200.00
02994             -14.00     3200.00
02995             -10.00     3200.00
02996              -8.00     3000.00
02997              -8.00     3200.00
02998              -8.00     3000.00
02999              -8.00     3000.00
03000             -10.00     3000.00
03001             -14.00     3000.00
03002              -6.00     3000.00
03003              -8.00     2800.00
03004             -10.00     2800.00
03005             -10.00     2600.00
03006              -6.00     2600.00
03007              -8.00     2600.00
03008             -10.00     2600.00
03009             -10.00     2400.00
03010              -4.00     2400.00
03011              -6.00     2400.00
03012              -8.00     2200.00
03013             -10.00     2200.00
03014             -10.00     2200.00
03015             -10.00     2200.00
03016              -6.00     2200.00
03017              -2.00     2200.00
03018              -6.00     2000.00
03019              -8.00     1800.00
03020              -6.00     1800.00
03021              -6.00     1800.00
03022              -8.00     1800.00
03023              -6.00     1600.00
03024              -4.00     1600.00
03025              -2.00     1600.00
03026              -8.00     1600.00
03027              -8.00     1600.00
03028              -2.00     1400.00
03029              -4.00     1400.00
03030              -6.00     1400.00
03031              -4.00     1200.00
03032               0.00     1000.00
03033              -6.00     1200.00
03034              -8.00     1000.00
03035              -2.00     1000.00
03036              -6.00     1000.00
03037              -2.00      800.00
03038              -2.00      800.00
03039              -2.00      600.00
03040               0.00      800.00
03041              -2.00      400.00
03042              -8.00      600.00
03043              -6.00      600.00
03044               0.00      200.00
03045              -2.00      200.00
03046              -6.00      200.00
03047               0.00      200.00
03048               2.00        0.00
03049               6.00        0.00
03050               6.00        0.00
03051              -2.00     -200.00
03052              -8.00     -200.00
03053              -6.00     -200.00
03054               0.00     -200.00
03055              18.00     -200.00
03056             104.00     -600.00
03057             142.00     -600.00
03058            -150.00    -1000.00
03059            -254.00     -600.00
03060             -50.00     -400.00
03061             246.00     -800.00
03062             246.00     -800.00
03063            -254.00    -1000.00
03064            -254.00     -600.00
03065             246.00    -1000.00
03066             246.00    -1000.00
03067            -250.00    -1200.00
03068            -254.00    -1200.00
03069             182.00    -1400.00
03070             246.00    -1200.00
03071            -126.00    -1200.00
03072            -184.00    -1400.00
03073             102.00    -1400.00
03074              20.00    -1400.00
03075               2.00    -1600.00
03076              64.00    -1800.00
03077             -66.00    -1800.00
03078            -144.00    -1600.00
03079             146.00    -2000.00
03080             168.00    -1800.00
03081            -174.00    -1800.00
03082            -150.00    -2000.00
03083             142.00    -2000.00
03084             130.00    -2200.00
03085             -82.00    -2200.00
03086             -78.00    -2200.00
03087               2.00    -2200.00
03088              64.00    -2200.00
03089              30.00    -2400.00
03090             -34.00    -2400.00
03091             -32.00    -2400.00
03092              36.00    -2600.00
03093              14.00    -2600.00
03094             -30.00    -2600.00
03095               8.00    -2600.00
03096              14.00    -2600.00
03097               6.00    -2600.00
03098              10.00    -3000.00
03099              -6.00    -2800.00
03100             -32.00    -2600.00
03101              30.00    -2800.00
03102              42.00    -3000.00
03103             -24.00    -3000.00
03104             -32.00    -2800.00
03105              24.00    -3000.00
03106              22.00    -3000.00
03107             -10.00    -3200.00
03108              -8.00    -3000.00
03109               6.00    -3000.00
03110              14.00    -3200.00
03111               6.00    -3200.00
03112              -2.00    -3200.00
03113              -8.00    -3200.00
03114               2.00    -3400.00
03115              10.00    -3400.00
03116               6.00    -3400.00
03117              -2.00    -3400.00
03118              -2.00    -3400.00
03119               8.00    -3400.00
03120               8.00    -3400.00
03121              -4.00    -3800.00
03122              -6.00    -3600.00
03123              10.00    -3400.00
03124              14.00    -3600.00
03125              -2.00    -3600.00
03126              -6.00    -3600.00
03127               4.00    -3800.00
03128               6.00    -3600.00
03129               8.00    -3800.00
03130               6.00    -3800.00
03131               0.00    -3800.00
03132              -2.00    -3800.00
03133               2.00    -3800.00
03134               6.00    -3800.00
03135               6.00    -3800.00
03136               6.00    -3800.00
03137               2.00    -3800.00
03138               2.00    -3800.00
03139               0.00    -3800.00
03140               0.00    -3800.00
03141               6.00    -3800.00
03142               8.00    -3800.00
03143               6.00    -4000.00
03144               6.00    -3800.00
03145               2.00    -3800.00
03146              -2.00    -3800.00
03147               0.00    -3800.00
03148              10.00    -3800.00
03149              10.00    -3800.00
03150               6.00    -3800.00
03151               0.00    -3800.00
03152               2.00    -3800.00
03153               2.00    -3800.00
03154               6.00    -3800.00
03155               6.00    -3800.00
03156               6.00    -3600.00
03157               2.00    -3600.00
03158               0.00    -3800.00
03159               2.00    -3600.00
03160               2.00    -3600.00
03161               4.00    -3400.00
03162               6.00    -3400.00
03163               6.00    -3400.00
03164               0.00    -3600.00
03165               2.00    -3400.00
03166               2.00    -3400.00
03167               0.00    -3200.00
03168               2.00    -3400.00
03169               6.00    -3200.00
03170               6.00    -3400.00
03171               2.00    -3400.00
03172               0.00    -3200.00
03173               6.00    -3200.00
03174               2.00    -3200.00
03175               0.00    -3200.00
03176               4.00    -3200.00
03177               6.00    -3200.00
03178               0.00    -3000.00
03179               0.00    -3000.00
03180               0.00    -3000.00
03181               0.00    -3000.00
03182               2.00    -3000.00
03183               6.00    -2800.00
03184               2.00    -2800.00
03185              -2.00    -2800.00
03186              -2.00    -2600.00
03187               0.00    -2600.00
03188               2.00    -2600.00
03189               2.00    -2600.00
03190               2.00    -2600.00
03191               0.00    -2400.00
03192               0.00    -2600.00
03193               0.00    -2400.00
03194               2.00    -2400.00
03195               2.00    -2400.00
03196               0.00    -2400.00
03197               0.00    -2200.00
03198               2.00    -2200.00
03199               0.00    -2200.00
03200               0.00    -2200.00
03201               0.00    -1800.00
03202               2.00    -2000.00
03203               2.00    -1800.00
03204               2.00    -1800.00
03205              -2.00    -1800.00
03206              -2.00    -1800.00
03207               0.00    -1600.00
03208               0.00    -1600.00
03209               2.00    -1600.00
03210               0.00    -1400.00
03211               0.00    -1400.00
03212              -2.00    -1400.00
03213              -2.00    -1200.00
03214              -2.00    -1400.00
03215               2.00    -1200.00
03216               2.00    -1000.00
03217               0.00    -1000.00
03218              -2.00    -1000.00
03219              -2.00    -1000.00
03220              -2.00     -800.00
03221               0.00     -600.00
03222               0.00     -800.00
03223               2.00     -600.00
03224               0.00     -600.00
03225              -2.00     -600.00
03226              -6.00     -600.00
03227               0.00     -400.00
03228              -2.00     -400.00
03229              -2.00     -200.00
03230              -2.00     -200.00
03231               0.00     -200.00
03232               0.00     -200.00
03233              -2.00     -200.00
03234              -6.00        0.00
03235               0.00        0.00
03236               0.00      200.00
03237               0.00      200.00
03238               0.00      200.00
03239               0.00      200.00
03240               0.00      400.00
03241               8.00      600.00
03242               0.00      600.00
03243              -6.00      600.00
03244              -6.00      600.00
03245              -8.00      800.00
03246              28.00      600.00
03247             150.00      800.00
03248             114.00     1200.00
03249            -254.00     1000.00
03250            -254.00      800.00
03251             246.00     1200.00
03252             246.00     1600.00
03253              52.00     1200.00
03254            -254.00      800.00
03255            -234.00     1400.00
03256             246.00     1800.00
03257             246.00     1600.00
03258            -254.00     1200.00
03259            -176.00     1800.00
03260             246.00     1800.00
03261              12.00     1600.00
03262            -254.00     1600.00
03263             118.00     2000.00
03264             246.00     1800.00
03265            -232.00     1600.00
03266            -184.00     2000.00
03267             238.00     2400.00
03268               8.00     2200.00
03269            -226.00     2000.00
03270             138.00     2400.00
03271             138.00     2400.00
03272            -224.00     2200.00
03273             -84.00     2600.00
03274             210.00     2600.00
03275               8.00     2600.00
03276            -138.00     2600.00
03277             -10.00     2600.00
03278              32.00     2600.00
03279              16.00     2600.00
03280              -2.00     2800.00
03281             -54.00     2800.00
03282              10.00     2800.00
03283              42.00     3000.00
03284             -74.00     3000.00
03285             -28.00     3000.00
03286              80.00     3200.00
03287             -40.00     3200.00
03288             -58.00     3000.00
03289              62.00     3400.00
03290             -24.00     3200.00
03291             -78.00     3200.00
03292              58.00     3400.00
03293              30.00     3400.00
03294             -78.00     3200.00
03295              -6.00     3400.00
03296              22.00     3600.00
03297             -26.00     3400.00
03298              -6.00     3600.00
03299              -4.00     3800.00
03300             -14.00     3400.00
03301               6.00     3600.00
03302             -20.00     3800.00
03303             -22.00     3600.00
03304              16.00     3800.00
03305             -22.00     3800.00
03306             -30.00     3800.00
03307              16.00     3800.00
03308             -10.00     3800.00
03309             -36.00     4000.00
03310               8.00     3800.00
03311              -2.00     4000.00
03312             -32.00     3800.00
03313              -2.00     4000.00
03314               6.00     4200.00
03315             -18.00     4000.00
03316             -16.00     4000.00
03317             -14.00     4000.00
03318             -10.00     4000.00
03319              -2.00     4200.00
03320             -14.00     4000.00
03321             -12.00     4200.00
03322              -2.00     4000.00
03323             -16.00     4000.00
03324             -20.00     4000.00
03325               0.00     4200.00
03326             -12.00     4000.00
03327             -16.00     4200.00
03328               0.00     4200.00
03329             -10.00     4000.00
03330             -24.00     4000.00
03331             -10.00     4200.00
03332              -6.00     4000.00
03333             -10.00     4000.00
03334              -6.00     4200.00
03335             -12.00     4200.00
03336             -16.00     4200.00
03337             -10.00     4200.00
03338             -14.00     4200.00
03339              -8.00     4000.00
03340              -2.00     4200.00
03341             -12.00     4200.00
03342             -14.00     4200.00
03343              -8.00     4200.00
03344             -14.00     4000.00
03345             -10.00     4200.00
03346              -2.00     4000.00
03347             -10.00     4200.00
03348             -14.00     4000.00
03349              -8.00     4000.00
03350             -10.00     4000.00
03351             -14.00     4000.00
03352              -8.00     4000.00
03353              -8.00     4000.00
03354             -10.00     4000.00
03355              -8.00     4000.00
03356              -8.00     3800.00
03357             -10.00     4000.00
03358             -12.00     3800.00
03359             -10.00     3800.00
03360              -4.00     3800.00
03361              -2.00     3800.00
03362             -14.00     3800.00
03363             -14.00     3800.00
03364              -8.00     3800.00
03365              -8.00     3600.00
03366             -10.00     3600.00
03367              -2.00     3600.00
03368             -10.00     3600.00
03369             -14.00     3600.00
03370             -10.00     3400.00
03371              -8.00     3400.00
03372              -8.00     3400.00
03373             -10.00     3200.00
03374              -8.00     3200.00
03375              -8.00     3200.00
03376             -12.00     3200.00
03377             -12.00     3400.00
03378              -8.00     3200.00
03379              -4.00     3000.00
03380              -8.00     3000.00
03381              -8.00     3000.00
03382              -8.00     3000.00
03383             -10.00     2800.00
03384             -10.00     3000.00
03385              -2.00     3000.00
03386             -10.00     2800.00
03387             -10.00     2600.00
03388             -10.00     2600.00
03389              -8.00     2600.00
03390              -8.00     2600.00
03391             -10.00     2600.00
03392              -8.00     2400.00
03393              -6.00     2600.00
03394              -8.00     2400.00
03395              -8.00     2400.00
03396              -8.00     2200.00
03397             -10.00     2200.00
03398             -12.00     2200.00
03399              -6.00     2200.00
03400              -2.00     2200.00
03401              -2.00     2000.00
03402              -8.00     2000.00
03403              -4.00     1800.00
03404              -6.00     1800.00
03405              -6.00     1800.00
03406              -6.00     1600.00
03407              -2.00     1600.00
03408              -8.00     1600.00
03409              -8.00     1600.00
03410              -2.00     1400.00
03411              -6.00     1200.00
03412              -6.00     1400.00
03413              -6.00     1400.00
03414               0.00     1000.00
03415               0.00     1200.00
03416              -6.00     1000.00
03417             -10.00     1200.00
03418              -4.00      800.00
03419              -2.00      800.00
03420              -2.00      800.00
03421              -2.00      800.00
03422              -2.00      600.00
03423              -2.00      800.00
03424              -8.00      600.00
03425              -6.00      600.00
03426               0.00      400.00
03427               0.00      400.00
03428              -2.00      200.00
03429              -4.00      200.00
03430              -2.00      200.00
03431               2.00      200.00
03432               8.00        0.00
03433               2.00        0.00
03434              -6.00     -200.00
03435              -8.00     -200.00
03436              -2.00     -200.00
03437              10.00     -200.00
03438              54.00     -600.00
03439             146.00     -600.00
03440              34.00     -800.00
03441            -254.00     -800.00
03442            -254.00     -400.00
03443             246.00     -600.00
03444             246.00     -600.00
03445             -76.00    -1200.00
03446            -254.00     -800.00
03447            -122.00    -1000.00
03448             246.00     -800.00
03449             208.00    -1000.00
03450            -254.00    -1000.00
03451            -180.00    -1200.00
03452             246.00    -1400.00
03453              86.00    -1200.00
03454            -238.00    -1400.00
03455             -12.00    -1600.00
03456              82.00    -1400.00
03457             -10.00    -1400.00
03458              32.00    -1600.00
03459              34.00    -1800.00
03460            -170.00    -1600.00
03461               2.00    -1600.00
03462             218.00    -2000.00
03463              -8.00    -1800.00
03464            -230.00    -1800.00
03465              22.00    -1800.00
03466             180.00    -2200.00
03467               6.00    -2200.00
03468            -106.00    -2200.00
03469             -32.00    -2200.00
03470              46.00    -2200.00
03471              48.00    -2400.00
03472              -2.00    -2400.00
03473             -50.00    -2600.00
03474              16.00    -2600.00
03475              28.00    -2400.00
03476             -16.00    -2400.00
03477             -18.00    -2600.00
03478              24.00    -2600.00
03479              10.00    -2600.00
03480               8.00    -2600.00
03481               6.00    -2800.00
03482             -32.00    -2800.00
03483               0.00    -2800.00
03484              50.00    -3000.00
03485              14.00    -3000.00
03486             -46.00    -3000.00
03487               0.00    -3000.00
03488              32.00    -3000.00
03489               8.00    -3000.00
03490             -14.00    -3000.00
03491               2.00    -3200.00
03492               8.00    -3200.00
03493              10.00    -3200.00
03494               2.00    -3200.00
03495              -8.00    -3200.00
03496               0.00    -3400.00
03497              10.00    -3200.00
03498              12.00    -3400.00
03499               2.00    -3400.00
03500              -6.00    -3400.00
03501               0.00    -3400.00
03502              10.00    -3400.00
03503               6.00    -3600.00
03504              -6.00    -3600.00
03505               2.00    -3800.00
03506              14.00    -3400.00
03507               4.00    -3600.00
03508              -8.00    -3800.00
03509               0.00    -3800.00
03510               6.00    -3600.00
03511               8.00    -3400.00
03512               6.00    -3600.00
03513               0.00    -3800.00
03514              -2.00    -3800.00
03515               0.00    -3800.00
03516               2.00    -3800.00
03517               2.00    -3800.00
03518               4.00    -3800.00
03519               2.00    -3800.00
03520               6.00    -3800.00
03521               4.00    -3800.00
03522              -4.00    -3800.00
03523               0.00    -3600.00
03524               8.00    -3800.00
03525               8.00    -3800.00
03526               2.00    -4000.00
03527               2.00    -4000.00
03528              -2.00    -3800.00
03529              -2.00    -3800.00
03530               6.00    -3800.00
03531              10.00    -3600.00
03532               8.00    -3800.00
03533               0.00    -3800.00
03534               0.00    -3800.00
03535               0.00    -3600.00
03536               2.00    -3800.00
03537               8.00    -3800.00
03538               6.00    -3600.00
03539               4.00    -3600.00
03540               0.00    -3600.00
03541               2.00    -3600.00
03542               2.00    -3400.00
03543               2.00    -3400.00
03544               6.00    -3400.00
03545               8.00    -3400.00
03546               2.00    -3400.00
03547               2.00    -3400.00
03548               2.00    -3400.00
03549               2.00    -3400.00
03550               2.00    -3400.00
03551               6.00    -3400.00
03552               8.00    -3200.00
03553               0.00    -3400.00
03554               2.00    -3200.00
03555               2.00    -3200.00
03556               6.00    -3200.00
03557               2.00    -3000.00
03558               2.00    -3200.00
03559               6.00    -3000.00
03560               4.00    -3200.00
03561               2.00    -3000.00
03562               0.00    -3000.00
03563               0.00    -3000.00
03564               2.00    -3000.00
03565               6.00    -2800.00
03566               6.00    -3000.00
03567               0.00    -2800.00
03568              -2.00    -2600.00
03569               0.00    -2600.00
03570               2.00    -2600.00
03571               2.00    -2600.00
03572               2.00    -2600.00
03573               2.00    -2400.00
03574               0.00    -2600.00
03575              -2.00    -2400.00
03576              -2.00    -2400.00
03577               2.00    -2400.00
03578               2.00    -2200.00
03579              -2.00    -2200.00
03580               0.00    -2200.00
03581               2.00    -2200.00
03582               0.00    -2200.00
03583               0.00    -2000.00
03584               0.00    -2000.00
03585               2.00    -1800.00
03586               0.00    -1800.00
03587              -4.00    -1800.00
03588               0.00    -1800.00
03589              -2.00    -1600.00
03590               0.00    -1600.00
03591               0.00    -1600.00
03592               0.00    -1400.00
03593               0.00    -1400.00
03594               2.00    -1400.00
03595               0.00    -1400.00
03596              -4.00    -1200.00
03597              -2.00    -1200.00
03598               0.00    -1200.00
03599               0.00    -1000.00
03600               0.00    -1000.00
03601              -6.00    -1000.00
03602              -4.00     -800.00
03603               0.00     -800.00
03604               0.00     -800.00
03605               0.00     -800.00
03606               2.00     -800.00
03607              -2.00     -600.00
03608              -6.00     -600.00
03609              -2.00     -600.00
03610               0.00     -400.00
03611               0.00     -200.00
03612              -4.00     -200.00
03613              -2.00     -200.00
03614              -2.00     -200.00
03615              -2.00     -200.00
03616              -6.00        0.00
03617              -2.00        0.00
03618               0.00        0.00
03619               0.00      200.00
03620              -2.00      200.00
03621               0.00      200.00
03622               2.00      400.00
03623               6.00      400.00
03624               6.00      400.00
03625              -6.00      600.00
03626              -8.00      600.00
03627              -2.00      600.00
03628               8.00      800.00
03629              86.00      800.00
03630             176.00     1200.00
03631             -98.00     1000.00
03632            -254.00      800.00
03633            -110.00     1200.00
03634             246.00     1400.00
03635             246.00     1600.00
03636            -254.00      800.00
03637            -254.00     1200.00
03638             246.00     1600.00
03639             246.00     1800.00
03640            -254.00     1200.00
03641            -254.00     1400.00
03642             246.00     1800.00
03643             246.00     1800.00
03644            -254.00     1400.00
03645            -212.00     1800.00
03646             246.00     2200.00
03647              48.00     1800.00
03648            -254.00     1600.00
03649              78.00     2200.00
03650             198.00     2200.00
03651            -198.00     2200.00
03652             -60.00     2200.00
03653             232.00     2200.00
03654             -80.00     2400.00
03655            -226.00     2400.00
03656             120.00     2600.00
03657             142.00     2600.00
03658            -114.00     2400.00
03659             -86.00     2600.00
03660              38.00     2600.00
03661              22.00     2600.00
03662              14.00     2600.00
03663             -42.00     3000.00
03664             -38.00     2800.00
03665              48.00     3000.00
03666             -16.00     3000.00
03667             -80.00     2800.00
03668              56.00     3200.00
03669              30.00     3000.00
03670             -84.00     3200.00
03671              14.00     3400.00
03672              46.00     3400.00
03673             -82.00     3200.00
03674              -6.00     3200.00
03675              70.00     3400.00
03676             -46.00     3200.00
03677             -54.00     3400.00
03678              26.00     3600.00
03679              -2.00     3400.00
03680             -24.00     3400.00
03681               6.00     3800.00
03682              -8.00     3600.00
03683               2.00     3800.00
03684              -2.00     3800.00
03685             -40.00     3800.00
03686             -10.00     3800.00
03687               0.00     3800.00
03688             -32.00     3800.00
03689              12.00     4000.00
03690              26.00     3800.00
03691             -32.00     4000.00
03692             -14.00     3800.00
03693              14.00     4000.00
03694             -30.00     4000.00
03695             -24.00     3800.00
03696               6.00     4000.00
03697             -10.00     4000.00
03698             -16.00     4000.00
03699              -6.00     4000.00
03700             -14.00     4000.00
03701              -8.00     4000.00
03702              -4.00     4000.00
03703             -10.00     4200.00
03704              -2.00     4200.00
03705             -14.00     4200.00
03706             -30.00     4000.00
03707             -10.00     4200.00
03708              -2.00     4200.00
03709             -16.00     4000.00
03710              -2.00     4200.00
03711              -2.00     4200.00
03712             -18.00     4000.00
03713             -16.00     4200.00
03714              -2.00     4200.00
03715             -10.00     4000.00
03716             -14.00     4200.00
03717             -16.00     4200.00
03718             -18.00     4000.00
03719             -10.00     4200.00
03720              -8.00     4200.00
03721              -8.00     4200.00
03722               0.00     4200.00
03723              -8.00     4000.00
03724             -18.00     4200.00
03725             -10.00     4000.00
03726             -10.00     4200.00
03727             -16.00     4000.00
03728              -8.00     4000.00
03729              -6.00     4000.00
03730             -10.00     4000.00
03731              -6.00     4000.00
03732              -8.00     4200.00
03733             -16.00     4000.00
03734             -14.00     4000.00
03735              -6.00     4000.00
03736              -8.00     3800.00
03737             -10.00     4000.00
03738             -10.00     4000.00
03739             -10.00     3800.00
03740              -6.00     4000.00
03741             -10.00     4000.00
03742              -8.00     3800.00
03743              -6.00     3800.00
03744             -10.00     3800.00
03745             -14.00     3800.00
03746             -10.00     3800.00
03747              -8.00     3600.00
03748              -6.00     3600.00
03749              -2.00     3600.00
03750              -8.00     3400.00
03751             -14.00     3400.00
03752             -10.00     3400.00
03753              -6.00     3400.00
03754              -8.00     3400.00
03755              -8.00     3400.00
03756              -8.00     3200.00
03757              -6.00     3400.00
03758             -10.00     3400.00
03759             -10.00     3200.00
03760             -10.00     3200.00
03761              -6.00     3200.00
03762              -6.00     3200.00
03763              -8.00     3000.00
03764              -8.00     3000.00
03765             -10.00     3000.00
03766             -12.00     2800.00
03767              -8.00     2800.00
03768              -6.00     2600.00
03769             -10.00     2800.00
03770              -8.00     2600.00
03771              -6.00     2600.00
03772             -10.00     2600.00
03773             -10.00     2600.00
03774              -8.00     2400.00
03775              -2.00     2400.00
03776              -8.00     2200.00
03777              -8.00     2400.00
03778              -8.00     2200.00
03779             -10.00     2400.00
03780             -10.00     2200.00
03781              -8.00     2200.00
03782              -2.00     2200.00
03783              -6.00     2200.00
03784             -14.00     1800.00
03785              -8.00     1800.00
03786              -6.00     1800.00
03787              -8.00     1600.00
03788              -6.00     1800.00
03789              -8.00     1600.00
03790              -4.00     1400.00
03791              -8.00     1400.00
03792             -10.00     1400.00
03793              -2.00     1400.00
03794              -4.00     1400.00
03795              -8.00     1400.00
03796              -6.00     1400.00
03797               0.00     1000.00
03798              -6.00     1200.00
03799             -10.00     1000.00
03800              -6.00     1000.00
03801              -2.00      800.00
03802              -2.00      800.00
03803              -6.00      800.00
03804              -2.00      800.00
03805              -2.00      600.00
03806              -2.00      600.00
03807              -8.00      600.00
03808              -2.00      600.00
03809              -2.00      400.00
03810              -2.00      200.00
03811              -2.00      200.00
03812               2.00      200.00
03813               0.00        0.00
03814               4.00      200.00
03815               6.00        0.00
03816               0.00        0.00
03817              -8.00     -200.00
03818              -4.00     -200.00
03819               2.00     -200.00
03820              22.00     -400.00
03821             112.00     -200.00
03822             134.00     -600.00
03823            -176.00     -800.00
03824            -254.00     -600.00
03825              -6.00     -600.00
03826             246.00     -600.00
03827             246.00    -1000.00
03828            -254.00    -1200.00
03829            -254.00     -800.00
03830             246.00    -1000.00
03831             246.00    -1000.00
03832            -254.00    -1000.00
03833            -254.00    -1000.00
03834             218.00    -1400.00
03835             246.00    -1400.00
03836            -144.00    -1400.00
03837            -170.00    -1400.00
03838             102.00    -1400.00
03839              12.00    -1400.00
03840               8.00    -1600.00
03841              64.00    -1800.00
03842             -82.00    -1600.00
03843            -134.00    -1600.00
03844             160.00    -2000.00
03845             154.00    -1800.00
03846            -192.00    -2000.00
03847            -130.00    -1800.00
03848             150.00    -2200.00
03849             118.00    -2000.00
03850             -94.00    -2200.00
03851             -74.00    -2200.00
03852               8.00    -2200.00
03853              64.00    -2200.00
03854              24.00    -2400.00
03855             -38.00    -2400.00
03856             -26.00    -2400.00
03857              38.00    -2600.00
03858               8.00    -2600.00
03859             -32.00    -2600.00
03860              10.00    -2600.00
03861              14.00    -2600.00
03862               4.00    -2600.00
03863               8.00    -3000.00
03864             -12.00    -3000.00
03865             -28.00    -2800.00
03866              34.00    -3000.00
03867              40.00    -2800.00
03868             -28.00    -3000.00
03869             -30.00    -3000.00
03870              26.00    -3200.00
03871              22.00    -3000.00
03872             -10.00    -3200.00
03873              -6.00    -3000.00
03874               8.00    -3200.00
03875              10.00    -3200.00
03876               6.00    -3200.00
03877              -2.00    -3400.00
03878              -6.00    -3400.00
03879               6.00    -3400.00
03880              10.00    -3400.00
03881               6.00    -3400.00
03882               0.00    -3400.00
03883              -2.00    -3400.00
03884               8.00    -3400.00
03885              10.00    -3400.00
03886              -2.00    -3600.00
03887              -2.00    -3400.00
03888              12.00    -3400.00
03889              10.00    -3600.00
03890              -2.00    -3800.00
03891              -2.00    -3800.00
03892               6.00    -3800.00
03893               6.00    -3800.00
03894               6.00    -3600.00
03895               2.00    -3800.00
03896               0.00    -3800.00
03897              -2.00    -3800.00
03898               4.00    -3800.00
03899               2.00    -3800.00
03900               4.00    -3800.00
03901               6.00    -3800.00
03902               6.00    -3800.00
03903               2.00    -3800.00
03904               0.00    -3800.00
03905              -2.00    -3800.00
03906               6.00    -3800.00
03907               8.00    -3800.00
03908               6.00    -3800.00
03909               2.00    -3800.00
03910               0.00    -3600.00
03911               0.00    -3800.00
03912               2.00    -3800.00
03913               8.00    -3600.00
03914               6.00    -3600.00
03915               4.00    -3800.00
03916               2.00    -3800.00
03917               2.00    -3800.00
03918               0.00    -3600.00
03919               2.00    -3600.00
03920               6.00    -3800.00
03921               6.00    -3400.00
03922               2.00    -3800.00
03923               0.00    -3600.00
03924               2.00    -3600.00
03925               2.00    -3400.00
03926               6.00    -3400.00
03927               8.00    -3400.00
03928               6.00    -3400.00
03929               0.00    -3400.00
03930               2.00    -3400.00
03931               6.00    -3400.00
03932               2.00    -3400.00
03933               6.00    -3400.00
03934               6.00    -3400.00
03935               8.00    -3200.00
03936               2.00    -3200.00
03937              -2.00    -3200.00
03938               4.00    -3000.00
03939               2.00    -3200.00
03940               6.00    -3000.00
03941               2.00    -3000.00
03942               6.00    -3200.00
03943               2.00    -3000.00
03944               0.00    -3000.00
03945               0.00    -3000.00
03946               0.00    -2800.00
03947               6.00    -3000.00
03948               6.00    -2800.00
03949               4.00    -3000.00
03950              -2.00    -2800.00
03951               0.00    -2600.00
03952               0.00    -2600.00
03953               6.00    -2600.00
03954               4.00    -2600.00
03955               2.00    -2600.00
03956              -2.00    -2400.00
03957               0.00    -2600.00
03958              -2.00    -2400.00
03959               2.00    -2400.00
03960               2.00    -2400.00
03961               0.00    -2200.00
03962               0.00    -2200.00
03963               0.00    -2200.00
03964               0.00    -2200.00
03965              -2.00    -2200.00
03966               0.00    -1800.00
03967               0.00    -1800.00
03968               2.00    -1800.00
03969              -2.00    -1800.00
03970              -2.00    -1800.00
03971              -2.00    -1600.00
03972              -2.00    -1600.00
03973               2.00    -1600.00
03974               0.00    -1400.00
03975              -2.00    -1400.00
03976              -2.00    -1400.00
03977               0.00    -1400.00
03978              -2.00    -1400.00
03979              -6.00    -1200.00
03980              -2.00    -1000.00
03981               0.00    -1000.00
03982               0.00    -1000.00
03983              -2.00    -1000.00
03984              -2.00    -1000.00
03985               0.00     -800.00
03986              -2.00     -800.00
03987               0.00     -800.00
03988               0.00     -600.00
03989               0.00     -600.00
03990              -6.00     -600.00
03991              -6.00     -600.00
03992              -2.00     -600.00
03993               0.00     -400.00
03994               0.00     -200.00
03995              -2.00     -200.00
03996              -2.00     -200.00
03997               0.00     -200.00
03998              -2.00        0.00
03999              -2.00        0.00
04000              -2.00        0.00
04001              -2.00        0.00
04002               0.00      200.00
04003               2.00      200.00
04004               0.00      200.00
04005               0.00      600.00
04006               2.00      200.00
04007               0.00      400.00
04008              -2.00      600.00
04009              -6.00      800.00
04010              -2.00      600.00
04011              34.00      800.00
04012             158.00     1200.00
04013              96.00     1200.00
04014            -254.00     1000.00
04015            -254.00     1000.00
04016             246.00     1400.00
04017             246.00     1400.00
04018             -30.00     1200.00
04019            -254.00      800.00
04020            -166.00     1600.00
04021             246.00     1600.00
04022             230.00     1400.00
04023            -254.00     1200.00
04024            -122.00     1800.00
04025             246.00     1800.00
04026             -42.00     1600.00
04027            -254.00     1600.00
04028             158.00     2200.00
04029             246.00     2200.00
04030            -254.00     1600.00
04031            -154.00     2200.00
04032             246.00     2200.00
04033             -20.00     2200.00
04034            -218.00     2200.00
04035             160.00     2400.00
04036             116.00     2200.00
04037            -234.00     2200.00
04038             -64.00     2600.00
04039             212.00     2600.00
04040              -8.00     2400.00
04041            -138.00     2400.00
04042              -8.00     2600.00
04043              32.00     2600.00
04044              16.00     2800.00
04045             -10.00     2800.00
04046             -56.00     2800.00
04047              16.00     3000.00
04048              38.00     3000.00
04049             -80.00     3000.00
04050             -20.00     3000.00
04051              74.00     3200.00
04052             -48.00     3200.00
04053             -50.00     3000.00
04054              62.00     3400.00
04055             -36.00     3200.00
04056             -70.00     3200.00
04057              64.00     3400.00
04058              22.00     3400.00
04059             -78.00     3200.00
04060               0.00     3400.00
04061              22.00     3400.00
04062             -26.00     3400.00
04063              -8.00     3400.00
04064              -6.00     3600.00
04065             -14.00     3800.00
04066               6.00     3800.00
04067             -18.00     3800.00
04068             -18.00     3800.00
04069              16.00     4000.00
04070             -26.00     3800.00
04071             -26.00     4000.00
04072              22.00     3800.00
04073             -10.00     3800.00
04074             -34.00     4000.00
04075               8.00     4000.00
04076              -2.00     4000.00
04077             -30.00     3800.00
04078               2.00     4000.00
04079               2.00     4000.00
04080             -16.00     4000.00
04081             -10.00     4000.00
04082             -10.00     4200.00
04083             -10.00     4000.00
04084              -2.00     4200.00
04085             -10.00     4200.00
04086             -10.00     4000.00
04087              -2.00     4200.00
04088             -22.00     4000.00
04089             -16.00     4000.00
04090               0.00     4000.00
04091             -12.00     4000.00
04092             -16.00     4200.00
04093              -2.00     4200.00
04094             -10.00     4000.00
04095             -22.00     4000.00
04096              -8.00     4200.00
04097              -8.00     4200.00
04098             -10.00     4000.00
04099              -8.00     4200.00
04100             -12.00     4200.00
04101             -14.00     4200.00
04102             -12.00     4200.00
04103             -16.00     4000.00
04104              -8.00     4000.00
04105              -2.00     4200.00
04106             -14.00     4200.00
04107             -14.00     4200.00
04108             -12.00     4000.00
04109             -16.00     4000.00
04110             -10.00     4200.00
04111              -2.00     4200.00
04112             -14.00     4000.00
04113             -14.00     4200.00
04114              -8.00     4000.00
04115             -10.00     4200.00
04116             -16.00     4000.00
04117              -6.00     4000.00
04118              -6.00     4000.00
04119              -8.00     4000.00
04120             -16.00     4000.00
04121             -16.00     3800.00
04122             -10.00     3800.00
04123             -10.00     3800.00
04124             -10.00     3800.00
04125              -6.00     3800.00
04126              -8.00     3800.00
04127             -12.00     3800.00
04128             -10.00     3800.00
04129              -6.00     3800.00
04130             -12.00     3800.00
04131              -8.00     3800.00
04132              -6.00     3600.00
04133              -8.00     3600.00
04134             -12.00     3800.00
04135             -10.00     3400.00
04136              -8.00     3400.00
04137              -8.00     3400.00
04138              -8.00     3200.00
04139              -8.00     3400.00
04140              -6.00     3200.00
04141             -14.00     3400.00
04142             -10.00     3200.00
04143              -8.00     3200.00
04144              -6.00     3000.00
04145              -8.00     3200.00
04146              -6.00     3000.00
04147              -6.00     3000.00
04148             -10.00     3000.00
04149             -10.00     2800.00
04150              -6.00     3000.00
04151              -6.00     2800.00
04152              -8.00     2800.00
04153             -10.00     2600.00
04154             -10.00     2600.00
04155              -8.00     2600.00
04156              -2.00     2600.00
04157              -8.00     2400.00
04158              -6.00     2400.00
04159             -10.00     2200.00
04160              -8.00     2200.00
04161              -8.00     2400.00
04162             -10.00     2200.00
04163             -12.00     2200.00
04164              -8.00     2000.00
04165              -6.00     2200.00
04166              -6.00     2000.00
04167              -8.00     1800.00
04168              -8.00     1800.00
04169              -8.00     1800.00
04170             -10.00     1800.00
04171              -6.00     1600.00
04172               0.00     1600.00
04173              -6.00     1600.00
04174             -10.00     1400.00
04175             -10.00     1400.00
04176              -4.00     1400.00
04177              -8.00     1400.00
04178              -2.00     1400.00
04179              -4.00     1200.00
04180              -4.00     1000.00
04181             -10.00     1200.00
04182              -8.00     1000.00
04183              -2.00     1000.00
04184              -2.00      800.00
04185              -6.00      800.00
04186              -2.00      600.00
04187              -4.00      600.00
04188              -6.00      800.00
04189              -8.00      600.00
04190              -8.00      600.00
04191              -2.00      200.00
04192               0.00      400.00
04193              -2.00      200.00
04194               0.00        0.00
04195              -2.00        0.00
04196               0.00        0.00
04197               8.00        0.00
04198               2.00        0.00
04199              -6.00        0.00
04200             -10.00     -200.00
04201              -2.00     -200.00
04202              10.00     -200.00
04203              58.00     -200.00
04204             150.00     -400.00
04205              16.00     -800.00
04206            -254.00     -600.00
04207            -254.00     -400.00
04208             246.00     -600.00
04209             246.00     -800.00
04210            -150.00    -1000.00
04211            -254.00     -800.00
04212             -50.00     -800.00
04213             246.00    -1000.00
04214             144.00    -1000.00
04215            -254.00    -1000.00
04216            -128.00    -1200.00
04217             246.00    -1400.00
04218              50.00    -1200.00
04219            -240.00    -1400.00
04220               8.00    -1400.00
04221              80.00    -1400.00
04222             -10.00    -1400.00
04223              36.00    -1600.00
04224              24.00    -1600.00
04225            -170.00    -1600.00
04226              26.00    -1800.00
04227             216.00    -2000.00
04228             -32.00    -1800.00
04229            -230.00    -2000.00
04230              38.00    -2200.00
04231             178.00    -2000.00
04232             -10.00    -2200.00
04233            -108.00    -2400.00
04234             -26.00    -2200.00
04235              50.00    -2200.00
04236              50.00    -2400.00
04237             -10.00    -2200.00
04238             -54.00    -2400.00
04239              18.00    -2600.00
04240              30.00    -2600.00
04241             -18.00    -2600.00
04242             -16.00    -2600.00
04243              24.00    -2600.00
04244               6.00    -2600.00
04245               8.00    -2800.00
04246               2.00    -2600.00
04247             -32.00    -3000.00
04248               6.00    -3000.00
04249              50.00    -3000.00
04250               6.00    -3000.00
04251             -42.00    -3000.00
04252               6.00    -3200.00
04253              32.00    -3200.00
04254               0.00    -3000.00
04255             -10.00    -3200.00
04256               6.00    -3000.00
04257              12.00    -3200.00
04258               8.00    -3200.00
04259               2.00    -3200.00
04260              -4.00    -3200.00
04261               0.00    -3400.00
04262               8.00    -3200.00
04263               8.00    -3200.00
04264               6.00    -3400.00
04265              -2.00    -3800.00
04266               0.00    -3400.00
04267              10.00    -3600.00
04268               8.00    -3600.00
04269               0.00    -3400.00
04270               6.00    -3600.00
04271              14.00    -3400.00
04272               6.00    -3800.00
04273              -2.00    -3600.00
04274               0.00    -3800.00
04275               6.00    -3600.00
04276               8.00    -3600.00
04277               8.00    -3800.00
04278               4.00    -3600.00
04279               0.00    -3800.00
04280               0.00    -3800.00
04281               6.00    -3800.00
04282               6.00    -3800.00
04283               2.00    -3800.00
04284               2.00    -3600.00
04285               6.00    -3800.00
04286               2.00    -3800.00
04287              -2.00    -3800.00
04288               2.00    -3800.00
04289               8.00    -3800.00
04290               6.00    -4000.00
04291               2.00    -3800.00
04292               2.00    -3800.00
04293               0.00    -3800.00
04294               0.00    -3800.00
04295               6.00    -3800.00
04296               8.00    -3800.00
04297               4.00    -3800.00
04298               0.00    -3800.00
04299               0.00    -3800.00
04300               2.00    -3800.00
04301               2.00    -3600.00
04302               2.00    -3800.00
04303               8.00    -3600.00
04304               2.00    -3600.00
04305               0.00    -3600.00
04306               2.00    -3600.00
04307               0.00    -3400.00
04308              -2.00    -3600.00
04309               6.00    -3400.00
04310               6.00    -3400.00
04311               2.00    -3600.00
04312              -2.00    -3400.00
04313               0.00    -3400.00
04314               6.00    -3400.00
04315               0.00    -3400.00
04316               4.00    -3200.00
04317               6.00    -3200.00
04318               0.00    -3200.00
04319               2.00    -3200.00
04320              -2.00    -3200.00
04321               2.00    -3200.00
04322               6.00    -3200.00
04323               2.00    -3200.00
04324               2.00    -3000.00
04325               0.00    -3000.00
04326               0.00    -3000.00
04327               2.00    -3000.00
04328               2.00    -3000.00
04329               2.00    -3000.00
04330               6.00    -2800.00
04331               6.00    -3000.00
04332               2.00    -2600.00
04333              -2.00    -2600.00
04334               0.00    -2600.00
04335               2.00    -2600.00
04336               6.00    -2600.00
04337               6.00    -2600.00
04338               0.00    -2600.00
04339               0.00    -2400.00
04340               2.00    -2400.00
04341               0.00    -2400.00
04342               6.00    -2200.00
04343               2.00    -2200.00
04344               0.00    -2200.00
04345               0.00    -2200.00
04346               0.00    -2200.00
04347               0.00    -2000.00
04348              -2.00    -2200.00
04349               0.00    -1800.00
04350               0.00    -1800.00
04351               4.00    -1800.00
04352               0.00    -1800.00
04353              -2.00    -1600.00
04354              -4.00    -1600.00
04355              -2.00    -1600.00
04356               2.00    -1600.00
04357               2.00    -1400.00
04358              -2.00    -1600.00
04359              -6.00    -1400.00
04360              -2.00    -1400.00
04361               0.00    -1400.00
04362              -2.00    -1200.00
04363               0.00    -1000.00
04364              -2.00    -1000.00
04365              -2.00    -1000.00
04366              -6.00    -1000.00
04367              -2.00    -1000.00
04368               0.00     -800.00
04369              -6.00     -800.00
04370              -6.00     -800.00
04371              -2.00     -600.00
04372               0.00     -600.00
04373              -6.00     -600.00
04374              -8.00     -600.00
04375              -2.00     -600.00
04376              -2.00     -400.00
04377               0.00     -200.00
04378               0.00     -200.00
04379              -4.00     -200.00
04380              -4.00     -200.00
04381              -2.00        0.00
04382              -2.00        0.00
04383              -2.00        0.00
04384              -2.00      200.00
04385               0.00      200.00
04386               0.00      200.00
04387               0.00      200.00
04388               6.00      600.00
04389               2.00      600.00
04390              -2.00      600.00
04391             -10.00      800.00
04392              -4.00      600.00
04393               8.00      800.00
04394              94.00     1200.00
04395             172.00     1200.00
04396            -128.00     1000.00
04397            -254.00      800.00
04398             -60.00     1200.00
04399             246.00     1400.00
04400             246.00     1600.00
04401            -254.00      800.00
04402            -254.00     1400.00
04403             246.00     1600.00
04404             246.00     1800.00
04405            -254.00     1200.00
04406            -254.00     1400.00
04407             246.00     2000.00
04408             246.00     1800.00
04409            -254.00     1400.00
04410            -170.00     2200.00
04411             246.00     2200.00
04412               8.00     1800.00
04413            -254.00     1800.00
04414             106.00     2200.00
04415             182.00     2200.00
04416            -212.00     2200.00
04417             -38.00     2400.00
04418             230.00     2400.00
04419             -98.00     2200.00
04420            -216.00     2400.00
04421             138.00     2600.00
04422             128.00     2400.00
04423            -118.00     2400.00
04424             -78.00     2600.00
04425              38.00     2600.00
04426              18.00     2600.00
04427              10.00     2600.00
04428             -42.00     3000.00
04429             -32.00     2800.00
04430              50.00     3000.00
04431             -26.00     3000.00
04432             -82.00     3000.00
04433              60.00     3200.00
04434              22.00     3000.00
04435             -82.00     3000.00
04436              24.00     3200.00
04437              34.00     3200.00
04438             -90.00     3200.00
04439               2.00     3400.00
04440              70.00     3400.00
04441             -50.00     3400.00
04442             -48.00     3400.00
04443              30.00     3400.00
04444              -8.00     3600.00
04445             -26.00     3400.00
04446               0.00     3600.00
04447             -14.00     3600.00
04448               2.00     3600.00
04449              -6.00     3800.00
04450             -30.00     3600.00
04451               6.00     3800.00
04452               6.00     3800.00
04453             -34.00     3800.00
04454               2.00     3800.00
04455              16.00     4000.00
04456             -34.00     3800.00
04457             -10.00     3800.00
04458              14.00     4000.00
04459             -26.00     3800.00
04460             -16.00     4000.00
04461              10.00     4200.00
04462             -10.00     4000.00
04463             -16.00     4000.00
04464             -10.00     4000.00
04465             -14.00     4000.00
04466              -6.00     4200.00
04467              -6.00     4200.00
04468             -14.00     4000.00
04469              -2.00     4000.00
04470             -10.00     4200.00
04471             -22.00     4200.00
04472              -2.00     4200.00
04473               0.00     4200.00
04474             -20.00     4000.00
04475              -6.00     4200.00
04476              -2.00     4200.00
04477             -18.00     4000.00
04478             -16.00     4200.00
04479              -8.00     4200.00
04480              -8.00     4200.00
04481              -6.00     4000.00
04482             -10.00     4200.00
04483             -16.00     4200.00
04484             -14.00     4200.00
04485             -10.00     4200.00
04486              -8.00     4200.00
04487              -8.00     4000.00
04488             -14.00     4200.00
04489             -16.00     4000.00
04490              -8.00     4200.00
04491             -14.00     4000.00
04492             -16.00     4000.00
04493              -6.00     4200.00
04494              -6.00     4000.00
04495             -16.00     4200.00
04496             -10.00     4000.00
04497             -10.00     4000.00
04498             -14.00     4000.00
04499             -12.00     4000.00
04500              -8.00     4000.00
04501             -10.00     4000.00
04502             -14.00     3800.00
04503             -14.00     4000.00
04504             -10.00     3800.00
04505             -10.00     3800.00
04506             -12.00     3800.00
04507             -10.00     3800.00
04508              -6.00     3800.00
04509             -10.00     3800.00
04510             -10.00     3800.00
04511             -10.00     3800.00
04512             -14.00     3800.00
04513             -14.00     3600.00
04514              -8.00     3600.00
04515              -6.00     3600.00
04516             -10.00     3600.00
04517             -14.00     3400.00
04518             -10.00     3400.00
04519              -8.00     3400.00
04520              -8.00     3400.00
04521              -6.00     3400.00
04522              -8.00     3400.00
04523             -10.00     3400.00
04524             -14.00     3200.00
04525             -10.00     3200.00
04526              -4.00     3200.00
04527              -6.00     3000.00
04528              -8.00     3000.00
04529              -6.00     3000.00
04530             -10.00     3000.00
04531             -10.00     3000.00
04532              -6.00     3000.00
04533              -6.00     3000.00
04534              -8.00     2600.00
04535             -10.00     2800.00
04536              -6.00     2800.00
04537              -8.00     2600.00
04538              -6.00     2600.00
04539              -6.00     2400.00
04540              -4.00     2400.00
04541              -6.00     2400.00
04542              -8.00     2400.00
04543             -10.00     2400.00
04544              -8.00     2200.00
04545             -10.00     2200.00
04546              -8.00     2200.00
04547              -6.00     2000.00
04548              -6.00     2200.00
04549             -10.00     2000.00
04550              -8.00     1800.00
04551              -8.00     1800.00
04552             -10.00     1800.00
04553              -8.00     1800.00
04554              -6.00     1600.00
04555              -6.00     1600.00
04556              -6.00     1400.00
04557             -10.00     1600.00
04558              -8.00     1400.00
04559              -8.00     1400.00
04560              -6.00     1400.00
04561              -6.00     1000.00
04562              -6.00     1200.00
04563              -6.00     1200.00
04564             -10.00     1000.00
04565              -6.00     1000.00
04566              -6.00      800.00
04567              -2.00      800.00
04568              -6.00      800.00
04569              -6.00      800.00
04570              -6.00      600.00
04571              -8.00      600.00
04572              -6.00      400.00
04573              -2.00      400.00
04574              -2.00      400.00
04575              -4.00      200.00
04576               0.00      200.00
04577               0.00      200.00
04578               0.00      200.00
04579               2.00        0.00
04580               6.00        0.00
04581               0.00     -200.00
04582              -8.00     -200.00
04583              -8.00     -200.00
04584               2.00     -200.00
04585              26.00     -200.00
04586             118.00     -400.00
04587             126.00     -600.00
04588            -208.00     -800.00
04589            -254.00     -600.00
04590              44.00     -400.00
04591             246.00     -600.00
04592             246.00    -1000.00
04593            -254.00    -1000.00
04594            -254.00     -600.00
04595             246.00    -1000.00
04596             246.00    -1000.00
04597            -254.00    -1000.00
04598            -254.00    -1000.00
04599             246.00    -1400.00
04600             246.00    -1200.00
04601            -154.00    -1200.00
04602            -150.00    -1400.00
04603             104.00    -1400.00
04604               6.00    -1400.00
04605              14.00    -1600.00
04606              66.00    -1800.00
04607             -96.00    -1600.00
04608            -122.00    -1800.00
04609             172.00    -1800.00
04610             146.00    -1800.00
04611            -200.00    -1800.00
04612            -120.00    -2000.00
04613             150.00    -2200.00
04614             104.00    -2000.00
04615             -88.00    -2200.00
04616             -64.00    -2200.00
04617               6.00    -2200.00
04618              56.00    -2400.00
04619              22.00    -2400.00
04620             -36.00    -2200.00
04621             -16.00    -2600.00
04622              36.00    -2600.00
04623               0.00    -2600.00
04624             -34.00    -2600.00
04625              16.00    -2600.00
04626              16.00    -2600.00
04627               2.00    -2600.00
04628               6.00    -3000.00
04629             -16.00    -2800.00
04630             -30.00    -2800.00
04631              38.00    -3000.00
04632              36.00    -3000.00
04633             -34.00    -2800.00
04634             -30.00    -3200.00
04635              28.00    -3200.00
04636              20.00    -3000.00
04637             -10.00    -3200.00
04638              -4.00    -3000.00
04639               8.00    -3000.00
04640              14.00    -3200.00
04641               6.00    -3200.00
04642              -2.00    -3400.00
04643              -6.00    -3200.00
04644               6.00    -3400.00
04645              10.00    -3200.00
04646               6.00    -3400.00
04647               0.00    -3400.00
04648              -2.00    -3400.00
04649               8.00    -3400.00
04650              10.00    -3400.00
04651              -2.00    -3400.00
04652               0.00    -3400.00
04653              10.00    -3600.00
04654              10.00    -3400.00
04655              -2.00    -3800.00
04656               0.00    -3600.00
04657               6.00    -3600.00
04658               8.00    -3600.00
04659               8.00    -3800.00
04660               2.00    -3800.00
04661               2.00    -3600.00
04662               2.00    -3800.00
04663               0.00    -3800.00
04664               4.00    -3600.00
04665               2.00    -3800.00
04666               6.00    -3600.00
04667               8.00    -3600.00
04668               6.00    -3800.00
04669              -2.00    -3800.00
04670              -2.00    -3800.00
04671               8.00    -3800.00
04672              10.00    -3600.00
04673               6.00    -3800.00
04674               0.00    -3600.00
04675               2.00    -3800.00
04676               2.00    -3800.00
04677               2.00    -3800.00
04678               6.00    -3800.00
04679               6.00    -3600.00
04680               2.00    -3800.00
04681               2.00    -3800.00
04682               2.00    -3800.00
04683               0.00    -3800.00
04684               6.00    -3600.00
04685               6.00    -3400.00
04686               6.00    -3600.00
04687               2.00    -3800.00
04688               4.00    -3600.00
04689               0.00    -3600.00
04690              -2.00    -3400.00
04691               0.00    -3400.00
04692              10.00    -3600.00
04693               8.00    -3400.00
04694               0.00    -3400.00
04695              -2.00    -3400.00
04696               0.00    -3400.00
04697               2.00    -3400.00
04698               2.00    -3400.00
04699               4.00    -3400.00
04700               0.00    -3400.00
04701               0.00    -3400.00
04702              -2.00    -3400.00
04703               2.00    -3400.00
04704               2.00    -3200.00
04705               6.00    -3200.00
04706               2.00    -3000.00
04707               0.00    -3000.00
04708               0.00    -3000.00
04709               0.00    -3000.00
04710               2.00    -3000.00
04711               2.00    -3000.00
04712               0.00    -2600.00
04713               2.00    -2800.00
04714               6.00    -2800.00
04715               0.00    -3000.00
04716               0.00    -2600.00
04717               2.00    -2600.00
04718               6.00    -2600.00
04719               6.00    -2600.00
04720               2.00    -2600.00
04721               0.00    -2600.00
04722               0.00    -2400.00
04723               2.00    -2400.00
04724               0.00    -2400.00
04725               2.00    -2400.00
04726               0.00    -2200.00
04727               0.00    -2200.00
04728               0.00    -2200.00
04729               2.00    -2200.00
04730               0.00    -1800.00
04731               0.00    -2000.00
04732               0.00    -1800.00
04733               0.00    -1800.00
04734               4.00    -1800.00
04735               0.00    -1800.00
04736              -2.00    -1600.00
04737              -4.00    -1600.00
04738              -2.00    -1600.00
04739               2.00    -1600.00
04740               2.00    -1400.00
04741               0.00    -1400.00
04742              -6.00    -1400.00
04743              -4.00    -1400.00
04744              -2.00    -1400.00
04745               0.00    -1200.00
04746               2.00    -1000.00
04747               0.00    -1000.00
04748              -6.00    -1000.00
04749              -6.00    -1000.00
04750               0.00     -800.00
04751               0.00    -1000.00
04752              -2.00     -800.00
04753              -2.00     -600.00
04754               0.00     -800.00
04755              -2.00     -600.00
04756              -8.00     -600.00
04757              -6.00     -400.00
04758               0.00     -600.00
04759               0.00     -400.00
04760              -2.00     -200.00
04761              -2.00        0.00
04762              -6.00     -200.00
04763              -8.00        0.00
04764              -2.00        0.00
04765               0.00      200.00
04766              -2.00      200.00
04767              -2.00      200.00
04768               0.00      200.00
04769               0.00      200.00
04770               4.00      200.00
04771               8.00      600.00
04772               0.00      400.00
04773             -10.00      600.00
04774             -10.00      800.00
04775               0.00      600.00
04776              44.00      800.00
04777             166.00     1000.00
04778              72.00     1200.00
04779            -254.00      800.00
04780            -254.00      800.00
04781             246.00     1400.00
04782             246.00     1600.00
04783            -110.00     1400.00
04784            -254.00     1000.00
04785             -90.00     1600.00
04786             246.00     1800.00
04787             150.00     1600.00
04788            -254.00     1200.00
04789             -58.00     1600.00
04790             246.00     1800.00
04791            -102.00     1600.00
04792            -254.00     1800.00
04793             202.00     2000.00
04794             246.00     2000.00
04795            -254.00     1800.00
04796            -128.00     2200.00
04797             246.00     2400.00
04798             -38.00     2200.00
04799            -210.00     2200.00
04800             160.00     2400.00
04801              94.00     2200.00
04802            -224.00     2400.00
04803             -30.00     2600.00
04804             206.00     2600.00
04805             -38.00     2200.00
04806            -138.00     2600.00
04807              14.00     2600.00
04808              34.00     2600.00
04809              10.00     2600.00
04810             -10.00     3000.00
04811             -50.00     2600.00
04812              24.00     3000.00
04813              24.00     3000.00
04814             -94.00     3000.00
04815              -8.00     3000.00
04816              88.00     3200.00
04817             -46.00     3000.00
04818             -54.00     3000.00
04819              52.00     3400.00
04820             -48.00     3200.00
04821             -56.00     3200.00
04822              80.00     3400.00
04823              12.00     3400.00
04824             -88.00     3400.00
04825               0.00     3400.00
04826              22.00     3600.00
04827             -22.00     3400.00
04828              -4.00     3400.00
04829             -10.00     3800.00
04830             -18.00     3800.00
04831               6.00     3600.00
04832             -22.00     3800.00
04833             -16.00     3800.00
04834              14.00     3800.00
04835             -26.00     3800.00
04836             -26.00     3800.00
04837              22.00     3800.00
04838             -14.00     3800.00
04839             -32.00     3800.00
04840              14.00     4000.00
04841              -8.00     4000.00
04842             -30.00     4000.00
04843               2.00     4000.00
04844               0.00     4000.00
04845             -18.00     4000.00
04846             -10.00     4000.00
04847             -10.00     4200.00
04848             -10.00     4000.00
04849              -2.00     4000.00
04850             -14.00     4200.00
04851             -10.00     4000.00
04852               0.00     4200.00
04853             -20.00     4000.00
04854             -14.00     4000.00
04855               0.00     4200.00
04856             -10.00     4000.00
04857             -14.00     4200.00
04858               0.00     4200.00
04859             -14.00     4000.00
04860             -18.00     4000.00
04861              -8.00     4200.00
04862              -6.00     4000.00
04863              -8.00     4200.00
04864              -8.00     4200.00
04865             -10.00     4200.00
04866             -14.00     4000.00
04867             -14.00     4200.00
04868             -14.00     4200.00
04869              -6.00     4200.00
04870              -4.00     4000.00
04871             -14.00     4200.00
04872             -14.00     4200.00
04873              -8.00     4000.00
04874             -16.00     4000.00
04875             -10.00     4200.00
04876              -2.00     4200.00
04877             -10.00     4000.00
04878             -14.00     4000.00
04879             -10.00     4000.00
04880             -14.00     4000.00
04881             -14.00     4000.00
04882              -6.00     4000.00
04883              -8.00     3800.00
04884             -10.00     4000.00
04885             -10.00     3800.00
04886             -14.00     3800.00
04887             -10.00     3800.00
04888             -12.00     3800.00
04889             -12.00     4000.00
04890              -6.00     3800.00
04891             -10.00     3800.00
04892             -14.00     3800.00
04893             -10.00     3600.00
04894             -10.00     3800.00
04895             -14.00     3800.00
04896             -10.00     3800.00
04897              -2.00     3800.00
04898              -8.00     3400.00
04899             -10.00     3400.00
04900             -10.00     3400.00
04901             -10.00     3400.00
04902             -10.00     3400.00
04903              -8.00     3400.00
04904              -8.00     3400.00
04905             -10.00     3400.00
04906             -12.00     3400.00
04907             -14.00     3200.00
04908              -8.00     3400.00
04909              -6.00     3200.00
04910              -6.00     3000.00
04911              -8.00     3000.00
04912             -10.00     3000.00
04913             -10.00     3000.00
04914             -10.00     3000.00
04915              -4.00     3000.00
04916             -10.00     3000.00
04917             -10.00     2600.00
04918              -6.00     2600.00
04919              -6.00     2600.00
04920             -10.00     2600.00
04921              -8.00     2600.00
04922              -4.00     2400.00
04923              -6.00     2400.00
04924              -8.00     2400.00
04925              -8.00     2400.00
04926              -6.00     2200.00
04927             -10.00     2200.00
04928              -8.00     2200.00
04929              -2.00     2200.00
04930              -2.00     2200.00
04931              -6.00     2200.00
04932              -6.00     2000.00
04933              -6.00     1800.00
04934              -8.00     1800.00
04935              -8.00     1800.00
04936              -4.00     1800.00
04937              -2.00     1600.00
04938              -6.00     1400.00
04939             -10.00     1600.00
04940              -8.00     1400.00
04941              -6.00     1400.00
04942              -6.00     1400.00
04943              -6.00     1200.00
04944              -2.00     1400.00
04945              -6.00     1200.00
04946              -8.00     1000.00
04947              -8.00     1000.00
04948              -2.00      800.00
04949              -2.00      800.00
04950              -6.00      800.00
04951              -6.00      800.00
04952              -2.00      600.00
04953              -2.00      600.00
04954              -8.00      600.00
04955              -6.00      400.00
04956              -2.00      200.00
04957              -2.00      200.00
04958              -4.00      200.00
04959              -2.00      200.00
04960              -2.00        0.00
04961               0.00        0.00
04962               6.00        0.00
04963               2.00        0.00
04964              -6.00     -200.00
04965              -6.00     -200.00
04966              -2.00     -200.00
04967              12.00     -200.00
04968              66.00     -200.00
04969             152.00     -600.00
04970              -6.00     -800.00
04971            -254.00     -600.00
04972            -254.00     -400.00
04973             246.00     -600.00
04974             246.00     -600.00
04975            -222.00    -1200.00
04976            -254.00     -800.00
04977              16.00     -800.00
04978             246.00     -800.00
04979              84.00    -1000.00
04980            -254.00    -1000.00
04981             -78.00    -1000.00
04982             246.00    -1400.00
04983              26.00    -1000.00
04984            -240.00    -1400.00
04985              24.00    -1400.00
04986              74.00    -1400.00
04987              -8.00    -1400.00
04988              38.00    -1600.00
04989              16.00    -1800.00
04990            -170.00    -1600.00
04991              46.00    -1800.00
04992             218.00    -1800.00
04993             -56.00    -1800.00
04994            -218.00    -1800.00
04995              54.00    -1800.00
04996             178.00    -2000.00
04997             -18.00    -2000.00
04998            -102.00    -2200.00
04999             -24.00    -2200.00
05000              52.00    -2200.00
