Unit:(mV)
                     CH1         CH2
Frequency              ? 261.444 kHz
00001             -38.00     -800.00
00002            -254.00     -600.00
00003            -254.00     -400.00
00004             246.00     -600.00
00005             246.00     -800.00
00006            -254.00    -1200.00
00007            -254.00     -800.00
00008             -54.00    -1000.00
00009             246.00    -1000.00
00010             246.00    -1000.00
00011            -254.00    -1000.00
00012            -254.00    -1200.00
00013             246.00    -1400.00
00014             242.00    -1000.00
00015             -90.00    -1400.00
00016             -82.00    -1400.00
00017            -128.00    -1400.00
00018              -4.00    -1400.00
00019             192.00    -1800.00
00020              78.00    -1800.00
00021            -254.00    -1600.00
00022             -36.00    -1800.00
00023             238.00    -1800.00
00024              10.00    -1800.00
00025            -208.00    -1800.00
00026               6.00    -1800.00
00027             142.00    -2200.00
00028               6.00    -2200.00
00029             -74.00    -2200.00
00030             -48.00    -2200.00
00031              26.00    -2200.00
00032              54.00    -2200.00
00033               2.00    -2400.00
00034             -58.00    -2400.00
00035               8.00    -2400.00
00036              16.00    -2600.00
00037             -16.00    -2400.00
00038              -2.00    -2600.00
00039              14.00    -2600.00
00040              -6.00    -2600.00
00041               6.00    -2800.00
00042              -2.00    -3000.00
00043             -42.00    -3000.00
00044              10.00    -2800.00
00045              50.00    -3000.00
00046              -8.00    -3000.00
00047             -56.00    -3000.00
00048               2.00    -3000.00
00049              32.00    -3000.00
00050               2.00    -3200.00
00051             -18.00    -3200.00
00052             -14.00    -3000.00
00053               6.00    -3200.00
00054              10.00    -3200.00
00055               0.00    -3200.00
00056             -18.00    -3400.00
00057             -12.00    -3400.00
00058               6.00    -3400.00
00059              12.00    -3400.00
00060              -2.00    -3400.00
00061             -16.00    -3400.00
00062              -8.00    -3400.00
00063               6.00    -3600.00
00064               2.00    -3400.00
00065             -10.00    -3400.00
00066              -4.00    -3600.00
00067               6.00    -3600.00
00068              -2.00    -3800.00
00069             -10.00    -3800.00
00070              -6.00    -3600.00
00071              -2.00    -3800.00
00072               0.00    -3800.00
00073               2.00    -3800.00
00074              -2.00    -3800.00
00075              -8.00    -3800.00
00076              -8.00    -3800.00
00077              -2.00    -3800.00
00078               6.00    -3800.00
00079               0.00    -3800.00
00080              -4.00    -3800.00
00081              -6.00    -4000.00
00082              -2.00    -3800.00
00083              -6.00    -3800.00
00084              -2.00    -3800.00
00085               6.00    -3800.00
00086               0.00    -3800.00
00087              -2.00    -3800.00
00088              -2.00    -3800.00
00089              -8.00    -3600.00
00090              -2.00    -3800.00
00091               2.00    -3800.00
00092               6.00    -3800.00
00093              -2.00    -3800.00
00094              -2.00    -3800.00
00095              -2.00    -3800.00
00096              -2.00    -3600.00
00097              -8.00    -3800.00
00098               2.00    -3600.00
00099               6.00    -3400.00
00100              -2.00    -3800.00
00101              -8.00    -3800.00
00102              -6.00    -3400.00
00103               2.00    -3600.00
00104               0.00    -3600.00
00105              -2.00    -3600.00
00106               0.00    -3400.00
00107               0.00    -3400.00
00108              -6.00    -3600.00
00109              -4.00    -3400.00
00110              -2.00    -3400.00
00111              -2.00    -3400.00
00112               2.00    -3400.00
00113               0.00    -3400.00
00114              -2.00    -3400.00
00115              -2.00    -3200.00
00116              -6.00    -3400.00
00117              -6.00    -3200.00
00118              -2.00    -3200.00
00119               0.00    -3000.00
00120               0.00    -3200.00
00121              -4.00    -3000.00
00122              -8.00    -3200.00
00123              -2.00    -3000.00
00124               0.00    -3000.00
00125               0.00    -2800.00
00126              -2.00    -3000.00
00127              -2.00    -3000.00
00128              -6.00    -3000.00
00129              -6.00    -2800.00
00130              -6.00    -2800.00
00131               0.00    -2600.00
00132               0.00    -2600.00
00133              -2.00    -2400.00
00134              -6.00    -2600.00
00135              -6.00    -2600.00
00136              -4.00    -2600.00
00137               0.00    -2400.00
00138               0.00    -2400.00
00139              -4.00    -2400.00
00140              -6.00    -2200.00
00141              -6.00    -2200.00
00142              -2.00    -2200.00
00143              -2.00    -2000.00
00144              -4.00    -2000.00
00145              -2.00    -2000.00
00146              -2.00    -1800.00
00147              -2.00    -1800.00
00148              -2.00    -1800.00
00149              -2.00    -1600.00
00150              -6.00    -1600.00
00151              -6.00    -1600.00
00152               0.00    -1400.00
00153               0.00    -1400.00
00154              -2.00    -1400.00
00155              -8.00    -1400.00
00156              -6.00    -1400.00
00157              -2.00    -1200.00
00158               0.00    -1200.00
00159               0.00    -1000.00
00160               0.00    -1000.00
00161              -2.00    -1000.00
00162              -6.00     -800.00
00163              -6.00     -800.00
00164              -4.00     -800.00
00165               0.00     -600.00
00166               0.00     -600.00
00167              -4.00     -600.00
00168              -4.00     -800.00
00169              -6.00     -600.00
00170              -2.00     -600.00
00171              -2.00     -400.00
00172              -2.00     -200.00
00173              -2.00     -200.00
00174               0.00     -200.00
00175              -6.00     -200.00
00176              -2.00        0.00
00177              -2.00        0.00
00178               0.00        0.00
00179              -2.00      200.00
00180              -2.00      200.00
00181               0.00      200.00
00182               0.00      400.00
00183               0.00      200.00
00184               4.00      600.00
00185               0.00      600.00
00186              -6.00      600.00
00187              -8.00      600.00
00188              -6.00      600.00
00189              16.00      800.00
00190             126.00      800.00
00191             174.00     1200.00
00192            -230.00     1000.00
00193            -254.00      800.00
00194              42.00     1200.00
00195             246.00     1400.00
00196             246.00     1400.00
00197            -254.00      800.00
00198            -254.00     1400.00
00199             246.00     1600.00
00200             246.00     1800.00
00201            -254.00     1200.00
00202            -254.00     1400.00
00203             230.00     2200.00
00204             246.00     1800.00
00205            -234.00     1400.00
00206             -82.00     2000.00
00207             246.00     2200.00
00208            -156.00     1800.00
00209            -232.00     1800.00
00210             246.00     2200.00
00211             158.00     2200.00
00212            -254.00     2200.00
00213             -26.00     2400.00
00214             246.00     2400.00
00215             -94.00     2400.00
00216            -182.00     2400.00
00217             144.00     2600.00
00218              82.00     2600.00
00219            -104.00     2400.00
00220             -42.00     2600.00
00221              22.00     2600.00
00222              22.00     2600.00
00223              30.00     2800.00
00224             -48.00     2800.00
00225             -22.00     2800.00
00226              64.00     3000.00
00227             -40.00     3000.00
00228             -64.00     3000.00
00229              82.00     3200.00
00230               4.00     3000.00
00231             -80.00     3200.00
00232              54.00     3400.00
00233              18.00     3200.00
00234             -90.00     3200.00
00235              34.00     3400.00
00236              70.00     3400.00
00237             -58.00     3200.00
00238             -32.00     3400.00
00239              26.00     3600.00
00240              -6.00     3600.00
00241               0.00     3400.00
00242               0.00     3800.00
00243             -24.00     3800.00
00244              14.00     3800.00
00245               0.00     3800.00
00246             -26.00     3800.00
00247              16.00     3800.00
00248              -2.00     3800.00
00249             -32.00     3800.00
00250              18.00     3800.00
00251              14.00     4000.00
00252             -34.00     3800.00
00253               2.00     4000.00
00254              10.00     4000.00
00255             -26.00     4000.00
00256              -4.00     4000.00
00257              14.00     4200.00
00258             -10.00     4000.00
00259             -10.00     4000.00
00260              -8.00     4200.00
00261              -8.00     4000.00
00262               8.00     4000.00
00263              -2.00     4200.00
00264             -14.00     4000.00
00265               2.00     4200.00
00266              -8.00     4200.00
00267             -16.00     4200.00
00268               6.00     4200.00
00269               0.00     4200.00
00270             -14.00     4200.00
00271               0.00     4200.00
00272               0.00     4200.00
00273             -14.00     4200.00
00274              -6.00     4200.00
00275               0.00     4200.00
00276              -6.00     4400.00
00277               6.00     4200.00
00278               0.00     4200.00
00279             -12.00     4000.00
00280             -10.00     4200.00
00281              -2.00     4200.00
00282              -2.00     4200.00
00283              -2.00     4200.00
00284              -6.00     4200.00
00285              -6.00     4200.00
00286              -2.00     4200.00
00287             -10.00     4000.00
00288              -8.00     4200.00
00289               6.00     4000.00
00290               0.00     4000.00
00291             -10.00     4000.00
00292              -2.00     4000.00
00293              -4.00     4000.00
00294              -8.00     4000.00
00295              -4.00     4000.00
00296               0.00     4000.00
00297               0.00     3800.00
00298              -6.00     3800.00
00299              -6.00     3800.00
00300              -6.00     4000.00
00301              -2.00     4000.00
00302              -6.00     3800.00
00303               0.00     3800.00
00304               0.00     4000.00
00305             -10.00     3800.00
00306              -8.00     3800.00
00307               2.00     3800.00
00308              -2.00     3800.00
00309              -8.00     3800.00
00310              -4.00     3800.00
00311               0.00     3600.00
00312              -6.00     3400.00
00313              -8.00     3400.00
00314              -6.00     3400.00
00315              -2.00     3400.00
00316              -2.00     3400.00
00317              -2.00     3400.00
00318              -2.00     3200.00
00319              -6.00     3200.00
00320              -8.00     3200.00
00321              -8.00     3200.00
00322              -2.00     3200.00
00323              -2.00     3000.00
00324               0.00     3200.00
00325              -4.00     3000.00
00326             -10.00     2800.00
00327             -10.00     3000.00
00328               0.00     3000.00
00329               0.00     3000.00
00330              -6.00     2800.00
00331             -10.00     2600.00
00332              -6.00     2600.00
00333              -6.00     2600.00
00334              -2.00     2400.00
00335              -6.00     2600.00
00336              -2.00     2400.00
00337              -6.00     2400.00
00338              -2.00     2200.00
00339              -6.00     2200.00
00340              -8.00     2200.00
00341              -8.00     2200.00
00342              -6.00     2200.00
00343               0.00     2000.00
00344               0.00     2000.00
00345              -8.00     1800.00
00346              -6.00     2000.00
00347              -6.00     1800.00
00348              -2.00     1600.00
00349              -2.00     1600.00
00350              -2.00     1600.00
00351              -6.00     1600.00
00352              -6.00     1400.00
00353              -8.00     1600.00
00354               0.00     1400.00
00355              -2.00     1400.00
00356              -2.00     1400.00
00357              -2.00     1200.00
00358              -2.00     1000.00
00359              -8.00     1200.00
00360              -6.00     1000.00
00361              -2.00     1200.00
00362               0.00      800.00
00363              -4.00      800.00
00364              -8.00      800.00
00365               0.00      800.00
00366               0.00      600.00
00367              -6.00      600.00
00368              -6.00      600.00
00369               0.00      600.00
00370               0.00      200.00
00371              -2.00      200.00
00372              -2.00      200.00
00373               0.00      200.00
00374               2.00        0.00
00375               8.00        0.00
00376               2.00        0.00
00377              -6.00        0.00
00378             -10.00     -200.00
00379              -8.00     -200.00
00380               6.00     -200.00
00381              38.00     -200.00
00382             136.00     -200.00
00383             110.00     -800.00
00384            -254.00     -800.00
00385            -254.00     -600.00
00386             128.00     -400.00
00387             246.00     -800.00
00388             246.00    -1000.00
00389            -254.00    -1000.00
00390            -254.00     -800.00
00391             246.00    -1000.00
00392             246.00    -1000.00
00393            -254.00    -1200.00
00394            -254.00    -1200.00
00395              98.00    -1200.00
00396             246.00    -1400.00
00397              54.00    -1400.00
00398            -122.00    -1600.00
00399             -86.00    -1400.00
00400            -110.00    -1400.00
00401             112.00    -1600.00
00402             200.00    -1800.00
00403            -134.00    -1800.00
00404            -214.00    -1600.00
00405             146.00    -2000.00
00406             184.00    -1800.00
00407            -162.00    -2000.00
00408            -122.00    -1800.00
00409             106.00    -2200.00
00410              94.00    -2200.00
00411             -62.00    -2400.00
00412             -64.00    -2400.00
00413             -20.00    -2200.00
00414              56.00    -2400.00
00415              38.00    -2400.00
00416             -42.00    -2400.00
00417             -30.00    -2600.00
00418              22.00    -2600.00
00419               0.00    -2400.00
00420             -16.00    -2600.00
00421              16.00    -2600.00
00422              -6.00    -2800.00
00423               0.00    -2600.00
00424               8.00    -3000.00
00425             -26.00    -3000.00
00426             -30.00    -2800.00
00427              46.00    -3000.00
00428              34.00    -3000.00
00429             -46.00    -3000.00
00430             -34.00    -3000.00
00431              24.00    -3200.00
00432              22.00    -3200.00
00433             -10.00    -3200.00
00434             -16.00    -3200.00
00435              -4.00    -3400.00
00436              10.00    -3200.00
00437               8.00    -3400.00
00438             -10.00    -3400.00
00439             -16.00    -3400.00
00440               0.00    -3400.00
00441              14.00    -3400.00
00442               2.00    -3400.00
00443             -10.00    -3400.00
00444             -10.00    -3600.00
00445               2.00    -3600.00
00446               6.00    -3600.00
00447              -8.00    -3400.00
00448              -6.00    -3400.00
00449               2.00    -3800.00
00450               0.00    -3600.00
00451             -10.00    -3600.00
00452              -6.00    -3800.00
00453               0.00    -3800.00
00454               0.00    -3800.00
00455               0.00    -3800.00
00456               0.00    -3800.00
00457              -2.00    -3800.00
00458              -8.00    -3800.00
00459              -4.00    -3800.00
00460               0.00    -3800.00
00461               2.00    -3800.00
00462              -2.00    -3800.00
00463              -2.00    -4000.00
00464              -4.00    -3800.00
00465              -6.00    -3800.00
00466              -6.00    -3800.00
00467               0.00    -3800.00
00468               0.00    -3800.00
00469              -2.00    -3800.00
00470              -2.00    -3800.00
00471              -2.00    -3800.00
00472              -8.00    -3800.00
00473              -2.00    -3800.00
00474               2.00    -3800.00
00475               2.00    -3800.00
00476              -2.00    -3600.00
00477              -2.00    -3800.00
00478              -8.00    -3600.00
00479              -6.00    -3800.00
00480               0.00    -3600.00
00481               6.00    -3600.00
00482               0.00    -3800.00
00483              -6.00    -3400.00
00484              -6.00    -3800.00
00485               0.00    -3600.00
00486               0.00    -3400.00
00487               0.00    -3600.00
00488               0.00    -3400.00
00489              -2.00    -3600.00
00490              -2.00    -3400.00
00491              -4.00    -3400.00
00492              -4.00    -3400.00
00493              -6.00    -3400.00
00494               2.00    -3400.00
00495               2.00    -3400.00
00496              -2.00    -3200.00
00497              -6.00    -3200.00
00498               0.00    -3200.00
00499              -2.00    -3000.00
00500              -2.00    -3200.00
00501              -2.00    -3200.00
00502               2.00    -3200.00
00503               0.00    -3000.00
00504              -2.00    -3000.00
00505              -8.00    -3000.00
00506              -2.00    -3000.00
00507              -2.00    -3000.00
00508               0.00    -3000.00
00509               0.00    -2800.00
00510              -6.00    -2800.00
00511              -6.00    -2800.00
00512              -8.00    -2600.00
00513              -2.00    -2600.00
00514              -2.00    -2600.00
00515               0.00    -2600.00
00516              -4.00    -2600.00
00517              -6.00    -2600.00
00518              -6.00    -2400.00
00519              -6.00    -2400.00
00520              -2.00    -2400.00
00521               0.00    -2400.00
00522              -6.00    -2200.00
00523              -2.00    -2200.00
00524              -2.00    -2200.00
00525              -6.00    -2200.00
00526              -6.00    -2200.00
00527              -2.00    -2200.00
00528               0.00    -1800.00
00529              -2.00    -1800.00
00530              -6.00    -1800.00
00531              -8.00    -1800.00
00532              -6.00    -1600.00
00533              -2.00    -1800.00
00534               0.00    -1600.00
00535               0.00    -1600.00
00536              -2.00    -1400.00
00537              -2.00    -1400.00
00538              -8.00    -1400.00
00539              -2.00    -1200.00
00540               0.00    -1400.00
00541              -2.00    -1000.00
00542              -2.00    -1000.00
00543              -2.00    -1000.00
00544              -2.00    -1000.00
00545              -2.00    -1000.00
00546              -4.00     -800.00
00547              -2.00     -800.00
00548               0.00     -600.00
00549              -2.00     -800.00
00550              -2.00     -600.00
00551              -4.00     -600.00
00552              -2.00     -600.00
00553              -2.00     -600.00
00554               2.00     -400.00
00555              -4.00     -200.00
00556              -2.00     -200.00
00557               0.00     -200.00
00558              -2.00     -200.00
00559              -2.00        0.00
00560              -2.00        0.00
00561              -2.00        0.00
00562              -2.00      200.00
00563               0.00      200.00
00564               2.00      200.00
00565               6.00      200.00
00566               4.00      400.00
00567               6.00      600.00
00568              -2.00      600.00
00569              -6.00      600.00
00570              -6.00      600.00
00571               0.00      800.00
00572              60.00      800.00
00573             190.00     1200.00
00574              32.00     1200.00
00575            -254.00      800.00
00576            -254.00     1000.00
00577             246.00     1200.00
00578             246.00     1400.00
00579            -248.00     1200.00
00580            -254.00      800.00
00581            -114.00     1600.00
00582             246.00     1600.00
00583             246.00     1400.00
00584            -254.00     1000.00
00585            -254.00     1800.00
00586             246.00     1800.00
00587              48.00     1600.00
00588            -254.00     1600.00
00589             158.00     2000.00
00590             102.00     2000.00
00591            -254.00     1800.00
00592              22.00     2200.00
00593             246.00     2400.00
00594            -128.00     2200.00
00595            -246.00     2200.00
00596             200.00     2400.00
00597             102.00     2200.00
00598            -216.00     2400.00
00599             -14.00     2600.00
00600             174.00     2600.00
00601             -40.00     2400.00
00602             -98.00     2600.00
00603              12.00     2800.00
00604              16.00     2600.00
00605              32.00     2600.00
00606              -8.00     3000.00
00607             -58.00     3000.00
00608              38.00     3000.00
00609              26.00     3000.00
00610             -92.00     3000.00
00611              24.00     3200.00
00612              78.00     3200.00
00613             -68.00     3200.00
00614             -26.00     3200.00
00615              70.00     3400.00
00616             -62.00     3200.00
00617             -42.00     3200.00
00618              88.00     3400.00
00619              -2.00     3400.00
00620             -74.00     3400.00
00621              16.00     3800.00
00622              14.00     3400.00
00623             -10.00     3400.00
00624               8.00     3800.00
00625             -18.00     3800.00
00626              -4.00     3600.00
00627              16.00     3800.00
00628             -22.00     3800.00
00629              -2.00     3800.00
00630              20.00     3800.00
00631             -30.00     3800.00
00632             -10.00     3800.00
00633              30.00     4000.00
00634             -16.00     3800.00
00635             -18.00     3800.00
00636              24.00     4000.00
00637             -10.00     4000.00
00638             -26.00     4000.00
00639               8.00     4000.00
00640               4.00     4000.00
00641             -10.00     4000.00
00642              -4.00     4000.00
00643             -10.00     4200.00
00644              -6.00     4000.00
00645               4.00     4200.00
00646             -10.00     4000.00
00647               0.00     4200.00
00648               8.00     4200.00
00649             -18.00     4000.00
00650             -10.00     4000.00
00651               6.00     4200.00
00652              -8.00     4200.00
00653              -6.00     4000.00
00654               6.00     4200.00
00655             -14.00     4200.00
00656             -10.00     4200.00
00657               8.00     4200.00
00658               6.00     4200.00
00659              -6.00     4200.00
00660             -14.00     4200.00
00661             -22.00     4200.00
00662             -12.00     4200.00
00663               6.00     4200.00
00664               8.00     4200.00
00665               2.00     4200.00
00666              -6.00     4200.00
00667              -8.00     4200.00
00668               0.00     4200.00
00669               0.00     4200.00
00670             -14.00     4200.00
00671             -14.00     4200.00
00672             -10.00     4200.00
00673              -4.00     4000.00
00674               6.00     4000.00
00675               8.00     4000.00
00676             -10.00     3800.00
00677             -18.00     4000.00
00678              -2.00     4200.00
00679               8.00     4000.00
00680               0.00     4000.00
00681             -10.00     4000.00
00682             -14.00     3800.00
00683              -4.00     4000.00
00684               2.00     3800.00
00685               6.00     3800.00
00686              -2.00     3800.00
00687             -16.00     3800.00
00688             -16.00     3800.00
00689               6.00     3800.00
00690              10.00     3800.00
00691              -8.00     3800.00
00692             -16.00     3600.00
00693              -8.00     3400.00
00694               0.00     3600.00
00695               2.00     3400.00
00696              -2.00     3400.00
00697             -10.00     3400.00
00698              -8.00     3400.00
00699               0.00     3400.00
00700               6.00     3400.00
00701              -2.00     3400.00
00702             -16.00     3200.00
00703             -16.00     3000.00
00704              -2.00     3200.00
00705               8.00     3200.00
00706               8.00     3000.00
00707              -2.00     3000.00
00708             -16.00     3000.00
00709             -14.00     3000.00
00710               0.00     2800.00
00711               6.00     3000.00
00712              -6.00     2600.00
00713             -10.00     2600.00
00714              -8.00     2600.00
00715               2.00     2600.00
00716               0.00     2400.00
00717              -8.00     2600.00
00718             -10.00     2400.00
00719              -6.00     2400.00
00720               0.00     2200.00
00721               2.00     2400.00
00722              -2.00     2400.00
00723             -10.00     2200.00
00724             -14.00     2200.00
00725              -2.00     2200.00
00726               6.00     1800.00
00727               0.00     2200.00
00728              -6.00     1800.00
00729             -10.00     1800.00
00730              -8.00     1800.00
00731               0.00     1800.00
00732               2.00     1600.00
00733               0.00     1800.00
00734             -10.00     1600.00
00735             -10.00     1400.00
00736               0.00     1400.00
00737               6.00     1400.00
00738              -2.00     1400.00
00739              -8.00     1400.00
00740              -4.00     1000.00
00741              -2.00     1200.00
00742              -2.00     1200.00
00743              -6.00     1000.00
00744              -2.00      800.00
00745              -2.00      800.00
00746              -2.00      800.00
00747               0.00      800.00
00748               0.00      600.00
00749              -6.00      600.00
00750             -10.00      600.00
00751              -6.00      600.00
00752               2.00      400.00
00753               0.00      200.00
00754               0.00      200.00
00755              -2.00        0.00
00756               0.00        0.00
00757               4.00      200.00
00758               8.00        0.00
00759               2.00     -200.00
00760             -10.00     -200.00
00761              -8.00     -200.00
00762               0.00     -200.00
00763              18.00     -200.00
00764              82.00     -200.00
00765             160.00     -600.00
00766             -48.00     -800.00
00767            -254.00     -600.00
00768            -254.00     -400.00
00769             246.00     -600.00
00770             246.00     -600.00
00771            -254.00    -1200.00
00772            -254.00     -600.00
00773             -20.00    -1000.00
00774             246.00    -1000.00
00775             246.00    -1200.00
00776            -254.00    -1000.00
00777            -254.00    -1200.00
00778             246.00    -1400.00
00779             238.00    -1000.00
00780             -96.00    -1600.00
00781             -80.00    -1400.00
00782            -130.00    -1600.00
00783               0.00    -1600.00
00784             194.00    -1800.00
00785              72.00    -1800.00
00786            -254.00    -1600.00
00787             -30.00    -1800.00
00788             234.00    -1800.00
00789               2.00    -2000.00
00790            -202.00    -1800.00
00791               8.00    -2200.00
00792             136.00    -2200.00
00793              -2.00    -2200.00
00794             -74.00    -2400.00
00795             -42.00    -2200.00
00796              32.00    -2200.00
00797              50.00    -2400.00
00798              -2.00    -2400.00
00799             -56.00    -2400.00
00800              10.00    -2600.00
00801              16.00    -2600.00
00802             -18.00    -2600.00
00803              -6.00    -2600.00
00804              10.00    -2600.00
00805              -6.00    -2600.00
00806               6.00    -3000.00
00807              -2.00    -2800.00
00808             -42.00    -2600.00
00809              10.00    -2800.00
00810              50.00    -3000.00
00811              -8.00    -3000.00
00812             -54.00    -3000.00
00813               0.00    -3000.00
00814              30.00    -3200.00
00815              -2.00    -3000.00
00816             -16.00    -3200.00
00817             -10.00    -3200.00
00818               8.00    -3200.00
00819              14.00    -3200.00
00820              -2.00    -3200.00
00821             -18.00    -3400.00
00822              -6.00    -3400.00
00823               8.00    -3400.00
00824              10.00    -3400.00
00825              -6.00    -3600.00
00826             -16.00    -3400.00
00827              -6.00    -3400.00
00828              10.00    -3400.00
00829               2.00    -3400.00
00830             -12.00    -3400.00
00831              -2.00    -3400.00
00832               6.00    -3600.00
00833              -2.00    -3800.00
00834             -10.00    -3600.00
00835              -4.00    -3800.00
00836               0.00    -3800.00
00837               0.00    -3800.00
00838               0.00    -3800.00
00839              -4.00    -3600.00
00840              -6.00    -3800.00
00841              -6.00    -3800.00
00842              -6.00    -3800.00
00843               0.00    -3800.00
00844               0.00    -3800.00
00845              -2.00    -3800.00
00846              -6.00    -3800.00
00847             -10.00    -4000.00
00848              -8.00    -3800.00
00849               0.00    -3800.00
00850               6.00    -3800.00
00851              -2.00    -3800.00
00852              -6.00    -3800.00
00853              -6.00    -3800.00
00854              -6.00    -3800.00
00855              -8.00    -3800.00
00856              -2.00    -3800.00
00857               2.00    -3800.00
00858              -2.00    -3800.00
00859              -8.00    -3800.00
00860              -4.00    -4000.00
00861              -6.00    -3800.00
00862              -6.00    -3800.00
00863               0.00    -3800.00
00864               2.00    -3600.00
00865              -2.00    -3800.00
00866              -6.00    -3600.00
00867              -6.00    -3400.00
00868              -2.00    -3600.00
00869              -2.00    -3400.00
00870               0.00    -3400.00
00871               0.00    -3400.00
00872              -2.00    -3400.00
00873              -2.00    -3400.00
00874              -2.00    -3400.00
00875              -2.00    -3400.00
00876              -4.00    -3400.00
00877               2.00    -3400.00
00878               0.00    -3200.00
00879              -2.00    -3200.00
00880              -4.00    -3200.00
00881               0.00    -3200.00
00882               0.00    -3200.00
00883              -2.00    -3200.00
00884              -2.00    -3000.00
00885               2.00    -3000.00
00886               0.00    -3200.00
00887              -6.00    -3000.00
00888              -6.00    -3000.00
00889              -2.00    -3000.00
00890               2.00    -3000.00
00891               2.00    -3000.00
00892               0.00    -3000.00
00893              -6.00    -2800.00
00894              -6.00    -2600.00
00895               0.00    -2600.00
00896               2.00    -2600.00
00897               0.00    -2600.00
00898              -2.00    -2600.00
00899              -2.00    -2600.00
00900              -6.00    -2400.00
00901              -2.00    -2400.00
00902              -2.00    -2600.00
00903               0.00    -2200.00
00904              -2.00    -2200.00
00905              -4.00    -2200.00
00906              -2.00    -2200.00
00907              -2.00    -2200.00
00908              -2.00    -2000.00
00909              -6.00    -2000.00
00910              -2.00    -2200.00
00911               0.00    -1800.00
00912              -2.00    -1800.00
00913              -6.00    -1800.00
00914              -6.00    -1800.00
00915              -2.00    -1600.00
00916              -2.00    -1600.00
00917              -2.00    -1600.00
00918               0.00    -1400.00
00919              -2.00    -1400.00
00920              -6.00    -1400.00
00921              -6.00    -1400.00
00922              -6.00    -1200.00
00923              -2.00    -1200.00
00924               0.00    -1000.00
00925              -2.00    -1000.00
00926              -4.00    -1000.00
00927              -4.00    -1000.00
00928              -2.00    -1000.00
00929              -2.00     -800.00
00930              -2.00     -800.00
00931               0.00     -800.00
00932               0.00     -800.00
00933              -8.00     -600.00
00934              -8.00     -600.00
00935              -2.00     -600.00
00936               0.00     -400.00
00937               0.00     -400.00
00938              -6.00     -200.00
00939              -2.00     -200.00
00940               0.00     -200.00
00941               0.00        0.00
00942              -6.00        0.00
00943              -2.00        0.00
00944              -2.00        0.00
00945               0.00      200.00
00946               0.00      400.00
00947               0.00      200.00
00948               0.00      600.00
00949               8.00      400.00
00950               2.00      600.00
00951              -2.00      600.00
00952              -8.00      800.00
00953              -2.00      800.00
00954              18.00      800.00
00955             128.00     1000.00
00956             174.00     1200.00
00957            -242.00     1000.00
00958            -254.00      800.00
00959              64.00     1200.00
00960             246.00     1400.00
00961             246.00     1400.00
00962            -254.00      600.00
00963            -254.00     1400.00
00964             246.00     1600.00
00965             246.00     1800.00
00966            -254.00     1200.00
00967            -254.00     1600.00
00968             246.00     2000.00
00969             246.00     1800.00
00970            -240.00     1600.00
00971             -72.00     2000.00
00972             246.00     2200.00
00973            -164.00     1800.00
00974            -224.00     1800.00
00975             246.00     2400.00
00976             144.00     2200.00
00977            -254.00     2200.00
00978             -14.00     2400.00
00979             240.00     2400.00
00980            -104.00     2400.00
00981            -176.00     2400.00
00982             150.00     2600.00
00983              74.00     2600.00
00984            -106.00     2600.00
00985             -42.00     2600.00
00986              22.00     2600.00
00987              20.00     2600.00
00988              26.00     3000.00
00989             -50.00     3000.00
00990             -18.00     3000.00
00991              62.00     3000.00
00992             -46.00     3000.00
00993             -62.00     3000.00
00994              86.00     3200.00
00995               0.00     3200.00
00996             -80.00     3000.00
00997              50.00     3400.00
00998              16.00     3400.00
00999             -90.00     3200.00
01000              38.00     3400.00
01001              66.00     3400.00
01002             -64.00     3200.00
01003             -30.00     3400.00
01004              28.00     3600.00
01005              -8.00     3400.00
01006               2.00     3400.00
01007               2.00     3800.00
01008             -22.00     3600.00
01009              10.00     3600.00
01010              -4.00     3800.00
01011             -18.00     3800.00
01012              22.00     3800.00
01013              -6.00     4000.00
01014             -34.00     3800.00
01015              18.00     3800.00
01016              14.00     4000.00
01017             -32.00     3800.00
01018               6.00     4000.00
01019              10.00     4200.00
01020             -26.00     3800.00
01021              -2.00     4000.00
01022              14.00     4000.00
01023              -6.00     4000.00
01024              -8.00     4000.00
01025             -10.00     4200.00
01026              -8.00     4000.00
01027              10.00     4000.00
01028              -2.00     4200.00
01029             -14.00     4000.00
01030               4.00     4200.00
01031              -8.00     4200.00
01032             -16.00     4200.00
01033               2.00     4200.00
01034               0.00     4200.00
01035             -14.00     4200.00
01036               6.00     4200.00
01037               0.00     4200.00
01038             -16.00     4200.00
01039             -10.00     4200.00
01040               0.00     4200.00
01041              -2.00     4200.00
01042               2.00     4200.00
01043              -8.00     4200.00
01044             -14.00     4200.00
01045              -6.00     4200.00
01046              -2.00     4200.00
01047              -2.00     4000.00
01048              -2.00     4200.00
01049              -6.00     4000.00
01050              -8.00     4000.00
01051              -4.00     4200.00
01052              -8.00     4200.00
01053              -6.00     4200.00
01054               0.00     4200.00
01055              -2.00     4000.00
01056             -10.00     4000.00
01057               0.00     4000.00
01058              -2.00     4000.00
01059             -10.00     4000.00
01060              -6.00     4000.00
01061               2.00     4000.00
01062               0.00     4000.00
01063              -8.00     4000.00
01064             -10.00     4000.00
01065              -4.00     3800.00
01066              -6.00     3800.00
01067              -4.00     3800.00
01068               0.00     3800.00
01069               0.00     3800.00
01070              -8.00     3800.00
01071              -8.00     3800.00
01072              -2.00     3800.00
01073              -2.00     3800.00
01074              -6.00     3600.00
01075               0.00     3600.00
01076               0.00     3400.00
01077              -8.00     3600.00
01078              -8.00     3400.00
01079              -6.00     3600.00
01080              -2.00     3400.00
01081               0.00     3200.00
01082               0.00     3400.00
01083              -2.00     3400.00
01084             -10.00     3200.00
01085              -8.00     3400.00
01086              -2.00     3200.00
01087               2.00     3000.00
01088              -2.00     3000.00
01089              -2.00     3200.00
01090              -2.00     3000.00
01091              -6.00     3000.00
01092              -6.00     3000.00
01093               0.00     3000.00
01094               0.00     2800.00
01095              -6.00     2800.00
01096             -10.00     2600.00
01097               0.00     2600.00
01098               0.00     2600.00
01099              -2.00     2600.00
01100              -6.00     2400.00
01101              -4.00     2400.00
01102              -2.00     2400.00
01103              -2.00     2400.00
01104              -4.00     2200.00
01105              -8.00     2400.00
01106             -10.00     2200.00
01107              -2.00     2200.00
01108               0.00     2200.00
01109              -2.00     1800.00
01110              -8.00     2000.00
01111              -6.00     1800.00
01112              -4.00     1800.00
01113              -4.00     1600.00
01114              -6.00     1600.00
01115              -2.00     1800.00
01116              -2.00     1600.00
01117              -8.00     1600.00
01118              -6.00     1400.00
01119              -2.00     1400.00
01120              -6.00     1400.00
01121              -6.00     1200.00
01122               0.00     1400.00
01123              -2.00     1000.00
01124              -6.00     1200.00
01125              -8.00     1000.00
01126              -6.00      800.00
01127              -2.00      800.00
01128              -2.00      800.00
01129              -2.00      800.00
01130              -2.00      800.00
01131              -2.00      600.00
01132              -6.00      600.00
01133              -6.00      600.00
01134               0.00      400.00
01135               0.00      200.00
01136              -2.00      200.00
01137              -2.00      200.00
01138              -2.00        0.00
01139               2.00        0.00
01140               8.00      200.00
01141               4.00        0.00
01142              -6.00     -200.00
01143             -10.00        0.00
01144              -4.00     -200.00
01145               6.00     -200.00
01146              38.00     -200.00
01147             138.00     -400.00
01148             106.00     -600.00
01149            -254.00     -800.00
01150            -254.00     -400.00
01151             152.00     -400.00
01152             246.00     -600.00
01153             246.00    -1000.00
01154            -254.00    -1000.00
01155            -254.00     -600.00
01156             246.00    -1000.00
01157             246.00    -1000.00
01158            -254.00    -1000.00
01159            -254.00    -1000.00
01160             116.00    -1400.00
01161             246.00    -1400.00
01162              44.00    -1200.00
01163            -124.00    -1400.00
01164             -88.00    -1400.00
01165            -104.00    -1400.00
01166             118.00    -1600.00
01167             198.00    -1800.00
01168            -150.00    -1600.00
01169            -204.00    -1400.00
01170             154.00    -2200.00
01171             174.00    -1800.00
01172            -172.00    -1800.00
01173            -118.00    -2000.00
01174             112.00    -2200.00
01175              90.00    -2200.00
01176             -64.00    -2200.00
01177             -64.00    -2200.00
01178             -16.00    -2200.00
01179              54.00    -2400.00
01180              38.00    -2400.00
01181             -42.00    -2400.00
01182             -30.00    -2400.00
01183              18.00    -2600.00
01184              -2.00    -2400.00
01185             -22.00    -2600.00
01186              20.00    -2600.00
01187              -2.00    -2600.00
01188              -6.00    -2600.00
01189               6.00    -2800.00
01190             -24.00    -2800.00
01191             -26.00    -2800.00
01192              40.00    -3000.00
01193              30.00    -3000.00
01194             -48.00    -3000.00
01195             -32.00    -3000.00
01196              24.00    -3000.00
01197              18.00    -3200.00
01198             -10.00    -3200.00
01199             -16.00    -3000.00
01200              -4.00    -3200.00
01201              10.00    -3400.00
01202               8.00    -3400.00
01203             -10.00    -3200.00
01204             -16.00    -3400.00
01205              -2.00    -3400.00
01206              10.00    -3400.00
01207               6.00    -3400.00
01208             -10.00    -3400.00
01209             -10.00    -3400.00
01210               4.00    -3400.00
01211               8.00    -3600.00
01212              -6.00    -3600.00
01213              -8.00    -3400.00
01214               6.00    -3800.00
01215               6.00    -3600.00
01216              -8.00    -3400.00
01217              -8.00    -3600.00
01218              -6.00    -3800.00
01219               2.00    -3800.00
01220               6.00    -3600.00
01221               0.00    -3800.00
01222              -6.00    -3800.00
01223              -8.00    -3800.00
01224              -4.00    -3800.00
01225               2.00    -3800.00
01226               2.00    -3800.00
01227              -2.00    -3800.00
01228              -6.00    -4000.00
01229              -6.00    -3800.00
01230              -8.00    -3800.00
01231              -2.00    -3800.00
01232               0.00    -3800.00
01233               0.00    -3800.00
01234              -6.00    -3800.00
01235              -2.00    -3800.00
01236              -2.00    -3800.00
01237              -8.00    -3800.00
01238              -4.00    -3800.00
01239               6.00    -3800.00
01240               2.00    -3800.00
01241              -4.00    -3800.00
01242              -6.00    -3800.00
01243              -6.00    -3800.00
01244              -2.00    -3600.00
01245               0.00    -3800.00
01246               0.00    -3600.00
01247               0.00    -3600.00
01248              -8.00    -3800.00
01249              -6.00    -3400.00
01250               0.00    -3800.00
01251              -2.00    -3600.00
01252              -2.00    -3800.00
01253              -2.00    -3400.00
01254              -2.00    -3400.00
01255              -2.00    -3400.00
01256              -2.00    -3400.00
01257              -2.00    -3400.00
01258              -8.00    -3400.00
01259               0.00    -3400.00
01260               2.00    -3400.00
01261               0.00    -3200.00
01262              -6.00    -3400.00
01263              -6.00    -3200.00
01264               0.00    -3200.00
01265               2.00    -3200.00
01266              -2.00    -3000.00
01267               0.00    -3000.00
01268               0.00    -3000.00
01269              -2.00    -3000.00
01270              -4.00    -3000.00
01271              -2.00    -3000.00
01272               0.00    -2800.00
01273               2.00    -2800.00
01274               0.00    -3000.00
01275              -2.00    -2600.00
01276              -2.00    -2600.00
01277              -2.00    -2600.00
01278              -2.00    -2600.00
01279               0.00    -2600.00
01280               0.00    -2600.00
01281               2.00    -2400.00
01282               0.00    -2400.00
01283              -6.00    -2400.00
01284              -6.00    -2400.00
01285              -2.00    -2200.00
01286               2.00    -2200.00
01287               0.00    -2200.00
01288              -2.00    -2200.00
01289              -6.00    -2200.00
01290              -8.00    -2000.00
01291              -2.00    -2200.00
01292               2.00    -2000.00
01293               0.00    -1800.00
01294              -4.00    -1800.00
01295              -8.00    -1800.00
01296              -4.00    -1600.00
01297              -2.00    -1600.00
01298               0.00    -1600.00
01299              -2.00    -1400.00
01300              -2.00    -1600.00
01301              -2.00    -1400.00
01302              -2.00    -1400.00
01303              -2.00    -1400.00
01304              -6.00    -1400.00
01305              -6.00    -1400.00
01306               0.00    -1200.00
01307              -2.00    -1000.00
01308              -6.00    -1000.00
01309              -8.00     -800.00
01310              -6.00    -1000.00
01311              -2.00     -800.00
01312              -6.00     -800.00
01313              -6.00     -600.00
01314               0.00     -600.00
01315              -2.00     -600.00
01316              -8.00     -600.00
01317              -8.00     -400.00
01318              -2.00     -600.00
01319              -2.00     -400.00
01320              -2.00     -200.00
01321              -6.00     -200.00
01322              -2.00     -200.00
01323              -2.00        0.00
01324              -6.00        0.00
01325              -8.00        0.00
01326              -2.00      200.00
01327               0.00      200.00
01328               0.00      200.00
01329               0.00      200.00
01330               0.00      200.00
01331               2.00      600.00
01332               6.00      600.00
01333              -2.00      600.00
01334              -8.00      600.00
01335              -6.00      600.00
01336               4.00      800.00
01337              62.00      800.00
01338             190.00     1200.00
01339              24.00     1200.00
01340            -254.00      800.00
01341            -254.00     1000.00
01342             246.00     1200.00
01343             246.00     1400.00
01344            -254.00     1000.00
01345            -254.00     1000.00
01346             -80.00     1600.00
01347             246.00     1800.00
01348             246.00     1600.00
01349            -254.00     1200.00
01350            -234.00     2000.00
01351             246.00     1800.00
01352              26.00     1600.00
01353            -254.00     1800.00
01354             166.00     2200.00
01355              94.00     2200.00
01356            -254.00     1600.00
01357              34.00     2200.00
01358             246.00     2400.00
01359            -142.00     2200.00
01360            -238.00     2200.00
01361             210.00     2400.00
01362              96.00     2400.00
01363            -224.00     2200.00
01364              -6.00     2600.00
01365             170.00     2600.00
01366             -40.00     2400.00
01367             -98.00     2600.00
01368              10.00     2800.00
01369              14.00     2600.00
01370              32.00     2600.00
01371             -10.00     3000.00
01372             -58.00     3000.00
01373              38.00     3000.00
01374              22.00     3000.00
01375             -94.00     3000.00
01376              26.00     3000.00
01377              70.00     3200.00
01378             -74.00     3200.00
01379             -22.00     3200.00
01380              70.00     3400.00
01381             -64.00     3200.00
01382             -40.00     3200.00
01383              82.00     3400.00
01384              -8.00     3400.00
01385             -72.00     3400.00
01386              18.00     3400.00
01387              14.00     3600.00
01388             -14.00     3400.00
01389               8.00     3600.00
01390             -16.00     3800.00
01391              -6.00     3600.00
01392              16.00     3800.00
01393             -20.00     3800.00
01394              -2.00     3800.00
01395              16.00     3800.00
01396             -32.00     3800.00
01397              -6.00     3800.00
01398              30.00     4000.00
01399             -24.00     3800.00
01400             -22.00     4000.00
01401              22.00     4000.00
01402             -10.00     4000.00
01403             -22.00     4000.00
01404              14.00     4000.00
01405               2.00     4200.00
01406              -8.00     4200.00
01407              -6.00     4200.00
01408             -10.00     4000.00
01409               0.00     4200.00
01410               2.00     4000.00
01411              -8.00     4200.00
01412               2.00     4000.00
01413               2.00     4200.00
01414             -22.00     4200.00
01415              -6.00     4000.00
01416               8.00     4200.00
01417              -2.00     4200.00
01418              -2.00     4200.00
01419               2.00     4200.00
01420             -14.00     4200.00
01421             -14.00     4200.00
01422               0.00     4200.00
01423               2.00     4200.00
01424               0.00     4200.00
01425              -6.00     4200.00
01426             -14.00     4200.00
01427              -8.00     4200.00
01428               0.00     4200.00
01429              -2.00     4200.00
01430              -2.00     4200.00
01431              -6.00     4000.00
01432              -8.00     4200.00
01433              -6.00     4200.00
01434              -2.00     4200.00
01435              -8.00     4200.00
01436              -2.00     4000.00
01437              -2.00     4000.00
01438              -8.00     4000.00
01439              -2.00     4200.00
01440               2.00     4000.00
01441             -10.00     4000.00
01442             -12.00     4000.00
01443              -2.00     4000.00
01444               0.00     4000.00
01445              -2.00     4000.00
01446              -8.00     4000.00
01447              -8.00     4000.00
01448              -2.00     4000.00
01449              -2.00     3800.00
01450              -2.00     4000.00
01451               0.00     3800.00
01452              -6.00     3800.00
01453             -10.00     3800.00
01454              -4.00     3800.00
01455              -2.00     3800.00
01456              -8.00     3800.00
01457              -4.00     3600.00
01458               2.00     3600.00
01459              -2.00     3400.00
01460             -10.00     3600.00
01461              -6.00     3400.00
01462              -4.00     3400.00
01463               0.00     3400.00
01464              -2.00     3400.00
01465               0.00     3400.00
01466              -6.00     3200.00
01467             -10.00     3200.00
01468              -6.00     3400.00
01469               0.00     3200.00
01470               0.00     3200.00
01471              -2.00     3200.00
01472              -6.00     3000.00
01473              -6.00     3000.00
01474              -4.00     2800.00
01475              -2.00     3000.00
01476               0.00     3000.00
01477              -6.00     3000.00
01478              -6.00     2600.00
01479              -6.00     2800.00
01480               0.00     2600.00
01481              -2.00     2600.00
01482              -2.00     2600.00
01483              -2.00     2600.00
01484              -2.00     2400.00
01485              -6.00     2400.00
01486              -2.00     2400.00
01487              -2.00     2200.00
01488             -10.00     2200.00
01489              -8.00     2200.00
01490              -6.00     2000.00
01491               0.00     1800.00
01492              -2.00     2000.00
01493              -6.00     1800.00
01494              -6.00     1800.00
01495              -6.00     1600.00
01496              -6.00     1600.00
01497               0.00     1800.00
01498               0.00     1600.00
01499              -8.00     1400.00
01500             -10.00     1600.00
01501              -2.00     1400.00
01502              -2.00     1400.00
01503              -6.00     1400.00
01504              -6.00     1400.00
01505              -2.00     1000.00
01506              -6.00     1400.00
01507              -8.00     1000.00
01508              -6.00     1200.00
01509              -2.00      800.00
01510              -2.00      800.00
01511              -8.00      800.00
01512              -2.00      800.00
01513              -2.00      600.00
01514              -6.00      600.00
01515              -8.00      600.00
01516              -6.00      600.00
01517               0.00      400.00
01518              -2.00      400.00
01519               0.00      200.00
01520              -2.00      200.00
01521              -2.00        0.00
01522               2.00        0.00
01523               8.00        0.00
01524               0.00     -200.00
01525             -10.00     -200.00
01526              -8.00        0.00
01527               0.00     -200.00
01528              16.00     -200.00
01529              84.00     -200.00
01530             162.00     -600.00
01531             -56.00     -800.00
01532            -254.00     -800.00
01533            -254.00     -400.00
01534             246.00     -600.00
01535             246.00     -800.00
01536            -254.00    -1000.00
01537            -254.00     -600.00
01538              14.00    -1000.00
01539             246.00    -1000.00
01540             232.00    -1000.00
01541            -254.00    -1000.00
01542            -254.00    -1200.00
01543             246.00    -1200.00
01544             230.00    -1000.00
01545            -102.00    -1600.00
01546             -80.00    -1400.00
01547            -128.00    -1400.00
01548              12.00    -1400.00
01549             198.00    -1800.00
01550              56.00    -1600.00
01551            -254.00    -1600.00
01552             -22.00    -1800.00
01553             240.00    -1800.00
01554             -10.00    -2000.00
01555            -202.00    -2000.00
01556              16.00    -2200.00
01557             138.00    -2000.00
01558              -6.00    -2200.00
01559             -78.00    -2400.00
01560             -48.00    -2400.00
01561              32.00    -2200.00
01562              54.00    -2400.00
01563              -2.00    -2400.00
01564             -58.00    -2400.00
01565               8.00    -2600.00
01566              16.00    -2600.00
01567             -18.00    -2600.00
01568              -4.00    -2600.00
01569              10.00    -2600.00
01570              -8.00    -2600.00
01571               6.00    -2800.00
01572              -2.00    -3000.00
01573             -42.00    -2800.00
01574              10.00    -3000.00
01575              50.00    -3000.00
01576             -10.00    -3000.00
01577             -54.00    -3200.00
01578               2.00    -3000.00
01579              30.00    -3200.00
01580               4.00    -3000.00
01581             -16.00    -3200.00
01582             -10.00    -3200.00
01583               2.00    -3200.00
01584              10.00    -3200.00
01585               0.00    -3200.00
01586             -14.00    -3200.00
01587              -8.00    -3400.00
01588               2.00    -3400.00
01589               8.00    -3200.00
01590               0.00    -3400.00
01591             -10.00    -3400.00
01592              -2.00    -3400.00
01593               6.00    -3400.00
01594               0.00    -3600.00
01595             -10.00    -3800.00
01596               0.00    -3400.00
01597               8.00    -3800.00
01598               0.00    -3800.00
01599             -10.00    -3600.00
01600              -6.00    -3800.00
01601               6.00    -3600.00
01602               6.00    -3600.00
01603               2.00    -3800.00
01604              -2.00    -3600.00
01605              -6.00    -3600.00
01606              -2.00    -3800.00
01607               0.00    -3600.00
01608               0.00    -3800.00
01609               0.00    -3800.00
01610               0.00    -3800.00
01611              -2.00    -3800.00
01612              -6.00    -3800.00
01613              -8.00    -3600.00
01614               0.00    -3600.00
01615               8.00    -3800.00
01616               2.00    -3800.00
01617              -6.00    -3800.00
01618              -2.00    -3800.00
01619              -2.00    -3800.00
01620              -6.00    -3800.00
01621               0.00    -3800.00
01622               2.00    -4000.00
01623               0.00    -3800.00
01624              -6.00    -3800.00
01625              -6.00    -3800.00
01626              -8.00    -3800.00
01627              -2.00    -3800.00
01628               2.00    -3800.00
01629               2.00    -3800.00
01630              -6.00    -3600.00
01631              -8.00    -3600.00
01632              -6.00    -3800.00
01633              -2.00    -3400.00
01634              -2.00    -3600.00
01635              -2.00    -3400.00
01636               0.00    -3400.00
01637              -8.00    -3400.00
01638              -6.00    -3400.00
01639               0.00    -3400.00
01640              -2.00    -3400.00
01641              -6.00    -3400.00
01642              -2.00    -3400.00
01643              -2.00    -3200.00
01644               0.00    -3400.00
01645              -2.00    -3200.00
01646              -6.00    -3200.00
01647              -6.00    -3200.00
01648              -2.00    -3200.00
01649               0.00    -3200.00
01650               2.00    -3000.00
01651               0.00    -3000.00
01652              -6.00    -3000.00
01653             -10.00    -3000.00
01654              -2.00    -3000.00
01655               2.00    -2800.00
01656               2.00    -3000.00
01657              -2.00    -2800.00
01658             -10.00    -2800.00
01659              -8.00    -2600.00
01660               0.00    -2600.00
01661               2.00    -2600.00
01662              -2.00    -2600.00
01663              -6.00    -2600.00
01664              -2.00    -2600.00
01665              -2.00    -2400.00
01666              -4.00    -2400.00
01667              -2.00    -2400.00
01668               0.00    -2400.00
01669              -2.00    -2400.00
01670              -4.00    -2200.00
01671              -2.00    -2200.00
01672              -2.00    -2200.00
01673              -2.00    -2200.00
01674              -6.00    -1800.00
01675              -2.00    -1800.00
01676               0.00    -1800.00
01677               0.00    -1800.00
01678              -6.00    -1600.00
01679              -6.00    -1800.00
01680              -2.00    -1600.00
01681               0.00    -1600.00
01682              -2.00    -1600.00
01683              -4.00    -1400.00
01684              -6.00    -1600.00
01685              -6.00    -1400.00
01686              -6.00    -1400.00
01687              -6.00    -1200.00
01688              -2.00    -1200.00
01689               0.00    -1000.00
01690               0.00    -1200.00
01691              -8.00     -800.00
01692              -8.00    -1000.00
01693              -2.00     -800.00
01694              -2.00     -800.00
01695              -2.00     -800.00
01696              -6.00     -600.00
01697               0.00     -600.00
01698              -4.00     -600.00
01699              -6.00     -600.00
01700              -6.00     -600.00
01701              -6.00     -600.00
01702               0.00     -400.00
01703              -2.00     -200.00
01704              -6.00     -200.00
01705              -6.00     -200.00
01706              -6.00     -200.00
01707              -6.00        0.00
01708              -2.00        0.00
01709              -2.00      200.00
01710              -2.00      200.00
01711               0.00      400.00
01712              -2.00      200.00
01713               2.00      400.00
01714               8.00      400.00
01715               2.00      600.00
01716              -8.00      600.00
01717             -14.00      600.00
01718              -2.00      800.00
01719              22.00      800.00
01720             136.00     1000.00
01721             166.00     1200.00
01722            -254.00     1000.00
01723            -254.00      800.00
01724              92.00     1200.00
01725             246.00     1400.00
01726             246.00     1400.00
01727            -254.00      800.00
01728            -254.00     1400.00
01729             246.00     1600.00
01730             246.00     1800.00
01731            -254.00     1200.00
01732            -254.00     1600.00
01733             246.00     2000.00
01734             246.00     1800.00
01735            -242.00     1600.00
01736             -58.00     2000.00
01737             246.00     2200.00
01738            -178.00     1800.00
01739            -212.00     2000.00
01740             246.00     2400.00
01741             134.00     2200.00
01742            -254.00     2200.00
01743               0.00     2400.00
01744             242.00     2400.00
01745            -110.00     2200.00
01746            -170.00     2400.00
01747             152.00     2600.00
01748              72.00     2600.00
01749            -108.00     2600.00
01750             -40.00     2600.00
01751              22.00     2800.00
01752              18.00     2800.00
01753              26.00     3000.00
01754             -52.00     2800.00
01755             -14.00     3000.00
01756              62.00     3000.00
01757             -48.00     3000.00
01758             -58.00     3000.00
01759              86.00     3200.00
01760              -4.00     3200.00
01761             -76.00     3200.00
01762              54.00     3200.00
01763              10.00     3400.00
01764             -92.00     3200.00
01765              42.00     3400.00
01766              64.00     3400.00
01767             -66.00     3200.00
01768             -26.00     3400.00
01769              26.00     3400.00
01770             -10.00     3600.00
01771              -2.00     3400.00
01772               0.00     3600.00
01773             -22.00     3400.00
01774              10.00     3600.00
01775              -6.00     3800.00
01776             -24.00     3800.00
01777              18.00     3800.00
01778              -6.00     3800.00
01779             -32.00     3800.00
01780              22.00     3800.00
01781              14.00     4000.00
01782             -34.00     3800.00
01783               2.00     4000.00
01784              14.00     4000.00
01785             -24.00     3800.00
01786               0.00     4000.00
01787              10.00     4200.00
01788             -10.00     3800.00
01789              -6.00     4000.00
01790              -6.00     4000.00
01791              -8.00     4000.00
01792               6.00     4000.00
01793              -6.00     4200.00
01794              -8.00     4200.00
01795               8.00     4200.00
01796             -10.00     4000.00
01797             -16.00     4000.00
01798               6.00     4200.00
01799               2.00     4200.00
01800             -10.00     4200.00
01801               2.00     4400.00
01802               0.00     4200.00
01803             -14.00     4200.00
01804              -6.00     4200.00
01805               0.00     4200.00
01806               0.00     4200.00
01807               0.00     4400.00
01808              -6.00     4200.00
01809             -10.00     4200.00
01810              -2.00     4200.00
01811              -4.00     4000.00
01812              -6.00     4200.00
01813               0.00     4200.00
01814              -4.00     4000.00
01815              -8.00     4200.00
01816              -4.00     4200.00
01817              -8.00     4200.00
01818              -6.00     4000.00
01819               2.00     4200.00
01820              -2.00     4000.00
01821             -10.00     4200.00
01822              -2.00     4000.00
01823              -4.00     4000.00
01824             -10.00     4000.00
01825              -2.00     4000.00
01826               0.00     4000.00
01827              -2.00     4000.00
01828              -6.00     3800.00
01829             -10.00     4000.00
01830              -6.00     3800.00
01831              -6.00     3800.00
01832              -8.00     3800.00
01833              -2.00     3800.00
01834               0.00     3800.00
01835              -8.00     3800.00
01836             -10.00     3800.00
01837              -2.00     3800.00
01838              -2.00     3800.00
01839              -2.00     3800.00
01840               0.00     3800.00
01841              -2.00     3600.00
01842             -10.00     3600.00
01843              -8.00     3400.00
01844              -2.00     3400.00
01845              -6.00     3400.00
01846              -6.00     3400.00
01847              -6.00     3200.00
01848              -2.00     3200.00
01849              -8.00     3200.00
01850              -8.00     3200.00
01851              -2.00     3200.00
01852               0.00     3200.00
01853              -4.00     3000.00
01854              -2.00     3000.00
01855               0.00     3000.00
01856              -6.00     3000.00
01857              -8.00     3000.00
01858              -6.00     3000.00
01859              -2.00     3000.00
01860              -2.00     2800.00
01861              -2.00     2600.00
01862              -2.00     2600.00
01863              -4.00     2600.00
01864              -4.00     2600.00
01865              -2.00     2600.00
01866              -2.00     2400.00
01867              -2.00     2400.00
01868              -2.00     2400.00
01869              -2.00     2400.00
01870              -8.00     2200.00
01871              -8.00     2200.00
01872               0.00     2200.00
01873               2.00     2000.00
01874              -2.00     2000.00
01875              -8.00     1800.00
01876              -6.00     1800.00
01877              -2.00     1800.00
01878              -2.00     1800.00
01879              -4.00     1600.00
01880               0.00     1600.00
01881              -6.00     1600.00
01882              -8.00     1600.00
01883              -8.00     1400.00
01884              -2.00     1400.00
01885              -2.00     1400.00
01886              -6.00     1400.00
01887              -2.00     1200.00
01888              -2.00     1000.00
01889              -6.00     1200.00
01890             -10.00     1000.00
01891              -6.00     1000.00
01892               0.00     1000.00
01893              -2.00      800.00
01894              -2.00      800.00
01895              -6.00      800.00
01896              -2.00      600.00
01897              -6.00      600.00
01898              -6.00      600.00
01899              -2.00      600.00
01900              -4.00      200.00
01901              -6.00      200.00
01902               0.00      200.00
01903               0.00        0.00
01904              -2.00        0.00
01905               2.00        0.00
01906               2.00     -200.00
01907              -2.00     -200.00
01908              -8.00     -200.00
01909              -6.00     -200.00
01910               6.00     -200.00
01911              38.00     -200.00
01912             140.00     -600.00
01913             104.00     -800.00
01914            -254.00    -1000.00
01915            -254.00     -600.00
01916             168.00     -400.00
01917             246.00     -600.00
01918             246.00    -1000.00
01919            -254.00    -1000.00
01920            -254.00     -800.00
01921             246.00    -1000.00
01922             246.00    -1000.00
01923            -254.00    -1000.00
01924            -254.00    -1000.00
01925             132.00    -1200.00
01926             246.00    -1400.00
01927              38.00    -1200.00
01928            -118.00    -1600.00
01929             -88.00    -1400.00
01930             -98.00    -1400.00
01931             122.00    -1600.00
01932             194.00    -1800.00
01933            -154.00    -1600.00
01934            -196.00    -1800.00
01935             160.00    -2200.00
01936             168.00    -1800.00
01937            -174.00    -2000.00
01938            -110.00    -2000.00
01939             118.00    -2200.00
01940              82.00    -2200.00
01941             -66.00    -2400.00
01942             -62.00    -2200.00
01943             -10.00    -2200.00
01944              56.00    -2400.00
01945              30.00    -2600.00
01946             -48.00    -2400.00
01947             -24.00    -2400.00
01948              18.00    -2600.00
01949              -2.00    -2600.00
01950             -24.00    -2600.00
01951              18.00    -2600.00
01952              -2.00    -2800.00
01953              -2.00    -2800.00
01954               2.00    -2800.00
01955             -26.00    -2800.00
01956             -24.00    -3000.00
01957              42.00    -3000.00
01958              26.00    -3000.00
01959             -50.00    -3200.00
01960             -32.00    -3000.00
01961              24.00    -3200.00
01962              18.00    -3200.00
01963             -16.00    -3200.00
01964             -16.00    -3200.00
01965              -2.00    -3200.00
01966               8.00    -3400.00
01967               6.00    -3400.00
01968             -12.00    -3400.00
01969             -14.00    -3400.00
01970               0.00    -3400.00
01971              10.00    -3200.00
01972               2.00    -3400.00
01973             -10.00    -3400.00
01974             -10.00    -3400.00
01975               6.00    -3400.00
01976               6.00    -3400.00
01977              -8.00    -3400.00
01978             -10.00    -3400.00
01979               2.00    -3800.00
01980               6.00    -3600.00
01981              -6.00    -3800.00
01982             -10.00    -3600.00
01983              -2.00    -3800.00
01984               0.00    -3600.00
01985               6.00    -3800.00
01986               2.00    -3800.00
01987              -6.00    -3600.00
01988              -8.00    -3800.00
01989              -4.00    -3800.00
01990               0.00    -3800.00
01991               6.00    -3800.00
01992               2.00    -3600.00
01993              -2.00    -4000.00
01994              -6.00    -3800.00
01995              -8.00    -3800.00
01996              -2.00    -3800.00
01997               6.00    -3800.00
01998               2.00    -3800.00
01999              -8.00    -3600.00
02000              -2.00    -3800.00
02001              -2.00    -3800.00
02002              -2.00    -3800.00
02003              -2.00    -3800.00
02004               0.00    -3800.00
02005               2.00    -3800.00
02006               0.00    -3400.00
02007              -4.00    -3800.00
02008              -4.00    -3800.00
02009              -6.00    -3800.00
02010              -2.00    -3800.00
02011               0.00    -3600.00
02012              -2.00    -3800.00
02013              -6.00    -3800.00
02014              -2.00    -3600.00
02015              -6.00    -3800.00
02016              -6.00    -3400.00
02017              -2.00    -3600.00
02018               2.00    -3600.00
02019              -2.00    -3400.00
02020              -6.00    -3400.00
02021              -6.00    -3400.00
02022              -4.00    -3400.00
02023              -4.00    -3400.00
02024              -2.00    -3400.00
02025              -2.00    -3200.00
02026               0.00    -3400.00
02027              -6.00    -3400.00
02028              -2.00    -3200.00
02029              -4.00    -3200.00
02030              -2.00    -3200.00
02031              -2.00    -3200.00
02032               0.00    -3200.00
02033              -2.00    -3000.00
02034              -6.00    -3000.00
02035              -6.00    -3000.00
02036              -2.00    -3000.00
02037               0.00    -3000.00
02038               0.00    -3000.00
02039              -2.00    -2800.00
02040              -2.00    -2600.00
02041              -6.00    -2600.00
02042              -2.00    -2600.00
02043               0.00    -2600.00
02044              -2.00    -2600.00
02045              -6.00    -2400.00
02046              -2.00    -2600.00
02047               0.00    -2400.00
02048              -2.00    -2400.00
02049              -6.00    -2600.00
02050              -4.00    -2400.00
02051               0.00    -2400.00
02052               0.00    -2200.00
02053              -2.00    -2200.00
02054              -4.00    -2200.00
02055              -6.00    -2200.00
02056              -2.00    -2000.00
02057               0.00    -2200.00
02058               0.00    -1800.00
02059              -2.00    -1800.00
02060              -4.00    -1800.00
02061              -6.00    -1800.00
02062              -2.00    -1600.00
02063              -4.00    -1600.00
02064               0.00    -1600.00
02065               0.00    -1400.00
02066               0.00    -1400.00
02067              -6.00    -1400.00
02068              -6.00    -1200.00
02069              -2.00    -1200.00
02070              -2.00    -1400.00
02071               0.00    -1200.00
02072              -2.00    -1000.00
02073              -2.00    -1000.00
02074              -8.00    -1000.00
02075              -6.00     -800.00
02076              -2.00    -1000.00
02077              -6.00     -800.00
02078              -2.00     -600.00
02079              -2.00     -600.00
02080              -2.00     -600.00
02081              -6.00     -600.00
02082              -6.00     -600.00
02083              -4.00     -400.00
02084              -2.00     -400.00
02085              -2.00     -200.00
02086              -2.00     -200.00
02087              -6.00     -200.00
02088              -2.00     -200.00
02089              -6.00        0.00
02090              -6.00        0.00
02091              -2.00        0.00
02092              -2.00        0.00
02093               0.00      200.00
02094              -4.00      200.00
02095              -2.00      200.00
02096               8.00      400.00
02097               6.00      600.00
02098              -4.00      600.00
02099             -12.00      600.00
02100              -6.00      800.00
02101               8.00      800.00
02102              64.00     1000.00
02103             186.00     1200.00
02104              12.00     1200.00
02105            -254.00      800.00
02106            -254.00      800.00
02107             246.00     1200.00
02108             246.00     1600.00
02109            -254.00     1000.00
02110            -254.00     1200.00
02111             -42.00     1600.00
02112             246.00     1600.00
02113             238.00     1400.00
02114            -254.00     1200.00
02115            -210.00     1800.00
02116             246.00     1800.00
02117              10.00     1600.00
02118            -252.00     1600.00
02119             178.00     2200.00
02120              80.00     2200.00
02121            -254.00     1800.00
02122              48.00     2200.00
02123             246.00     2400.00
02124            -146.00     2200.00
02125            -232.00     2200.00
02126             214.00     2400.00
02127              86.00     2400.00
02128            -222.00     2200.00
02129               6.00     2600.00
02130             170.00     2600.00
02131             -46.00     2400.00
02132             -94.00     2800.00
02133              14.00     2800.00
02134              16.00     2600.00
02135              32.00     2800.00
02136             -10.00     3000.00
02137             -58.00     3000.00
02138              40.00     3000.00
02139              24.00     3000.00
02140             -90.00     3000.00
02141              26.00     3200.00
02142              70.00     3200.00
02143             -72.00     3000.00
02144             -16.00     3000.00
02145              66.00     3400.00
02146             -66.00     3200.00
02147             -36.00     3200.00
02148              86.00     3400.00
02149             -10.00     3400.00
02150             -72.00     3400.00
02151              18.00     3600.00
02152               8.00     3400.00
02153             -14.00     3400.00
02154               8.00     3800.00
02155             -18.00     3400.00
02156              -8.00     3800.00
02157              14.00     3800.00
02158             -24.00     3800.00
02159              -2.00     3800.00
02160              22.00     3800.00
02161             -34.00     3800.00
02162              -8.00     3800.00
02163              30.00     3800.00
02164             -22.00     4000.00
02165             -24.00     3800.00
02166              18.00     4000.00
02167             -10.00     3800.00
02168             -16.00     3800.00
02169              14.00     4200.00
02170              -4.00     4000.00
02171             -14.00     4200.00
02172              -2.00     4000.00
02173             -10.00     4000.00
02174              -4.00     4000.00
02175               2.00     4200.00
02176             -10.00     4000.00
02177               2.00     4200.00
02178               6.00     4200.00
02179             -22.00     4200.00
02180              -8.00     4000.00
02181               8.00     4200.00
02182             -10.00     4200.00
02183              -2.00     4200.00
02184               6.00     4200.00
02185             -12.00     4200.00
02186             -12.00     4200.00
02187               0.00     4200.00
02188               0.00     4200.00
02189               0.00     4200.00
02190              -2.00     4200.00
02191             -10.00     4200.00
02192              -6.00     4200.00
02193               0.00     4200.00
02194              -8.00     4200.00
02195              -2.00     4200.00
02196               0.00     4200.00
02197              -8.00     4200.00
02198              -2.00     4000.00
02199              -6.00     4200.00
02200              -8.00     4000.00
02201               0.00     4200.00
02202               2.00     4000.00
02203              -8.00     4000.00
02204              -8.00     4000.00
02205              -2.00     4000.00
02206             -10.00     4000.00
02207              -8.00     4200.00
02208               0.00     4000.00
02209               0.00     4000.00
02210              -4.00     4000.00
02211             -10.00     4000.00
02212              -8.00     3800.00
02213               0.00     4000.00
02214              -6.00     3800.00
02215              -6.00     3800.00
02216              -2.00     3800.00
02217              -2.00     3800.00
02218             -10.00     3800.00
02219              -6.00     3800.00
02220              -6.00     3600.00
02221             -10.00     3600.00
02222              -2.00     3800.00
02223               0.00     3600.00
02224              -6.00     3600.00
02225             -10.00     3400.00
02226              -8.00     3200.00
02227              -6.00     3400.00
02228              -6.00     3400.00
02229              -2.00     3400.00
02230               0.00     3400.00
02231              -2.00     3200.00
02232             -10.00     3200.00
02233              -8.00     3200.00
02234               2.00     3200.00
02235               0.00     3200.00
02236              -6.00     3000.00
02237              -6.00     3200.00
02238              -6.00     3000.00
02239              -8.00     3000.00
02240              -6.00     3000.00
02241              -2.00     3000.00
02242              -2.00     2800.00
02243              -2.00     2800.00
02244              -6.00     2600.00
02245              -6.00     2600.00
02246              -2.00     2600.00
02247              -2.00     2600.00
02248               0.00     2600.00
02249              -2.00     2400.00
02250              -6.00     2400.00
02251              -4.00     2400.00
02252              -2.00     2200.00
02253              -8.00     2200.00
02254              -8.00     2200.00
02255               0.00     2200.00
02256               0.00     2000.00
02257              -4.00     1800.00
02258              -6.00     2000.00
02259              -2.00     1800.00
02260              -2.00     1600.00
02261               0.00     1800.00
02262               0.00     1600.00
02263               0.00     1600.00
02264              -6.00     1600.00
02265              -2.00     1400.00
02266              -2.00     1400.00
02267               0.00     1400.00
02268              -6.00     1400.00
02269              -6.00     1200.00
02270               0.00     1200.00
02271               0.00     1200.00
02272              -6.00     1000.00
02273              -8.00     1000.00
02274              -6.00     1000.00
02275              -2.00      800.00
02276               0.00      800.00
02277              -2.00      600.00
02278              -6.00      600.00
02279              -6.00      400.00
02280              -6.00      600.00
02281              -2.00      600.00
02282              -2.00      200.00
02283              -2.00      200.00
02284              -2.00      200.00
02285               0.00      200.00
02286              -2.00      200.00
02287               2.00        0.00
02288               6.00        0.00
02289               0.00        0.00
02290             -10.00     -200.00
02291             -10.00     -200.00
02292               0.00     -200.00
02293              18.00     -600.00
02294              86.00     -400.00
02295             158.00     -400.00
02296             -68.00     -800.00
02297            -254.00     -800.00
02298            -244.00     -200.00
02299             246.00     -600.00
02300             246.00     -800.00
02301            -254.00    -1000.00
02302            -254.00     -800.00
02303              46.00    -1200.00
02304             246.00    -1000.00
02305             210.00    -1200.00
02306            -254.00    -1000.00
02307            -254.00    -1400.00
02308             246.00    -1400.00
02309             224.00    -1200.00
02310            -102.00    -1400.00
02311             -78.00    -1400.00
02312            -130.00    -1400.00
02313              16.00    -1400.00
02314             202.00    -1600.00
02315              54.00    -1600.00
02316            -254.00    -1600.00
02317             -10.00    -1600.00
02318             240.00    -2000.00
02319             -14.00    -1800.00
02320            -202.00    -2000.00
02321              18.00    -2200.00
02322             136.00    -2200.00
02323              -6.00    -2200.00
02324             -70.00    -2200.00
02325             -46.00    -2200.00
02326              34.00    -2200.00
02327              54.00    -2400.00
02328              -2.00    -2400.00
02329             -54.00    -2400.00
02330              16.00    -2600.00
02331              14.00    -2600.00
02332             -22.00    -2600.00
02333              -2.00    -2800.00
02334              14.00    -2600.00
02335              -2.00    -2600.00
02336               2.00    -3000.00
02337              -8.00    -3000.00
02338             -46.00    -2800.00
02339              14.00    -2800.00
02340              52.00    -3000.00
02341             -10.00    -3000.00
02342             -54.00    -3000.00
02343               0.00    -3000.00
02344              30.00    -3200.00
02345               0.00    -3000.00
02346             -16.00    -3000.00
02347             -14.00    -3200.00
02348               4.00    -3200.00
02349               8.00    -3200.00
02350              -2.00    -3200.00
02351             -16.00    -3400.00
02352             -10.00    -3400.00
02353               6.00    -3400.00
02354               8.00    -3400.00
02355              -6.00    -3600.00
02356             -14.00    -3400.00
02357              -8.00    -3400.00
02358               6.00    -3400.00
02359               0.00    -3600.00
02360              -8.00    -3400.00
02361              -2.00    -3600.00
02362               6.00    -3800.00
02363              -2.00    -3800.00
02364              -8.00    -3800.00
02365              -4.00    -3800.00
02366               0.00    -3800.00
02367               0.00    -3800.00
02368               0.00    -3800.00
02369              -2.00    -3800.00
02370              -6.00    -3800.00
02371              -6.00    -3800.00
02372              -2.00    -3800.00
02373               2.00    -3800.00
02374               2.00    -3800.00
02375              -2.00    -3800.00
02376              -2.00    -3800.00
02377              -6.00    -3800.00
02378              -8.00    -4000.00
02379              -2.00    -3800.00
02380               6.00    -3800.00
02381               0.00    -3800.00
02382              -2.00    -3600.00
02383              -2.00    -3800.00
02384              -2.00    -3800.00
02385              -4.00    -3800.00
02386               0.00    -3800.00
02387               2.00    -3800.00
02388               0.00    -3800.00
02389              -2.00    -3800.00
02390              -6.00    -3600.00
02391              -8.00    -3800.00
02392              -2.00    -3800.00
02393               2.00    -3600.00
02394               2.00    -3600.00
02395              -2.00    -3600.00
02396              -8.00    -3600.00
02397              -2.00    -3600.00
02398              -2.00    -3400.00
02399              -2.00    -3600.00
02400              -2.00    -3400.00
02401               0.00    -3400.00
02402              -2.00    -3400.00
02403              -6.00    -3600.00
02404              -6.00    -3400.00
02405              -2.00    -3400.00
02406              -2.00    -3400.00
02407               0.00    -3400.00
02408               0.00    -3400.00
02409              -2.00    -3400.00
02410              -6.00    -3200.00
02411              -6.00    -3400.00
02412              -4.00    -3200.00
02413               0.00    -3000.00
02414               0.00    -3000.00
02415               0.00    -3200.00
02416              -8.00    -3200.00
02417              -8.00    -3000.00
02418              -4.00    -3000.00
02419              -2.00    -3000.00
02420              -2.00    -2800.00
02421              -2.00    -3000.00
02422              -2.00    -2800.00
02423              -2.00    -3000.00
02424              -6.00    -2800.00
02425              -8.00    -2600.00
02426              -2.00    -2600.00
02427               2.00    -2600.00
02428              -2.00    -2600.00
02429              -8.00    -2400.00
02430              -6.00    -2400.00
02431              -2.00    -2400.00
02432              -2.00    -2400.00
02433               0.00    -2400.00
02434              -2.00    -2200.00
02435              -2.00    -2400.00
02436               0.00    -2200.00
02437              -6.00    -2200.00
02438              -4.00    -2000.00
02439              -4.00    -2200.00
02440              -2.00    -2000.00
02441               6.00    -1800.00
02442               0.00    -1800.00
02443              -6.00    -1800.00
02444              -6.00    -1800.00
02445              -2.00    -1600.00
02446               0.00    -1600.00
02447               6.00    -1600.00
02448              -2.00    -1400.00
02449              -8.00    -1600.00
02450              -6.00    -1400.00
02451              -2.00    -1400.00
02452               0.00    -1200.00
02453               0.00    -1200.00
02454               0.00    -1200.00
02455              -2.00    -1000.00
02456              -4.00    -1000.00
02457              -6.00     -800.00
02458               0.00     -800.00
02459               0.00    -1000.00
02460              -2.00     -800.00
02461              -2.00     -800.00
02462              -2.00     -600.00
02463              -2.00     -600.00
02464              -2.00     -600.00
02465              -6.00     -600.00
02466              -2.00     -400.00
02467              -2.00     -400.00
02468              -4.00     -200.00
02469              -4.00     -200.00
02470              -4.00     -200.00
02471              -2.00     -200.00
02472              -4.00        0.00
02473              -6.00        0.00
02474              -4.00        0.00
02475              -2.00      200.00
02476               2.00      200.00
02477               2.00      200.00
02478               2.00      200.00
02479               4.00      200.00
02480               0.00      400.00
02481              -6.00      600.00
02482             -10.00      600.00
02483              -4.00      600.00
02484              22.00      800.00
02485             134.00     1000.00
02486             160.00     1200.00
02487            -254.00      800.00
02488            -254.00      800.00
02489             112.00     1200.00
02490             246.00     1400.00
02491             246.00     1400.00
02492            -254.00      800.00
02493            -254.00     1400.00
02494             246.00     1800.00
02495             246.00     1800.00
02496            -254.00     1200.00
02497            -254.00     1600.00
02498             246.00     2000.00
02499             246.00     1600.00
02500            -250.00     1400.00
02501             -46.00     2000.00
02502             242.00     2200.00
02503            -188.00     1800.00
02504            -202.00     1800.00
02505             246.00     2200.00
02506             126.00     2200.00
02507            -254.00     2000.00
02508              14.00     2400.00
02509             240.00     2400.00
02510            -118.00     2200.00
02511            -168.00     2400.00
02512             158.00     2600.00
02513              70.00     2400.00
02514            -106.00     2400.00
02515             -34.00     2600.00
02516              20.00     2600.00
02517              22.00     2600.00
02518              26.00     2800.00
02519             -50.00     2800.00
02520             -16.00     3000.00
02521              62.00     3200.00
02522             -48.00     3000.00
02523             -56.00     3000.00
02524              86.00     3000.00
02525              -4.00     3000.00
02526             -74.00     3200.00
02527              54.00     3200.00
02528               6.00     3400.00
02529             -86.00     3200.00
02530              48.00     3400.00
02531              64.00     3400.00
02532             -70.00     3200.00
02533             -28.00     3400.00
02534              30.00     3400.00
02535             -10.00     3400.00
02536               0.00     3600.00
02537              -2.00     3800.00
02538             -24.00     3600.00
02539              10.00     3600.00
02540              -6.00     3800.00
02541             -22.00     3800.00
02542              22.00     3800.00
02543              -8.00     3800.00
02544             -36.00     3800.00
02545              22.00     3800.00
02546              10.00     3800.00
02547             -34.00     4000.00
02548               6.00     3800.00
02549               6.00     4000.00
02550             -24.00     4000.00
02551               0.00     4000.00
02552              10.00     4000.00
02553             -12.00     4000.00
02554              -8.00     4200.00
02555              -6.00     4000.00
02556              -6.00     4000.00
02557               4.00     4000.00
02558              -8.00     4200.00
02559             -10.00     4000.00
02560              10.00     4200.00
02561              -6.00     4200.00
02562             -18.00     4000.00
02563               2.00     4200.00
02564               0.00     4200.00
02565             -10.00     4200.00
02566               6.00     4200.00
02567               0.00     4200.00
02568             -16.00     4200.00
02569              -6.00     4200.00
02570               0.00     4200.00
02571               2.00     4200.00
02572               6.00     4200.00
02573              -8.00     4200.00
02574             -14.00     4200.00
02575              -2.00     4200.00
02576              -2.00     4200.00
02577              -2.00     4000.00
02578               0.00     4000.00
02579              -6.00     4000.00
02580              -6.00     4000.00
02581              -2.00     4000.00
02582              -8.00     4200.00
02583              -6.00     4200.00
02584               6.00     4200.00
02585              -2.00     4000.00
02586             -10.00     4200.00
02587               0.00     4200.00
02588              -2.00     4200.00
02589              -8.00     4000.00
02590              -2.00     4000.00
02591               0.00     4000.00
02592               0.00     4000.00
02593              -4.00     3800.00
02594             -10.00     4000.00
02595              -8.00     3800.00
02596              -2.00     3800.00
02597              -6.00     3800.00
02598              -2.00     3800.00
02599              -2.00     3800.00
02600              -8.00     3800.00
02601              -6.00     3800.00
02602              -2.00     3800.00
02603              -8.00     3600.00
02604              -6.00     3400.00
02605               2.00     3600.00
02606              -2.00     3600.00
02607             -10.00     3400.00
02608             -10.00     3600.00
02609              -4.00     3400.00
02610              -2.00     3400.00
02611               0.00     3400.00
02612              -6.00     3400.00
02613              -4.00     3200.00
02614              -8.00     3400.00
02615              -8.00     3200.00
02616              -2.00     3000.00
02617               0.00     3200.00
02618              -6.00     3000.00
02619              -8.00     3200.00
02620              -2.00     3000.00
02621              -2.00     3000.00
02622              -6.00     3000.00
02623               0.00     2800.00
02624              -4.00     3000.00
02625              -6.00     2800.00
02626              -6.00     2600.00
02627              -2.00     2800.00
02628              -6.00     2400.00
02629              -6.00     2600.00
02630               0.00     2400.00
02631               0.00     2400.00
02632              -6.00     2400.00
02633              -2.00     2400.00
02634               0.00     2200.00
02635              -2.00     2200.00
02636              -8.00     2200.00
02637              -6.00     2200.00
02638               2.00     2200.00
02639               0.00     1800.00
02640              -8.00     1800.00
02641              -4.00     1800.00
02642              -2.00     1800.00
02643              -6.00     1800.00
02644              -2.00     1800.00
02645               0.00     1600.00
02646               0.00     1600.00
02647              -6.00     1600.00
02648              -8.00     1400.00
02649              -2.00     1400.00
02650               0.00     1400.00
02651              -2.00     1200.00
02652              -2.00     1400.00
02653              -2.00     1000.00
02654              -2.00     1000.00
02655              -6.00     1000.00
02656              -2.00     1000.00
02657              -2.00     1000.00
02658              -2.00      800.00
02659              -2.00      800.00
02660              -2.00      800.00
02661              -6.00      600.00
02662              -6.00      600.00
02663              -4.00      400.00
02664               0.00      600.00
02665              -2.00      600.00
02666              -2.00      200.00
02667               0.00      200.00
02668               0.00      200.00
02669               0.00      200.00
02670               2.00        0.00
02671               2.00     -200.00
02672              -8.00     -200.00
02673              -8.00        0.00
02674              -6.00     -200.00
02675               6.00     -200.00
02676              38.00     -200.00
02677             142.00     -400.00
02678              98.00     -600.00
02679            -254.00     -800.00
02680            -254.00     -400.00
02681             184.00     -600.00
02682             246.00     -800.00
02683             246.00    -1000.00
02684            -254.00    -1000.00
02685            -254.00     -800.00
02686             246.00    -1000.00
02687             246.00    -1000.00
02688            -254.00    -1200.00
02689            -254.00    -1000.00
02690             144.00    -1400.00
02691             246.00    -1200.00
02692              30.00    -1400.00
02693            -118.00    -1600.00
02694             -88.00    -1400.00
02695             -98.00    -1400.00
02696             126.00    -1600.00
02697             192.00    -2000.00
02698            -160.00    -1600.00
02699            -192.00    -1600.00
02700             166.00    -2000.00
02701             162.00    -2200.00
02702            -180.00    -1800.00
02703            -104.00    -2000.00
02704             120.00    -2200.00
02705              84.00    -2200.00
02706             -70.00    -2200.00
02707             -60.00    -2200.00
02708              -8.00    -2200.00
02709              58.00    -2400.00
02710              32.00    -2400.00
02711             -48.00    -2400.00
02712             -24.00    -2600.00
02713              22.00    -2600.00
02714               0.00    -2600.00
02715             -18.00    -2600.00
02716              16.00    -2600.00
02717              -2.00    -2600.00
02718               0.00    -2800.00
02719               6.00    -3000.00
02720             -26.00    -3000.00
02721             -26.00    -3000.00
02722              42.00    -3000.00
02723              30.00    -3000.00
02724             -48.00    -3000.00
02725             -26.00    -3000.00
02726              24.00    -3200.00
02727              18.00    -3200.00
02728             -16.00    -3200.00
02729             -16.00    -3000.00
02730              -2.00    -3200.00
02731               8.00    -3200.00
02732               6.00    -3400.00
02733             -10.00    -3200.00
02734             -14.00    -3400.00
02735              -4.00    -3200.00
02736               8.00    -3400.00
02737               4.00    -3400.00
02738             -10.00    -3600.00
02739             -12.00    -3800.00
02740              -2.00    -3400.00
02741               6.00    -3400.00
02742              -6.00    -3400.00
02743              -8.00    -3400.00
02744               0.00    -3800.00
02745               2.00    -3600.00
02746              -8.00    -3600.00
02747              -6.00    -3800.00
02748              -2.00    -3800.00
02749              -4.00    -3800.00
02750               0.00    -3800.00
02751               0.00    -3800.00
02752              -2.00    -3800.00
02753             -10.00    -3600.00
02754              -2.00    -3800.00
02755               0.00    -3800.00
02756               2.00    -3800.00
02757               0.00    -3800.00
02758               0.00    -3800.00
02759              -2.00    -3800.00
02760             -10.00    -3800.00
02761              -8.00    -4000.00
02762               2.00    -3800.00
02763               6.00    -3800.00
02764              -2.00    -3800.00
02765              -4.00    -3800.00
02766              -6.00    -3800.00
02767              -6.00    -3800.00
02768               0.00    -3600.00
02769               6.00    -3800.00
02770               0.00    -3800.00
02771              -4.00    -3600.00
02772              -2.00    -3800.00
02773              -2.00    -3800.00
02774              -2.00    -3600.00
02775               0.00    -3800.00
02776               0.00    -3600.00
02777               0.00    -3400.00
02778              -2.00    -3600.00
02779              -2.00    -3800.00
02780              -2.00    -3600.00
02781              -2.00    -3600.00
02782              -2.00    -3600.00
02783               6.00    -3400.00
02784               0.00    -3600.00
02785              -6.00    -3400.00
02786              -6.00    -3400.00
02787              -2.00    -3400.00
02788               0.00    -3400.00
02789               0.00    -3400.00
02790               0.00    -3200.00
02791              -2.00    -3400.00
02792              -2.00    -3200.00
02793              -2.00    -3200.00
02794              -4.00    -3200.00
02795              -6.00    -3200.00
02796              -2.00    -3200.00
02797               2.00    -3000.00
02798               0.00    -3000.00
02799              -8.00    -3200.00
02800              -8.00    -3000.00
02801              -2.00    -3000.00
02802               0.00    -2800.00
02803               0.00    -3000.00
02804              -2.00    -3000.00
02805              -2.00    -2800.00
02806              -6.00    -2600.00
02807              -2.00    -2600.00
02808              -2.00    -2600.00
02809               0.00    -2600.00
02810              -2.00    -2600.00
02811               0.00    -2600.00
02812              -6.00    -2400.00
02813              -4.00    -2400.00
02814              -6.00    -2400.00
02815               0.00    -2400.00
02816               0.00    -2400.00
02817              -2.00    -2200.00
02818              -6.00    -2200.00
02819              -2.00    -2200.00
02820              -6.00    -2200.00
02821              -2.00    -2200.00
02822               0.00    -2000.00
02823               0.00    -2000.00
02824              -2.00    -1800.00
02825              -2.00    -1600.00
02826              -6.00    -1800.00
02827              -2.00    -1600.00
02828              -2.00    -1600.00
02829               0.00    -1400.00
02830               0.00    -1400.00
02831               0.00    -1400.00
02832              -4.00    -1400.00
02833              -2.00    -1400.00
02834              -2.00    -1400.00
02835              -2.00    -1200.00
02836               0.00    -1000.00
02837              -2.00    -1000.00
02838              -2.00    -1000.00
02839              -4.00    -1000.00
02840              -2.00     -800.00
02841              -2.00     -800.00
02842               0.00     -800.00
02843              -2.00     -800.00
02844              -2.00     -600.00
02845              -2.00     -600.00
02846              -2.00     -600.00
02847              -6.00     -400.00
02848              -2.00     -600.00
02849               0.00     -400.00
02850               0.00     -200.00
02851              -2.00     -200.00
02852              -2.00        0.00
02853              -6.00     -200.00
02854              -2.00     -200.00
02855              -2.00        0.00
02856              -2.00      200.00
02857              -6.00      200.00
02858               0.00      200.00
02859               0.00      200.00
02860               0.00      400.00
02861               2.00      600.00
02862               6.00      600.00
02863              -2.00      600.00
02864              -8.00      600.00
02865              -8.00      800.00
02866               4.00      600.00
02867              66.00      600.00
02868             192.00     1200.00
02869               0.00     1200.00
02870            -254.00      800.00
02871            -254.00      800.00
02872             246.00     1400.00
02873             246.00     1400.00
02874            -254.00     1000.00
02875            -254.00     1000.00
02876             -20.00     1400.00
02877             246.00     1600.00
02878             222.00     1400.00
02879            -254.00     1200.00
02880            -202.00     1800.00
02881             246.00     1800.00
02882               0.00     1600.00
02883            -234.00     1600.00
02884             190.00     2200.00
02885              62.00     2000.00
02886            -254.00     1600.00
02887              62.00     2200.00
02888             246.00     2200.00
02889            -154.00     2200.00
02890            -234.00     2200.00
02891             214.00     2400.00
02892              86.00     2400.00
02893            -214.00     2200.00
02894              10.00     2600.00
02895             156.00     2600.00
02896             -54.00     2600.00
02897             -80.00     2600.00
02898              26.00     2800.00
02899              14.00     2600.00
02900              22.00     2800.00
02901             -18.00     3000.00
02902             -48.00     3000.00
02903              54.00     3000.00
02904              22.00     3000.00
02905             -98.00     3000.00
02906              30.00     3000.00
02907              72.00     3200.00
02908             -64.00     3200.00
02909             -10.00     3000.00
02910              64.00     3400.00
02911             -74.00     3200.00
02912             -32.00     3200.00
02913              94.00     3400.00
02914              -8.00     3200.00
02915             -72.00     3400.00
02916              18.00     3600.00
02917              10.00     3600.00
02918             -10.00     3400.00
02919              10.00     3600.00
02920             -18.00     3800.00
02921              -2.00     3600.00
02922              14.00     3800.00
02923             -22.00     3800.00
02924              -2.00     3600.00
02925              18.00     3800.00
02926             -32.00     3800.00
02927              -8.00     3800.00
02928              32.00     3800.00
02929             -22.00     3800.00
02930             -22.00     4000.00
02931              18.00     4000.00
02932             -14.00     4000.00
02933             -18.00     4000.00
02934              14.00     4000.00
02935              -2.00     3800.00
02936             -14.00     4000.00
02937              -6.00     4000.00
02938             -10.00     4000.00
02939               0.00     4000.00
02940               4.00     4000.00
02941             -14.00     4200.00
02942              -4.00     4000.00
02943               2.00     4000.00
02944             -16.00     4200.00
02945              -6.00     4000.00
02946               4.00     4200.00
02947             -14.00     4000.00
02948              -2.00     4200.00
02949               8.00     4200.00
02950             -10.00     4200.00
02951             -16.00     4200.00
02952              -2.00     4200.00
02953               0.00     4200.00
02954               0.00     4200.00
02955              -2.00     4200.00
02956             -10.00     4200.00
02957              -6.00     4200.00
02958              -2.00     4200.00
02959              -6.00     4200.00
02960              -2.00     4200.00
02961               2.00     4200.00
02962              -6.00     4200.00
02963              -6.00     4200.00
02964              -6.00     4200.00
02965              -8.00     4200.00
02966               0.00     4000.00
02967               2.00     4200.00
02968              -6.00     4200.00
02969              -4.00     4000.00
02970              -2.00     4000.00
02971             -10.00     4200.00
02972             -10.00     4000.00
02973               6.00     4000.00
02974               6.00     4000.00
02975              -4.00     4000.00
02976             -10.00     3800.00
02977              -8.00     3800.00
02978               0.00     4000.00
02979              -2.00     4000.00
02980              -4.00     3800.00
02981               0.00     3800.00
02982              -4.00     3800.00
02983             -10.00     4000.00
02984              -6.00     3800.00
02985              -2.00     3800.00
02986              -6.00     3600.00
02987              -6.00     3600.00
02988              -2.00     3600.00
02989              -8.00     3400.00
02990              -6.00     3600.00
02991              -2.00     3400.00
02992              -6.00     3400.00
02993              -6.00     3400.00
02994              -2.00     3400.00
02995               0.00     3400.00
02996              -8.00     3200.00
02997             -10.00     3400.00
02998              -6.00     3000.00
02999              -2.00     3200.00
03000              -2.00     3000.00
03001              -6.00     3200.00
03002              -6.00     3000.00
03003              -8.00     3000.00
03004              -8.00     2800.00
03005              -2.00     2800.00
03006               0.00     2800.00
03007              -6.00     2800.00
03008              -8.00     2600.00
03009              -6.00     2600.00
03010              -2.00     2600.00
03011              -2.00     2600.00
03012              -8.00     2600.00
03013              -6.00     2400.00
03014              -2.00     2600.00
03015               0.00     2400.00
03016               0.00     2200.00
03017              -2.00     2200.00
03018             -10.00     2200.00
03019             -10.00     2200.00
03020               0.00     2200.00
03021               6.00     2000.00
03022              -6.00     2200.00
03023              -8.00     2000.00
03024              -6.00     1800.00
03025              -6.00     1800.00
03026              -2.00     1600.00
03027               4.00     1600.00
03028               0.00     1600.00
03029             -10.00     1600.00
03030             -10.00     1400.00
03031               0.00     1400.00
03032               4.00     1400.00
03033              -2.00     1400.00
03034              -6.00     1400.00
03035               0.00     1200.00
03036               0.00     1000.00
03037              -6.00     1200.00
03038              -8.00     1000.00
03039              -2.00     1000.00
03040              -2.00      800.00
03041              -2.00      800.00
03042              -2.00      800.00
03043              -6.00      600.00
03044              -6.00      600.00
03045              -6.00      400.00
03046              -2.00      400.00
03047               0.00      600.00
03048              -2.00      200.00
03049              -2.00      200.00
03050              -2.00      200.00
03051               2.00      200.00
03052               6.00        0.00
03053               6.00        0.00
03054              -6.00        0.00
03055             -10.00        0.00
03056             -10.00     -200.00
03057               2.00     -200.00
03058              18.00     -200.00
03059              86.00     -200.00
03060             154.00     -600.00
03061             -78.00     -800.00
03062            -254.00     -800.00
03063            -230.00     -400.00
03064             246.00     -600.00
03065             246.00     -800.00
03066            -254.00    -1000.00
03067            -254.00     -800.00
03068              74.00    -1000.00
03069             246.00    -1000.00
03070             178.00    -1200.00
03071            -254.00    -1200.00
03072            -252.00    -1200.00
03073             246.00    -1400.00
03074             208.00    -1400.00
03075            -118.00    -1600.00
03076             -78.00    -1400.00
03077            -118.00    -1400.00
03078              24.00    -1400.00
03079             194.00    -1800.00
03080              28.00    -1600.00
03081            -254.00    -1600.00
03082               2.00    -2000.00
03083             246.00    -2200.00
03084             -22.00    -1800.00
03085            -208.00    -2000.00
03086              14.00    -2000.00
03087             134.00    -2200.00
03088              -2.00    -2200.00
03089             -64.00    -2400.00
03090             -48.00    -2200.00
03091              30.00    -2200.00
03092              50.00    -2400.00
03093               0.00    -2600.00
03094             -50.00    -2400.00
03095               4.00    -2600.00
03096               8.00    -2600.00
03097             -14.00    -2600.00
03098              16.00    -2600.00
03099              12.00    -2600.00
03100             -22.00    -2600.00
03101             -10.00    -2800.00
03102               6.00    -2800.00
03103             -24.00    -2600.00
03104              18.00    -3000.00
03105              34.00    -3000.00
03106             -26.00    -3000.00
03107             -48.00    -3000.00
03108              18.00    -3200.00
03109              38.00    -3200.00
03110              -8.00    -3400.00
03111             -26.00    -3200.00
03112             -10.00    -3200.00
03113              14.00    -3200.00
03114              16.00    -3400.00
03115              -8.00    -3200.00
03116             -24.00    -3400.00
03117             -10.00    -3400.00
03118               8.00    -3400.00
03119              14.00    -3400.00
03120              -2.00    -3400.00
03121             -16.00    -3400.00
03122              -8.00    -3400.00
03123               6.00    -3600.00
03124               2.00    -3600.00
03125              -8.00    -3600.00
03126              -2.00    -3600.00
03127               4.00    -3400.00
03128              -6.00    -3800.00
03129             -10.00    -3800.00
03130              -2.00    -3800.00
03131               0.00    -3600.00
03132               0.00    -3800.00
03133               2.00    -3800.00
03134              -6.00    -3800.00
03135              -8.00    -3800.00
03136              -6.00    -3800.00
03137              -2.00    -3800.00
03138               2.00    -3800.00
03139               0.00    -3800.00
03140              -2.00    -3800.00
03141              -2.00    -3800.00
03142              -4.00    -3800.00
03143              -6.00    -3800.00
03144              -2.00    -3800.00
03145               4.00    -3800.00
03146              -2.00    -3800.00
03147              -2.00    -3800.00
03148              -2.00    -4000.00
03149              -6.00    -3800.00
03150              -4.00    -3800.00
03151               0.00    -3800.00
03152               2.00    -3600.00
03153               0.00    -3800.00
03154              -2.00    -3800.00
03155              -6.00    -3800.00
03156              -4.00    -3800.00
03157               0.00    -3800.00
03158               2.00    -3800.00
03159               2.00    -3800.00
03160              -4.00    -3600.00
03161              -6.00    -3800.00
03162              -2.00    -3600.00
03163              -2.00    -3600.00
03164               0.00    -3400.00
03165               0.00    -3600.00
03166               2.00    -3400.00
03167              -2.00    -3400.00
03168              -2.00    -3400.00
03169               0.00    -3400.00
03170              -2.00    -3400.00
03171              -2.00    -3400.00
03172               2.00    -3200.00
03173               0.00    -3200.00
03174               0.00    -3400.00
03175              -4.00    -3200.00
03176              -2.00    -3200.00
03177              -2.00    -3200.00
03178               0.00    -3000.00
03179               0.00    -3000.00
03180               2.00    -3000.00
03181              -2.00    -3000.00
03182              -4.00    -3000.00
03183              -6.00    -3000.00
03184              -2.00    -3000.00
03185               0.00    -2800.00
03186               0.00    -3000.00
03187              -2.00    -2800.00
03188              -8.00    -2800.00
03189              -8.00    -3000.00
03190              -2.00    -2600.00
03191               0.00    -2600.00
03192               0.00    -2400.00
03193              -4.00    -2600.00
03194              -6.00    -2600.00
03195              -6.00    -2600.00
03196              -4.00    -2600.00
03197               0.00    -2400.00
03198              -2.00    -2400.00
03199              -4.00    -2200.00
03200              -6.00    -2200.00
03201              -2.00    -2200.00
03202              -4.00    -2200.00
03203              -8.00    -2000.00
03204              -2.00    -2000.00
03205              -2.00    -1800.00
03206              -2.00    -2200.00
03207              -4.00    -1800.00
03208              -6.00    -1800.00
03209              -4.00    -1800.00
03210              -6.00    -1800.00
03211              -2.00    -1600.00
03212               0.00    -1400.00
03213              -2.00    -1400.00
03214              -4.00    -1400.00
03215              -2.00    -1400.00
03216              -4.00    -1400.00
03217              -2.00    -1400.00
03218              -2.00    -1200.00
03219               0.00    -1000.00
03220              -2.00    -1000.00
03221              -2.00    -1000.00
03222              -6.00     -800.00
03223              -2.00     -800.00
03224              -6.00     -800.00
03225              -2.00     -800.00
03226               0.00     -800.00
03227               0.00     -600.00
03228              -2.00     -600.00
03229              -6.00     -400.00
03230              -4.00     -600.00
03231              -2.00     -400.00
03232              -2.00     -200.00
03233               0.00     -200.00
03234               0.00     -200.00
03235              -4.00     -200.00
03236              -6.00        0.00
03237              -2.00        0.00
03238              -2.00        0.00
03239              -2.00        0.00
03240              -2.00      200.00
03241               0.00      200.00
03242               0.00      200.00
03243               2.00      400.00
03244               6.00      600.00
03245               2.00      600.00
03246              -6.00      600.00
03247              -8.00      600.00
03248              -2.00      800.00
03249              22.00      800.00
03250             138.00      800.00
03251             160.00     1200.00
03252            -254.00     1000.00
03253            -254.00      800.00
03254             126.00     1200.00
03255             246.00     1400.00
03256             246.00     1400.00
03257            -254.00      800.00
03258            -254.00     1400.00
03259             246.00     1600.00
03260             246.00     1800.00
03261            -254.00     1000.00
03262            -254.00     1400.00
03263             246.00     2000.00
03264             246.00     1800.00
03265            -254.00     1600.00
03266             -48.00     1800.00
03267             246.00     2200.00
03268            -188.00     1800.00
03269            -202.00     1800.00
03270             246.00     2400.00
03271             112.00     2200.00
03272            -254.00     2200.00
03273              22.00     2400.00
03274             230.00     2400.00
03275            -126.00     2200.00
03276            -160.00     2400.00
03277             160.00     2600.00
03278              64.00     2400.00
03279            -106.00     2400.00
03280             -34.00     2600.00
03281              18.00     2600.00
03282              24.00     2600.00
03283              26.00     2800.00
03284             -54.00     2800.00
03285             -10.00     3000.00
03286              62.00     3000.00
03287             -54.00     3000.00
03288             -54.00     3000.00
03289              90.00     3200.00
03290              -8.00     3200.00
03291             -76.00     3200.00
03292              56.00     3400.00
03293               8.00     3200.00
03294             -86.00     3200.00
03295              48.00     3400.00
03296              60.00     3400.00
03297             -66.00     3400.00
03298             -24.00     3400.00
03299              30.00     3400.00
03300             -10.00     3400.00
03301               0.00     3600.00
03302              -2.00     3600.00
03303             -18.00     3600.00
03304              16.00     3800.00
03305              -6.00     3800.00
03306             -22.00     3600.00
03307              20.00     3800.00
03308              -6.00     3800.00
03309             -34.00     3800.00
03310              24.00     4000.00
03311              10.00     4000.00
03312             -32.00     3800.00
03313               6.00     4000.00
03314               8.00     3800.00
03315             -26.00     4000.00
03316               0.00     4000.00
03317              10.00     4000.00
03318             -10.00     4000.00
03319             -10.00     4000.00
03320              -8.00     4200.00
03321              -6.00     4000.00
03322               6.00     4200.00
03323              -6.00     4200.00
03324             -10.00     4000.00
03325               6.00     4200.00
03326              -8.00     4000.00
03327             -16.00     4200.00
03328               8.00     4200.00
03329               0.00     4000.00
03330             -10.00     4200.00
03331               6.00     4200.00
03332               0.00     4200.00
03333             -16.00     4000.00
03334              -6.00     4200.00
03335               0.00     4200.00
03336               0.00     4200.00
03337               2.00     4200.00
03338              -6.00     4200.00
03339             -10.00     4000.00
03340              -6.00     4200.00
03341              -2.00     4200.00
03342              -4.00     4200.00
03343               2.00     4200.00
03344              -6.00     4200.00
03345              -8.00     4200.00
03346              -4.00     4200.00
03347              -8.00     4200.00
03348              -6.00     4200.00
03349               4.00     4200.00
03350              -2.00     4000.00
03351             -10.00     4000.00
03352               0.00     4000.00
03353              -2.00     4000.00
03354             -10.00     3800.00
03355              -2.00     4000.00
03356               2.00     4000.00
03357              -2.00     4000.00
03358              -6.00     4000.00
03359              -6.00     4000.00
03360              -2.00     4000.00
03361              -2.00     3800.00
03362              -6.00     3800.00
03363               0.00     3800.00
03364               0.00     3800.00
03365              -8.00     3800.00
03366              -8.00     3800.00
03367              -2.00     3800.00
03368              -6.00     3600.00
03369              -2.00     3600.00
03370               0.00     3600.00
03371               0.00     3400.00
03372              -8.00     3600.00
03373              -8.00     3400.00
03374              -2.00     3400.00
03375              -2.00     3400.00
03376              -6.00     3400.00
03377              -2.00     3200.00
03378              -2.00     3200.00
03379              -8.00     3200.00
03380              -8.00     3200.00
03381              -6.00     3000.00
03382              -2.00     3000.00
03383              -6.00     3000.00
03384              -2.00     3000.00
03385              -4.00     3000.00
03386              -8.00     2800.00
03387              -8.00     2800.00
03388              -2.00     2800.00
03389              -2.00     2800.00
03390              -8.00     2600.00
03391              -6.00     2600.00
03392              -2.00     2600.00
03393              -6.00     2600.00
03394              -6.00     2600.00
03395              -2.00     2400.00
03396              -4.00     2400.00
03397              -6.00     2400.00
03398              -6.00     2400.00
03399              -6.00     2200.00
03400              -8.00     2200.00
03401              -8.00     2200.00
03402              -2.00     2200.00
03403               0.00     2000.00
03404              -2.00     1800.00
03405              -6.00     2000.00
03406              -8.00     1800.00
03407              -2.00     1800.00
03408              -2.00     1600.00
03409              -2.00     1600.00
03410              -2.00     1600.00
03411              -6.00     1400.00
03412              -8.00     1400.00
03413              -6.00     1400.00
03414              -2.00     1400.00
03415              -2.00     1400.00
03416              -6.00     1200.00
03417              -2.00     1400.00
03418              -2.00     1000.00
03419              -4.00     1000.00
03420              -8.00     1200.00
03421              -2.00      800.00
03422               0.00      800.00
03423              -2.00      800.00
03424              -2.00      800.00
03425              -2.00      600.00
03426              -2.00      600.00
03427              -2.00      400.00
03428              -6.00      600.00
03429              -2.00      400.00
03430              -2.00      200.00
03431               0.00      200.00
03432              -2.00      200.00
03433               0.00      200.00
03434               0.00        0.00
03435               6.00        0.00
03436               6.00        0.00
03437              -4.00     -200.00
03438             -10.00     -200.00
03439              -6.00     -200.00
03440               6.00     -200.00
03441              42.00     -200.00
03442             146.00     -600.00
03443              96.00     -600.00
03444            -254.00     -800.00
03445            -254.00     -600.00
03446             198.00     -600.00
03447             246.00     -600.00
03448             246.00    -1000.00
03449            -254.00    -1000.00
03450            -254.00     -800.00
03451             246.00    -1000.00
03452             246.00    -1000.00
03453            -254.00    -1000.00
03454            -254.00    -1000.00
03455             162.00    -1400.00
03456             246.00    -1400.00
03457              14.00    -1400.00
03458            -126.00    -1600.00
03459             -82.00    -1400.00
03460             -88.00    -1400.00
03461             124.00    -1600.00
03462             176.00    -2000.00
03463            -168.00    -1600.00
03464            -178.00    -1600.00
03465             176.00    -1800.00
03466             152.00    -1800.00
03467            -186.00    -2000.00
03468            -104.00    -1800.00
03469             120.00    -2200.00
03470              86.00    -2000.00
03471             -66.00    -2400.00
03472             -68.00    -2200.00
03473             -10.00    -2200.00
03474              60.00    -2400.00
03475              36.00    -2400.00
03476             -46.00    -2400.00
03477             -24.00    -2600.00
03478              18.00    -2600.00
03479              -6.00    -2400.00
03480             -22.00    -2600.00
03481              24.00    -2600.00
03482               0.00    -2600.00
03483               0.00    -2600.00
03484               4.00    -2800.00
03485             -26.00    -3000.00
03486             -24.00    -3000.00
03487              48.00    -3000.00
03488              30.00    -2800.00
03489             -48.00    -3000.00
03490             -30.00    -3000.00
03491              24.00    -3200.00
03492              16.00    -3000.00
03493             -10.00    -3200.00
03494             -10.00    -3200.00
03495              -2.00    -3200.00
03496               6.00    -3200.00
03497               6.00    -3200.00
03498              -8.00    -3200.00
03499             -10.00    -3400.00
03500               0.00    -3400.00
03501               8.00    -3200.00
03502               2.00    -3400.00
03503              -8.00    -3400.00
03504              -8.00    -3400.00
03505               6.00    -3600.00
03506               6.00    -3400.00
03507              -8.00    -3800.00
03508             -10.00    -3800.00
03509               4.00    -3800.00
03510               2.00    -3400.00
03511              -8.00    -3800.00
03512              -8.00    -3800.00
03513              -2.00    -3800.00
03514               0.00    -3800.00
03515               0.00    -3800.00
03516               0.00    -3800.00
03517              -2.00    -3800.00
03518              -8.00    -3800.00
03519              -6.00    -3800.00
03520              -2.00    -3800.00
03521               2.00    -3800.00
03522               0.00    -3800.00
03523              -2.00    -3600.00
03524              -6.00    -4000.00
03525             -10.00    -3800.00
03526              -6.00    -4000.00
03527               2.00    -3800.00
03528               6.00    -3800.00
03529              -6.00    -4000.00
03530              -2.00    -3800.00
03531              -6.00    -4000.00
03532              -8.00    -3800.00
03533               0.00    -3800.00
03534               6.00    -3800.00
03535               0.00    -3800.00
03536              -2.00    -3800.00
03537              -4.00    -3800.00
03538              -6.00    -3800.00
03539              -2.00    -3800.00
03540               0.00    -3800.00
03541               0.00    -3600.00
03542               0.00    -3600.00
03543              -6.00    -3800.00
03544              -6.00    -3800.00
03545              -2.00    -3600.00
03546              -2.00    -3400.00
03547               0.00    -3400.00
03548               4.00    -3400.00
03549              -2.00    -3400.00
03550              -6.00    -3600.00
03551              -2.00    -3400.00
03552              -2.00    -3400.00
03553              -2.00    -3400.00
03554               0.00    -3400.00
03555               0.00    -3400.00
03556              -2.00    -3200.00
03557              -2.00    -3000.00
03558              -2.00    -3200.00
03559              -4.00    -3200.00
03560              -2.00    -3200.00
03561               0.00    -3200.00
03562               0.00    -3200.00
03563               0.00    -3000.00
03564              -4.00    -3000.00
03565              -2.00    -3000.00
03566              -2.00    -3000.00
03567               0.00    -3000.00
03568               0.00    -2800.00
03569               2.00    -3000.00
03570              -2.00    -2600.00
03571              -8.00    -3000.00
03572              -6.00    -2600.00
03573               0.00    -2600.00
03574               0.00    -2600.00
03575               0.00    -2600.00
03576              -2.00    -2600.00
03577              -4.00    -2600.00
03578              -6.00    -2600.00
03579              -2.00    -2400.00
03580               0.00    -2200.00
03581              -2.00    -2200.00
03582              -2.00    -2200.00
03583              -2.00    -2200.00
03584              -4.00    -2200.00
03585              -2.00    -2200.00
03586              -2.00    -2200.00
03587              -4.00    -2200.00
03588               0.00    -1800.00
03589              -4.00    -1800.00
03590              -4.00    -1800.00
03591              -2.00    -1600.00
03592              -6.00    -1800.00
03593              -6.00    -1600.00
03594               0.00    -1600.00
03595               0.00    -1600.00
03596              -2.00    -1600.00
03597              -6.00    -1400.00
03598              -6.00    -1400.00
03599              -6.00    -1400.00
03600              -2.00    -1200.00
03601              -2.00    -1200.00
03602               0.00    -1000.00
03603              -2.00    -1000.00
03604              -8.00     -800.00
03605              -4.00    -1000.00
03606               0.00    -1000.00
03607              -2.00     -600.00
03608              -2.00     -800.00
03609               0.00     -800.00
03610              -2.00     -600.00
03611              -6.00     -600.00
03612              -6.00     -600.00
03613              -2.00     -400.00
03614               0.00     -400.00
03615               0.00     -400.00
03616              -2.00     -200.00
03617              -2.00        0.00
03618              -2.00     -200.00
03619              -4.00        0.00
03620              -2.00        0.00
03621              -2.00        0.00
03622               0.00      200.00
03623               2.00      200.00
03624               2.00      200.00
03625              -2.00      400.00
03626               6.00      200.00
03627               8.00      600.00
03628               0.00      600.00
03629              -8.00      600.00
03630              -8.00      800.00
03631               4.00      800.00
03632              70.00      800.00
03633             192.00     1000.00
03634              -4.00     1200.00
03635            -254.00      800.00
03636            -254.00     1200.00
03637             246.00     1200.00
03638             246.00     1600.00
03639            -254.00     1000.00
03640            -254.00     1000.00
03641              10.00     1600.00
03642             246.00     1800.00
03643             182.00     1400.00
03644            -254.00     1200.00
03645            -174.00     1800.00
03646             246.00     1800.00
03647             -14.00     1600.00
03648            -250.00     1600.00
03649             186.00     2200.00
03650              70.00     2000.00
03651            -254.00     1800.00
03652              56.00     2200.00
03653             246.00     2200.00
03654            -160.00     2000.00
03655            -214.00     2200.00
03656             220.00     2400.00
03657              66.00     2200.00
03658            -224.00     2200.00
03659              18.00     2600.00
03660             166.00     2600.00
03661             -50.00     2400.00
03662             -94.00     2600.00
03663              10.00     2600.00
03664              14.00     2600.00
03665              38.00     2600.00
03666             -14.00     3000.00
03667             -58.00     2800.00
03668              46.00     3000.00
03669              18.00     3000.00
03670             -94.00     3000.00
03671              36.00     3000.00
03672              66.00     3000.00
03673             -78.00     3200.00
03674             -14.00     3200.00
03675              70.00     3200.00
03676             -70.00     3200.00
03677             -30.00     3400.00
03678              86.00     3400.00
03679             -14.00     3400.00
03680             -66.00     3400.00
03681              22.00     3800.00
03682              10.00     3400.00
03683             -14.00     3400.00
03684              12.00     3800.00
03685             -16.00     3600.00
03686              -2.00     3600.00
03687              12.00     3800.00
03688             -24.00     3800.00
03689               0.00     3800.00
03690              18.00     3800.00
03691             -32.00     3800.00
03692              -8.00     3800.00
03693              30.00     4000.00
03694             -18.00     4000.00
03695             -16.00     3800.00
03696              18.00     4000.00
03697             -12.00     4000.00
03698             -16.00     4000.00
03699              16.00     4200.00
03700               0.00     4000.00
03701             -10.00     4000.00
03702              -6.00     4000.00
03703             -10.00     4000.00
03704               2.00     3800.00
03705               6.00     4000.00
03706             -10.00     4200.00
03707               0.00     4000.00
03708               0.00     4200.00
03709             -16.00     4000.00
03710              -2.00     4000.00
03711               8.00     4200.00
03712             -10.00     4200.00
03713              -6.00     4200.00
03714               2.00     4200.00
03715             -10.00     4200.00
03716             -12.00     4200.00
03717              -2.00     4200.00
03718              -2.00     4000.00
03719               0.00     4200.00
03720               2.00     4200.00
03721             -10.00     4200.00
03722             -10.00     4200.00
03723              -4.00     4200.00
03724              -6.00     4200.00
03725              -2.00     4200.00
03726              -2.00     4200.00
03727              -8.00     4000.00
03728              -8.00     4000.00
03729              -6.00     4200.00
03730             -10.00     4000.00
03731               0.00     4200.00
03732               0.00     4000.00
03733             -10.00     4000.00
03734              -6.00     4000.00
03735              -2.00     4000.00
03736              -8.00     4000.00
03737             -10.00     4000.00
03738               0.00     4000.00
03739              -2.00     4000.00
03740              -6.00     4000.00
03741              -8.00     4000.00
03742              -8.00     4000.00
03743              -2.00     3800.00
03744              -6.00     3800.00
03745              -2.00     3800.00
03746               0.00     3800.00
03747              -2.00     3800.00
03748             -10.00     3800.00
03749              -2.00     3800.00
03750              -2.00     3800.00
03751              -8.00     3600.00
03752               0.00     3600.00
03753               2.00     3400.00
03754              -8.00     3400.00
03755              -6.00     3600.00
03756              -6.00     3600.00
03757               0.00     3400.00
03758               0.00     3400.00
03759              -2.00     3400.00
03760              -2.00     3200.00
03761              -6.00     3200.00
03762             -10.00     3200.00
03763              -6.00     3200.00
03764               0.00     3200.00
03765               0.00     3200.00
03766              -2.00     3200.00
03767              -2.00     3000.00
03768              -6.00     3000.00
03769              -8.00     3000.00
03770              -2.00     2800.00
03771              -4.00     2800.00
03772              -6.00     2800.00
03773              -8.00     2600.00
03774              -6.00     2600.00
03775              -2.00     2600.00
03776              -2.00     2600.00
03777              -6.00     2600.00
03778              -2.00     2400.00
03779              -2.00     2400.00
03780              -6.00     2400.00
03781              -6.00     2400.00
03782              -2.00     2200.00
03783              -8.00     2200.00
03784              -8.00     2200.00
03785               0.00     2000.00
03786               0.00     2000.00
03787              -8.00     1800.00
03788              -6.00     1800.00
03789              -6.00     1800.00
03790              -6.00     1800.00
03791              -2.00     1600.00
03792              -2.00     1600.00
03793              -2.00     1600.00
03794              -8.00     1400.00
03795              -8.00     1600.00
03796              -2.00     1400.00
03797              -2.00     1400.00
03798              -2.00     1200.00
03799              -2.00     1200.00
03800               0.00     1000.00
03801              -4.00     1200.00
03802             -10.00     1000.00
03803              -8.00     1000.00
03804               0.00      800.00
03805               0.00      800.00
03806              -2.00      800.00
03807              -2.00      800.00
03808              -2.00      600.00
03809              -4.00      600.00
03810              -6.00      600.00
03811              -6.00      400.00
03812              -2.00      200.00
03813              -2.00      200.00
03814              -2.00      200.00
03815               0.00      200.00
03816               0.00        0.00
03817               4.00        0.00
03818               6.00        0.00
03819               0.00     -200.00
03820             -10.00     -200.00
03821              -6.00     -200.00
03822               2.00     -200.00
03823              16.00     -200.00
03824              90.00     -400.00
03825             160.00     -600.00
03826             -80.00    -1000.00
03827            -254.00     -800.00
03828            -222.00     -400.00
03829             246.00     -600.00
03830             246.00     -800.00
03831            -254.00    -1200.00
03832            -254.00     -600.00
03833              96.00     -800.00
03834             246.00    -1000.00
03835             164.00    -1200.00
03836            -254.00    -1200.00
03837            -242.00    -1200.00
03838             246.00    -1400.00
03839             208.00    -1200.00
03840            -114.00    -1600.00
03841             -74.00    -1400.00
03842            -122.00    -1600.00
03843              22.00    -1400.00
03844             194.00    -1600.00
03845              34.00    -1800.00
03846            -254.00    -1600.00
03847               6.00    -1800.00
03848             236.00    -2200.00
03849             -32.00    -2000.00
03850            -200.00    -2200.00
03851              32.00    -2200.00
03852             138.00    -2200.00
03853             -14.00    -2200.00
03854             -74.00    -2200.00
03855             -46.00    -2400.00
03856              38.00    -2200.00
03857              52.00    -2400.00
03858             -10.00    -2400.00
03859             -54.00    -2600.00
03860              14.00    -2600.00
03861              12.00    -2400.00
03862             -24.00    -2600.00
03863               2.00    -2600.00
03864              14.00    -2600.00
03865              -2.00    -2600.00
03866               6.00    -3000.00
03867              -6.00    -3000.00
03868             -42.00    -2800.00
03869              16.00    -3000.00
03870              50.00    -3000.00
03871             -16.00    -3000.00
03872             -50.00    -3000.00
03873               6.00    -3200.00
03874              32.00    -3000.00
03875               0.00    -3000.00
03876             -14.00    -3200.00
03877             -10.00    -3200.00
03878               6.00    -3400.00
03879               8.00    -3200.00
03880              -2.00    -3400.00
03881             -14.00    -3400.00
03882              -6.00    -3400.00
03883               8.00    -3400.00
03884               8.00    -3200.00
03885              -2.00    -3600.00
03886             -14.00    -3400.00
03887              -2.00    -3400.00
03888               6.00    -3400.00
03889               0.00    -3400.00
03890              -8.00    -3600.00
03891               0.00    -3400.00
03892               6.00    -3800.00
03893              -2.00    -3600.00
03894              -8.00    -3800.00
03895              -2.00    -3600.00
03896              -2.00    -3800.00
03897               2.00    -3800.00
03898               0.00    -3800.00
03899              -2.00    -3800.00
03900              -8.00    -3800.00
03901              -8.00    -3800.00
03902              -2.00    -3800.00
03903               0.00    -3800.00
03904               2.00    -3800.00
03905              -2.00    -3800.00
03906              -2.00    -4000.00
03907              -6.00    -3800.00
03908              -8.00    -3800.00
03909              -2.00    -3800.00
03910               6.00    -3800.00
03911               0.00    -3800.00
03912              -6.00    -3800.00
03913              -6.00    -4000.00
03914              -6.00    -4000.00
03915              -2.00    -3800.00
03916               2.00    -3800.00
03917               2.00    -4000.00
03918              -2.00    -3800.00
03919              -6.00    -3800.00
03920              -8.00    -3800.00
03921              -6.00    -3800.00
03922              -2.00    -3800.00
03923               0.00    -3800.00
03924               0.00    -3600.00
03925              -2.00    -3800.00
03926              -4.00    -3800.00
03927              -2.00    -3800.00
03928               0.00    -3600.00
03929              -2.00    -3600.00
03930               0.00    -3600.00
03931               2.00    -3600.00
03932              -6.00    -3400.00
03933              -6.00    -3400.00
03934              -2.00    -3400.00
03935              -2.00    -3400.00
03936              -2.00    -3400.00
03937               2.00    -3400.00
03938               2.00    -3400.00
03939              -2.00    -3200.00
03940              -6.00    -3200.00
03941              -2.00    -3200.00
03942              -2.00    -3200.00
03943               0.00    -3200.00
03944               0.00    -3000.00
03945               0.00    -3200.00
03946              -2.00    -3000.00
03947              -4.00    -3000.00
03948              -2.00    -3200.00
03949               0.00    -3000.00
03950               0.00    -3000.00
03951               0.00    -3000.00
03952               0.00    -2800.00
03953              -6.00    -3000.00
03954              -8.00    -2600.00
03955              -2.00    -2600.00
03956               0.00    -2600.00
03957               0.00    -2600.00
03958               0.00    -2600.00
03959              -4.00    -2600.00
03960              -2.00    -2600.00
03961              -2.00    -2400.00
03962              -2.00    -2200.00
03963               2.00    -2400.00
03964               0.00    -2200.00
03965              -2.00    -2200.00
03966              -4.00    -2200.00
03967              -4.00    -2200.00
03968              -2.00    -2200.00
03969              -2.00    -2000.00
03970              -2.00    -1800.00
03971              -2.00    -2000.00
03972              -2.00    -1800.00
03973              -2.00    -1800.00
03974              -2.00    -1600.00
03975              -6.00    -1600.00
03976              -2.00    -1600.00
03977               0.00    -1400.00
03978               0.00    -1400.00
03979              -2.00    -1400.00
03980              -6.00    -1400.00
03981              -6.00    -1400.00
03982              -2.00    -1200.00
03983              -2.00    -1200.00
03984               0.00    -1000.00
03985              -2.00    -1000.00
03986              -6.00    -1000.00
03987              -6.00    -1000.00
03988              -4.00     -800.00
03989              -6.00     -800.00
03990              -2.00     -800.00
03991              -2.00     -800.00
03992               0.00     -800.00
03993              -2.00     -600.00
03994              -6.00     -600.00
03995              -2.00     -600.00
03996               0.00     -200.00
03997               0.00     -200.00
03998              -2.00     -400.00
03999              -2.00     -200.00
04000              -2.00     -400.00
04001              -4.00        0.00
04002              -4.00        0.00
04003               0.00      200.00
04004              -2.00      200.00
04005               0.00      200.00
04006               0.00      200.00
04007               0.00      200.00
04008               2.00      600.00
04009               6.00      600.00
04010               2.00      600.00
04011              -6.00      600.00
04012              -8.00      600.00
04013              -2.00      800.00
04014              22.00      800.00
04015             142.00     1200.00
04016             160.00     1200.00
04017            -254.00      800.00
04018            -254.00      800.00
04019             138.00     1200.00
04020             246.00     1400.00
04021             246.00     1400.00
04022            -254.00      800.00
04023            -254.00     1400.00
04024             246.00     1600.00
04025             246.00     1800.00
04026            -254.00     1000.00
04027            -254.00     1400.00
04028             246.00     2000.00
04029             246.00     1600.00
04030            -254.00     1400.00
04031             -40.00     2200.00
04032             246.00     2200.00
04033            -192.00     1800.00
04034            -194.00     1800.00
04035             246.00     2400.00
04036             104.00     2200.00
04037            -254.00     2000.00
04038              28.00     2400.00
04039             228.00     2400.00
04040            -128.00     2200.00
04041            -154.00     2400.00
04042             160.00     2600.00
04043              58.00     2600.00
04044            -106.00     2400.00
04045             -34.00     2600.00
04046              18.00     2600.00
04047              26.00     2600.00
04048              24.00     2600.00
04049             -56.00     2800.00
04050             -10.00     3000.00
04051              62.00     3000.00
04052             -56.00     3000.00
04053             -54.00     3000.00
04054              90.00     3200.00
04055             -10.00     3200.00
04056             -78.00     3200.00
04057              62.00     3400.00
04058               6.00     3400.00
04059             -88.00     3200.00
04060              48.00     3400.00
04061              58.00     3400.00
04062             -70.00     3200.00
04063             -22.00     3400.00
04064              26.00     3600.00
04065             -10.00     3400.00
04066               0.00     3400.00
04067               0.00     3600.00
04068             -16.00     3600.00
04069              16.00     3800.00
04070              -8.00     3800.00
04071             -22.00     3800.00
04072              22.00     3800.00
04073              -8.00     3800.00
04074             -32.00     3800.00
04075              24.00     4000.00
04076               8.00     3800.00
04077             -32.00     3800.00
04078               8.00     3800.00
04079               8.00     4000.00
04080             -24.00     4000.00
04081               2.00     4000.00
04082              14.00     4000.00
04083             -12.00     3800.00
04084              -6.00     4000.00
04085              -6.00     4200.00
04086              -8.00     4000.00
04087               6.00     4200.00
04088              -6.00     4200.00
04089              -6.00     4000.00
04090               4.00     4200.00
04091             -12.00     4200.00
04092             -14.00     4200.00
04093              10.00     4200.00
04094              -2.00     4200.00
04095             -14.00     4200.00
04096               0.00     4200.00
04097               2.00     4200.00
04098             -16.00     4000.00
04099              -6.00     4200.00
04100              -2.00     4200.00
04101              -2.00     4200.00
04102               4.00     4200.00
04103              -6.00     4200.00
04104             -14.00     4200.00
04105              -6.00     4200.00
04106              -2.00     4200.00
04107              -2.00     4200.00
04108               2.00     4200.00
04109              -6.00     4000.00
04110             -12.00     4000.00
04111              -6.00     4200.00
04112              -6.00     4000.00
04113              -2.00     4200.00
04114               2.00     4000.00
04115              -8.00     4000.00
04116             -14.00     4000.00
04117               0.00     4000.00
04118              -2.00     4200.00
04119             -10.00     4000.00
04120              -6.00     4200.00
04121               0.00     4000.00
04122              -2.00     3800.00
04123              -6.00     4000.00
04124              -6.00     3800.00
04125              -6.00     3800.00
04126              -6.00     3800.00
04127              -4.00     3800.00
04128               0.00     3800.00
04129              -2.00     3800.00
04130              -8.00     3800.00
04131             -10.00     3800.00
04132              -6.00     3800.00
04133              -6.00     3800.00
04134              -6.00     3800.00
04135               2.00     3800.00
04136              -2.00     3400.00
04137              -8.00     3600.00
04138              -8.00     3400.00
04139              -4.00     3400.00
04140              -2.00     3400.00
04141              -2.00     3400.00
04142               0.00     3400.00
04143              -2.00     3400.00
04144              -6.00     3400.00
04145              -6.00     3400.00
04146              -2.00     3200.00
04147               0.00     3200.00
04148               0.00     3200.00
04149              -2.00     3000.00
04150              -2.00     3000.00
04151              -6.00     3000.00
04152              -8.00     3000.00
04153               0.00     3000.00
04154              -2.00     3000.00
04155              -2.00     2600.00
04156              -4.00     2600.00
04157              -4.00     2600.00
04158              -6.00     2600.00
04159              -2.00     2400.00
04160              -2.00     2600.00
04161              -2.00     2400.00
04162              -2.00     2400.00
04163              -6.00     2400.00
04164              -6.00     2200.00
04165              -6.00     2200.00
04166             -10.00     2200.00
04167              -4.00     2200.00
04168               0.00     2200.00
04169              -6.00     2200.00
04170              -6.00     1800.00
04171              -6.00     2000.00
04172              -6.00     1800.00
04173              -6.00     1600.00
04174              -4.00     1800.00
04175               0.00     1600.00
04176              -2.00     1600.00
04177              -8.00     1600.00
04178              -6.00     1400.00
04179              -6.00     1400.00
04180              -2.00     1400.00
04181              -2.00     1200.00
04182              -2.00     1400.00
04183              -2.00     1200.00
04184              -8.00     1000.00
04185              -6.00     1200.00
04186              -2.00     1000.00
04187               0.00      800.00
04188              -2.00      600.00
04189              -2.00      800.00
04190               0.00      600.00
04191              -2.00      600.00
04192              -2.00      600.00
04193              -6.00      400.00
04194              -4.00      200.00
04195              -2.00      200.00
04196              -2.00      200.00
04197               0.00      200.00
04198               0.00      200.00
04199               0.00        0.00
04200               6.00        0.00
04201               6.00        0.00
04202              -4.00     -200.00
04203             -10.00     -200.00
04204              -6.00     -200.00
04205               8.00     -200.00
04206              42.00     -200.00
04207             150.00     -600.00
04208              94.00     -600.00
04209            -254.00     -800.00
04210            -254.00     -400.00
04211             208.00     -600.00
04212             246.00     -600.00
04213             246.00    -1000.00
04214            -254.00    -1000.00
04215            -254.00     -600.00
04216             246.00    -1000.00
04217             246.00    -1000.00
04218            -254.00    -1200.00
04219            -254.00    -1200.00
04220             174.00    -1400.00
04221             246.00    -1400.00
04222              16.00    -1400.00
04223            -120.00    -1400.00
04224             -88.00    -1400.00
04225             -82.00    -1600.00
04226             128.00    -1600.00
04227             178.00    -1800.00
04228            -176.00    -1600.00
04229            -176.00    -1600.00
04230             178.00    -2200.00
04231             150.00    -1800.00
04232            -186.00    -1800.00
04233             -98.00    -2000.00
04234             124.00    -2200.00
04235              78.00    -2200.00
04236             -70.00    -2200.00
04237             -64.00    -2200.00
04238              -8.00    -2200.00
04239              56.00    -2400.00
04240              30.00    -2400.00
04241             -50.00    -2400.00
04242             -22.00    -2400.00
04243              20.00    -2600.00
04244              -6.00    -2600.00
04245             -22.00    -2600.00
04246              16.00    -2600.00
04247              -2.00    -2800.00
04248              -2.00    -2800.00
04249               6.00    -3000.00
04250             -32.00    -2800.00
04251             -22.00    -2800.00
04252              42.00    -3000.00
04253              22.00    -2800.00
04254             -50.00    -3000.00
04255             -26.00    -3000.00
04256              24.00    -3200.00
04257              16.00    -3200.00
04258             -14.00    -3200.00
04259             -16.00    -3200.00
04260              -2.00    -3200.00
04261               8.00    -3200.00
04262               6.00    -3200.00
04263             -10.00    -3400.00
04264             -14.00    -3400.00
04265               0.00    -3400.00
04266              10.00    -3400.00
04267               2.00    -3400.00
04268             -10.00    -3400.00
04269             -10.00    -3400.00
04270               0.00    -3400.00
04271               6.00    -3400.00
04272              -6.00    -3400.00
04273              -6.00    -3400.00
04274               6.00    -3600.00
04275               4.00    -3600.00
04276              -8.00    -3800.00
04277              -8.00    -3600.00
04278               0.00    -3800.00
04279               2.00    -3800.00
04280               2.00    -3600.00
04281               0.00    -3600.00
04282              -6.00    -3800.00
04283              -8.00    -3800.00
04284              -2.00    -3400.00
04285               2.00    -3800.00
04286               2.00    -3800.00
04287              -2.00    -3800.00
04288              -6.00    -3800.00
04289              -2.00    -3800.00
04290              -6.00    -3800.00
04291              -6.00    -3800.00
04292               0.00    -3800.00
04293               2.00    -3800.00
04294              -2.00    -4000.00
04295              -2.00    -3800.00
04296              -8.00    -3800.00
04297             -10.00    -3800.00
04298               0.00    -3800.00
04299               6.00    -3800.00
04300               0.00    -4000.00
04301              -8.00    -3800.00
04302              -8.00    -3800.00
04303              -2.00    -3800.00
04304              -2.00    -3600.00
04305               0.00    -3800.00
04306               0.00    -3600.00
04307              -2.00    -3800.00
04308              -6.00    -3800.00
04309              -2.00    -3600.00
04310               0.00    -3600.00
04311              -2.00    -3600.00
04312              -4.00    -3600.00
04313              -2.00    -3600.00
04314              -2.00    -3400.00
04315               0.00    -3400.00
04316               0.00    -3400.00
04317              -6.00    -3400.00
04318              -6.00    -3400.00
04319               0.00    -3400.00
04320               2.00    -3400.00
04321               0.00    -3400.00
04322              -8.00    -3200.00
04323              -6.00    -3200.00
04324              -2.00    -3200.00
04325              -2.00    -3000.00
04326              -2.00    -3200.00
04327               2.00    -3200.00
04328               0.00    -3200.00
04329              -6.00    -3000.00
04330              -8.00    -3000.00
04331               0.00    -3000.00
04332               2.00    -3000.00
04333               2.00    -3000.00
04334               0.00    -2800.00
04335              -8.00    -2800.00
04336              -8.00    -2800.00
04337               0.00    -2600.00
04338               0.00    -2600.00
04339               0.00    -2600.00
04340              -2.00    -2600.00
04341               0.00    -2600.00
04342              -2.00    -2400.00
04343              -4.00    -2600.00
04344               0.00    -2400.00
04345               0.00    -2400.00
04346               2.00    -2400.00
04347              -2.00    -2400.00
04348              -2.00    -2200.00
04349              -2.00    -2200.00
04350              -4.00    -2200.00
04351               0.00    -2000.00
04352               0.00    -2000.00
04353               0.00    -1800.00
04354              -2.00    -1800.00
04355              -2.00    -1600.00
04356              -2.00    -1600.00
04357              -8.00    -1800.00
04358              -6.00    -1600.00
04359              -2.00    -1600.00
04360               2.00    -1600.00
04361              -2.00    -1600.00
04362              -8.00    -1400.00
04363              -8.00    -1400.00
04364              -6.00    -1400.00
04365               2.00    -1200.00
04366               2.00    -1200.00
04367              -2.00    -1000.00
04368              -8.00    -1000.00
04369              -8.00    -1000.00
04370              -2.00     -800.00
04371               0.00    -1000.00
04372              -6.00     -800.00
04373              -6.00     -800.00
04374               0.00     -800.00
04375              -2.00     -600.00
04376              -6.00     -600.00
04377              -6.00     -600.00
04378              -6.00     -600.00
04379               0.00     -400.00
04380              -2.00     -400.00
04381              -4.00     -200.00
04382              -6.00     -200.00
04383              -6.00     -200.00
04384              -8.00        0.00
04385               0.00        0.00
04386               0.00        0.00
04387              -2.00      200.00
04388              -2.00      200.00
04389              -2.00      200.00
04390               2.00      200.00
04391               8.00      200.00
04392               6.00      600.00
04393             -10.00      800.00
04394             -10.00      600.00
04395              -2.00      600.00
04396              10.00      800.00
04397              72.00      800.00
04398             192.00     1000.00
04399             -14.00     1200.00
04400            -254.00      800.00
04401            -254.00     1200.00
04402             246.00     1400.00
04403             246.00     1600.00
04404            -254.00     1200.00
04405            -254.00     1000.00
04406              34.00     1600.00
04407             246.00     1600.00
04408             160.00     1400.00
04409            -254.00     1400.00
04410            -154.00     1800.00
04411             246.00     1800.00
04412             -28.00     1600.00
04413            -246.00     1800.00
04414             200.00     2200.00
04415              62.00     2000.00
04416            -254.00     1800.00
04417              62.00     2200.00
04418             246.00     2400.00
04419            -166.00     2000.00
04420            -206.00     2200.00
04421             222.00     2400.00
04422              56.00     2200.00
04423            -226.00     2400.00
04424              26.00     2600.00
04425             164.00     2600.00
04426             -54.00     2400.00
04427             -90.00     2600.00
04428              14.00     2800.00
04429              10.00     2600.00
04430              32.00     2600.00
04431             -14.00     3000.00
04432             -54.00     3000.00
04433              46.00     3000.00
04434              14.00     3000.00
04435             -96.00     3000.00
04436              38.00     3200.00
04437              70.00     3200.00
04438             -74.00     3000.00
04439             -14.00     3200.00
04440              64.00     3200.00
04441             -74.00     3200.00
04442             -28.00     3200.00
04443              88.00     3400.00
04444             -14.00     3400.00
04445             -66.00     3400.00
04446              16.00     3600.00
04447               2.00     3400.00
04448              -8.00     3400.00
04449              14.00     3600.00
04450             -18.00     3800.00
04451              -8.00     3600.00
04452               8.00     3800.00
04453             -22.00     3600.00
04454               6.00     3800.00
04455              18.00     3800.00
04456             -38.00     3800.00
04457              -6.00     4000.00
04458              30.00     3800.00
04459             -22.00     4000.00
04460             -16.00     4000.00
04461              18.00     4000.00
04462             -14.00     4000.00
04463             -22.00     3800.00
04464              14.00     4000.00
04465               0.00     4000.00
04466             -10.00     4000.00
04467              -6.00     4200.00
04468             -10.00     4000.00
04469               0.00     4000.00
04470               4.00     4200.00
04471             -10.00     4000.00
04472              -2.00     4200.00
04473               2.00     4200.00
04474             -16.00     4000.00
04475              -2.00     4200.00
04476               6.00     4200.00
04477             -10.00     4200.00
04478              -4.00     4200.00
04479               4.00     4200.00
04480             -10.00     4200.00
04481             -10.00     4200.00
04482              -2.00     4200.00
04483              -6.00     4200.00
04484               6.00     4200.00
04485               6.00     4200.00
04486             -12.00     4200.00
04487             -10.00     4200.00
04488              -4.00     4200.00
04489              -4.00     4000.00
04490               2.00     4200.00
04491               0.00     4200.00
04492             -10.00     4000.00
04493              -8.00     4000.00
04494              -8.00     4200.00
04495              -8.00     4200.00
04496               6.00     4000.00
04497              -2.00     4200.00
04498             -14.00     4000.00
04499              -6.00     4000.00
04500               2.00     4200.00
04501              -8.00     3800.00
04502              -8.00     4000.00
04503               0.00     4000.00
04504               0.00     3800.00
04505              -8.00     4000.00
04506              -8.00     4000.00
04507              -2.00     3800.00
04508              -2.00     4000.00
04509              -8.00     3800.00
04510              -8.00     3800.00
04511               0.00     3800.00
04512              -2.00     3800.00
04513              -8.00     3600.00
04514              -6.00     3600.00
04515              -8.00     3600.00
04516              -6.00     3600.00
04517               0.00     3800.00
04518               2.00     3600.00
04519              -2.00     3400.00
04520             -10.00     3400.00
04521              -6.00     3400.00
04522              -2.00     3400.00
04523               0.00     3400.00
04524              -2.00     3400.00
04525              -2.00     3200.00
04526              -6.00     3200.00
04527              -8.00     3200.00
04528              -2.00     3200.00
04529               0.00     3200.00
04530              -2.00     3200.00
04531              -2.00     3000.00
04532               0.00     3000.00
04533              -2.00     3000.00
04534              -8.00     3000.00
04535              -6.00     3000.00
04536               0.00     2800.00
04537               0.00     2800.00
04538              -2.00     2600.00
04539              -4.00     2600.00
04540              -6.00     2600.00
04541              -6.00     2600.00
04542              -2.00     2600.00
04543               2.00     2400.00
04544               0.00     2400.00
04545              -6.00     2400.00
04546              -6.00     2200.00
04547              -6.00     2400.00
04548              -2.00     2200.00
04549               0.00     2200.00
04550              -6.00     2200.00
04551             -10.00     2200.00
04552              -6.00     1800.00
04553               8.00     1800.00
04554               6.00     1800.00
04555             -14.00     1800.00
04556             -24.00     1800.00
04557              -6.00     1600.00
04558              14.00     1600.00
04559              10.00     1400.00
04560             -12.00     1400.00
04561             -22.00     1400.00
04562             -14.00     1200.00
04563               2.00     1400.00
04564              10.00     1000.00
04565              -2.00     1200.00
04566             -14.00     1000.00
04567              -8.00     1000.00
04568               2.00      800.00
04569               0.00      800.00
04570             -12.00      800.00
04571             -10.00      800.00
04572               6.00      600.00
04573              10.00      600.00
04574              -8.00      600.00
04575             -22.00      600.00
04576             -12.00      200.00
04577               6.00      400.00
04578              14.00      400.00
04579               0.00      200.00
04580             -12.00      200.00
04581             -10.00      200.00
04582               8.00        0.00
04583              16.00        0.00
04584               4.00     -200.00
04585             -16.00     -200.00
04586             -16.00     -200.00
04587               0.00     -200.00
04588              24.00     -200.00
04589              96.00     -200.00
04590             158.00     -600.00
04591             -92.00     -800.00
04592            -254.00     -600.00
04593            -208.00     -400.00
04594             246.00     -600.00
04595             246.00     -800.00
04596            -254.00    -1000.00
04597            -254.00     -600.00
04598             112.00     -800.00
04599             246.00    -1000.00
04600             150.00    -1200.00
04601            -254.00    -1000.00
04602            -234.00    -1200.00
04603             246.00    -1400.00
04604             206.00    -1200.00
04605            -112.00    -1400.00
04606             -78.00    -1400.00
04607            -130.00    -1400.00
04608              24.00    -1400.00
04609             206.00    -1600.00
04610              32.00    -1600.00
04611            -254.00    -1600.00
04612               4.00    -1800.00
04613             242.00    -1800.00
04614             -32.00    -1800.00
04615            -200.00    -1800.00
04616              26.00    -2000.00
04617             134.00    -2000.00
04618             -14.00    -2200.00
04619             -72.00    -2400.00
04620             -46.00    -2200.00
04621              36.00    -2200.00
04622              50.00    -2600.00
04623             -10.00    -2400.00
04624             -56.00    -2400.00
04625              10.00    -2600.00
04626              14.00    -2600.00
04627             -24.00    -2600.00
04628               0.00    -2600.00
04629               8.00    -2600.00
04630              -4.00    -3000.00
04631               6.00    -2800.00
04632              -6.00    -3000.00
04633             -42.00    -2800.00
04634              16.00    -3000.00
04635              48.00    -3000.00
04636             -18.00    -3000.00
04637             -50.00    -3000.00
04638               6.00    -3000.00
04639              30.00    -3000.00
04640              -6.00    -3200.00
04641             -18.00    -3200.00
04642             -10.00    -3200.00
04643               6.00    -3200.00
04644               6.00    -3400.00
04645              -4.00    -3400.00
04646             -18.00    -3400.00
04647              -6.00    -3400.00
04648               8.00    -3400.00
04649               8.00    -3400.00
04650              -2.00    -3400.00
04651             -12.00    -3400.00
04652              -6.00    -3600.00
04653               4.00    -3600.00
04654               0.00    -3600.00
04655              -8.00    -3400.00
04656               0.00    -3600.00
04657               2.00    -3600.00
04658              -2.00    -3800.00
04659              -8.00    -3800.00
04660              -2.00    -3800.00
04661               0.00    -3600.00
04662               0.00    -3800.00
04663               0.00    -3600.00
04664              -2.00    -3800.00
04665              -4.00    -3800.00
04666              -6.00    -3800.00
04667              -2.00    -3800.00
04668               2.00    -3800.00
04669               0.00    -3800.00
04670               0.00    -3800.00
04671               0.00    -3800.00
04672               0.00    -3800.00
04673              -6.00    -3800.00
04674             -10.00    -3800.00
04675               6.00    -3800.00
04676               4.00    -3800.00
04677              -8.00    -3800.00
04678             -16.00    -3800.00
04679              -8.00    -3800.00
04680              16.00    -3800.00
04681              32.00    -3800.00
04682               6.00    -3800.00
04683             -22.00    -3800.00
04684             -30.00    -3800.00
04685             -16.00    -3800.00
04686               6.00    -3800.00
04687              22.00    -3600.00
04688              14.00    -3800.00
04689              -8.00    -3600.00
04690             -24.00    -3800.00
04691             -10.00    -3800.00
04692              16.00    -3600.00
04693              10.00    -3800.00
04694              -4.00    -3400.00
04695             -22.00    -3600.00
04696             -12.00    -3600.00
04697              -2.00    -3400.00
04698              14.00    -3400.00
04699               8.00    -3400.00
04700             -14.00    -3400.00
04701             -24.00    -3400.00
04702              -2.00    -3200.00
04703              18.00    -3400.00
04704              16.00    -3400.00
04705             -10.00    -3400.00
04706             -26.00    -3200.00
04707             -16.00    -3200.00
04708               6.00    -3000.00
04709              18.00    -3000.00
04710              10.00    -3000.00
04711             -10.00    -3000.00
04712             -18.00    -3000.00
04713              -6.00    -3000.00
04714              12.00    -3000.00
04715               8.00    -2800.00
04716              -8.00    -3000.00
04717             -18.00    -2800.00
04718             -14.00    -3000.00
04719               6.00    -2600.00
04720              14.00    -2600.00
04721               6.00    -2600.00
04722             -10.00    -2600.00
04723             -14.00    -2600.00
04724              -6.00    -2600.00
04725               6.00    -2400.00
04726               6.00    -2400.00
04727              -6.00    -2400.00
04728             -10.00    -2400.00
04729              -2.00    -2400.00
04730               2.00    -2200.00
04731               2.00    -2200.00
04732              -2.00    -2200.00
04733             -10.00    -2200.00
04734              -2.00    -2000.00
04735               6.00    -2200.00
04736               8.00    -2000.00
04737               2.00    -1800.00
04738             -16.00    -1800.00
04739             -16.00    -1600.00
04740               2.00    -1600.00
04741              16.00    -1600.00
04742               6.00    -1400.00
04743             -10.00    -1400.00
04744             -16.00    -1400.00
04745              -2.00    -1400.00
04746               8.00    -1400.00
04747               4.00    -1200.00
04748              -8.00    -1200.00
04749             -12.00    -1000.00
04750              -2.00    -1000.00
04751               4.00    -1000.00
04752              -2.00     -800.00
04753             -10.00    -1000.00
04754              -8.00     -800.00
04755               6.00     -800.00
04756               8.00     -800.00
04757              -6.00     -600.00
04758             -16.00     -600.00
04759             -10.00     -600.00
04760               6.00     -600.00
04761               8.00     -600.00
04762              -6.00     -400.00
04763             -16.00     -200.00
04764              -8.00     -200.00
04765               6.00     -200.00
04766               6.00     -200.00
04767              -8.00     -200.00
04768             -14.00        0.00
04769              -8.00        0.00
04770               4.00      200.00
04771               6.00      200.00
04772               0.00      200.00
04773              -4.00      400.00
04774               0.00      400.00
04775               2.00      600.00
04776              -2.00      400.00
04777              -8.00      600.00
04778              -6.00      800.00
04779              22.00      800.00
04780             142.00     1000.00
04781             158.00     1200.00
04782            -254.00     1000.00
04783            -254.00      800.00
04784             150.00     1200.00
04785             246.00     1400.00
04786             246.00     1400.00
04787            -254.00      800.00
04788            -254.00     1400.00
04789             246.00     1600.00
04790             246.00     1800.00
04791            -254.00     1000.00
04792            -254.00     1600.00
04793             246.00     1800.00
04794             246.00     1600.00
04795            -254.00     1400.00
04796             -30.00     2000.00
04797             240.00     2200.00
04798            -202.00     1800.00
04799            -184.00     1800.00
04800             246.00     2400.00
04801              94.00     2200.00
04802            -254.00     2000.00
04803              38.00     2400.00
04804             230.00     2400.00
04805            -136.00     2200.00
04806            -154.00     2400.00
04807             166.00     2800.00
04808              58.00     2600.00
04809            -106.00     2600.00
04810             -32.00     2600.00
04811              18.00     2600.00
04812              24.00     2600.00
04813              24.00     3000.00
04814             -58.00     3000.00
04815              -8.00     3000.00
04816              58.00     3000.00
04817             -60.00     3000.00
04818             -48.00     3000.00
04819              88.00     3200.00
04820             -16.00     3000.00
04821             -74.00     3000.00
04822              58.00     3400.00
04823               0.00     3200.00
04824             -88.00     3200.00
04825              50.00     3400.00
04826              54.00     3400.00
04827             -72.00     3400.00
04828             -22.00     3400.00
04829              26.00     3600.00
04830             -10.00     3400.00
04831               0.00     3400.00
04832              -4.00     3600.00
04833             -22.00     3600.00
04834              14.00     3600.00
04835             -10.00     3800.00
04836             -24.00     3800.00
04837              18.00     3800.00
04838              -8.00     3800.00
04839             -32.00     3800.00
04840              24.00     4000.00
04841               6.00     4000.00
04842             -34.00     3800.00
04843               8.00     3800.00
04844              10.00     4000.00
04845             -26.00     3800.00
04846               0.00     4000.00
04847              10.00     4000.00
04848             -10.00     4000.00
04849              -6.00     4000.00
04850              -8.00     4200.00
04851              -6.00     4200.00
04852               8.00     4000.00
04853              -6.00     4000.00
04854              -8.00     4000.00
04855               8.00     4200.00
04856             -10.00     4200.00
04857             -16.00     4000.00
04858               6.00     4200.00
04859               0.00     4200.00
04860             -10.00     4200.00
04861               6.00     4200.00
04862               0.00     4200.00
04863             -16.00     4200.00
04864              -2.00     4200.00
04865              -2.00     4200.00
04866              -2.00     4200.00
04867               2.00     4200.00
04868              -2.00     4200.00
04869             -10.00     4200.00
04870              -6.00     4200.00
04871              -2.00     4200.00
04872               0.00     4200.00
04873               0.00     4200.00
04874              -2.00     4200.00
04875              -6.00     4200.00
04876              -6.00     4200.00
04877             -10.00     4200.00
04878              -6.00     4000.00
04879               6.00     4200.00
04880              -6.00     4200.00
04881             -10.00     4000.00
04882              -2.00     4000.00
04883              -2.00     4200.00
04884             -10.00     4000.00
04885              -2.00     4000.00
04886               0.00     4000.00
04887               0.00     4000.00
04888              -6.00     4000.00
04889              -8.00     3800.00
04890              -6.00     3800.00
04891              -6.00     3800.00
04892              -6.00     3800.00
04893               0.00     4000.00
04894               0.00     3800.00
04895             -10.00     3800.00
04896              -8.00     3600.00
04897               0.00     3600.00
04898              -6.00     3800.00
04899              -6.00     3600.00
04900               0.00     3800.00
04901              -2.00     3400.00
04902              -8.00     3400.00
04903              -6.00     3400.00
04904              -6.00     3400.00
04905              -2.00     3400.00
04906              -2.00     3200.00
04907              -2.00     3400.00
04908               0.00     3200.00
04909              -8.00     3000.00
04910              -8.00     3200.00
04911              -2.00     3200.00
04912               0.00     3000.00
04913              -2.00     3000.00
04914               0.00     3000.00
04915              -2.00     3000.00
04916              -8.00     3000.00
04917              -8.00     3000.00
04918               2.00     2800.00
04919              -2.00     2800.00
04920              -6.00     2600.00
04921              -8.00     2600.00
04922              -2.00     2600.00
04923              -2.00     2600.00
04924              -2.00     2600.00
04925              -2.00     2400.00
04926               0.00     2400.00
04927              -2.00     2400.00
04928              -2.00     2400.00
04929               0.00     2400.00
04930              -6.00     2200.00
04931              -8.00     2200.00
04932              -2.00     2200.00
04933               0.00     2000.00
04934              -2.00     2200.00
04935              -6.00     1800.00
04936              -6.00     1800.00
04937              -2.00     1800.00
04938              -2.00     1600.00
04939              -2.00     1800.00
04940              -2.00     1600.00
04941              -6.00     1600.00
04942             -10.00     1600.00
04943              -6.00     1400.00
04944              -2.00     1400.00
04945              -2.00     1400.00
04946              -6.00     1400.00
04947              -2.00     1200.00
04948              -2.00     1200.00
04949              -6.00     1200.00
04950              -8.00     1000.00
04951              -4.00      800.00
04952              -2.00      800.00
04953              -6.00      800.00
04954              -6.00      800.00
04955              -2.00      600.00
04956              -2.00      600.00
04957              -8.00      600.00
04958              -8.00      600.00
04959              -2.00      200.00
04960              -2.00      400.00
04961              -2.00      200.00
04962              -2.00      200.00
04963              -2.00        0.00
04964              -2.00        0.00
04965               6.00      200.00
04966               2.00        0.00
04967              -6.00     -200.00
04968             -10.00     -200.00
04969              -8.00     -200.00
04970               8.00     -200.00
04971              46.00     -400.00
04972             146.00     -400.00
04973              86.00     -800.00
04974            -254.00     -800.00
04975            -254.00     -600.00
04976             224.00     -600.00
04977             246.00     -800.00
04978             246.00    -1000.00
04979            -254.00     -800.00
04980            -254.00     -800.00
04981             246.00    -1000.00
04982             246.00    -1000.00
04983            -254.00    -1000.00
04984            -254.00    -1000.00
04985             176.00    -1400.00
04986             246.00    -1400.00
04987               8.00    -1400.00
04988            -114.00    -1400.00
04989             -90.00    -1400.00
04990             -88.00    -1400.00
04991             134.00    -1800.00
04992             182.00    -1800.00
04993            -180.00    -1600.00
04994            -174.00    -1600.00
04995             182.00    -2000.00
04996             150.00    -1800.00
04997            -190.00    -2000.00
04998             -94.00    -1800.00
04999             126.00    -2200.00
05000              78.00    -2200.00
