Unit:(mV)
                     CH1         CH2
Frequency              ? 261.451 kHz
00001             246.00     -600.00
00002             246.00    -1000.00
00003            -254.00    -1000.00
00004            -254.00    -1000.00
00005             246.00    -1000.00
00006             246.00    -1000.00
00007            -254.00    -1000.00
00008            -254.00    -1200.00
00009             246.00    -1400.00
00010             246.00    -1200.00
00011            -192.00    -1400.00
00012            -146.00    -1600.00
00013             112.00    -1400.00
00014             -14.00    -1400.00
00015               6.00    -1600.00
00016             110.00    -1800.00
00017            -120.00    -1600.00
00018            -150.00    -1600.00
00019             202.00    -2000.00
00020             170.00    -1800.00
00021            -248.00    -1800.00
00022            -134.00    -2200.00
00023             206.00    -2000.00
00024             120.00    -2200.00
00025            -138.00    -2400.00
00026             -68.00    -2400.00
00027              46.00    -2200.00
00028              50.00    -2400.00
00029              14.00    -2600.00
00030             -10.00    -2400.00
00031             -24.00    -2600.00
00032               4.00    -2600.00
00033              30.00    -2400.00
00034              -6.00    -2600.00
00035              -6.00    -2600.00
00036              14.00    -2600.00
00037              30.00    -2800.00
00038              -2.00    -2800.00
00039             -32.00    -2600.00
00040              -2.00    -2800.00
00041              50.00    -3000.00
00042              26.00    -3000.00
00043             -30.00    -3000.00
00044             -18.00    -3200.00
00045              22.00    -3000.00
00046              26.00    -3000.00
00047               0.00    -3000.00
00048              -4.00    -3200.00
00049               2.00    -3200.00
00050              20.00    -3200.00
00051              12.00    -3400.00
00052               0.00    -3200.00
00053               0.00    -3200.00
00054              10.00    -3400.00
00055              16.00    -3400.00
00056              10.00    -3400.00
00057               2.00    -3400.00
00058               2.00    -3400.00
00059              14.00    -3400.00
00060              14.00    -3400.00
00061               6.00    -3400.00
00062               2.00    -3600.00
00063              16.00    -3600.00
00064              16.00    -3400.00
00065               0.00    -3600.00
00066               2.00    -3800.00
00067              12.00    -3600.00
00068              16.00    -3800.00
00069              14.00    -3600.00
00070              10.00    -3800.00
00071               6.00    -3800.00
00072               8.00    -3800.00
00073              12.00    -3600.00
00074               8.00    -3800.00
00075              10.00    -3800.00
00076              10.00    -3800.00
00077              10.00    -3800.00
00078              14.00    -3800.00
00079               6.00    -3800.00
00080               6.00    -3800.00
00081              14.00    -3800.00
00082              18.00    -3800.00
00083              14.00    -3800.00
00084              14.00    -3800.00
00085              10.00    -3800.00
00086               6.00    -3800.00
00087              10.00    -3800.00
00088              18.00    -3800.00
00089              22.00    -3800.00
00090              14.00    -3800.00
00091              12.00    -3800.00
00092              10.00    -3800.00
00093              14.00    -3600.00
00094              22.00    -3800.00
00095              18.00    -3600.00
00096              16.00    -3600.00
00097              14.00    -3600.00
00098              14.00    -3600.00
00099              16.00    -3600.00
00100              16.00    -3400.00
00101              16.00    -3600.00
00102              22.00    -3400.00
00103              16.00    -3400.00
00104              14.00    -3400.00
00105              18.00    -3400.00
00106              22.00    -3600.00
00107              16.00    -3400.00
00108              16.00    -3400.00
00109              18.00    -3200.00
00110              18.00    -3400.00
00111              18.00    -3400.00
00112              14.00    -3200.00
00113              16.00    -3200.00
00114              16.00    -3200.00
00115              16.00    -3000.00
00116              18.00    -3000.00
00117              18.00    -3000.00
00118              16.00    -3000.00
00119              10.00    -3200.00
00120              10.00    -3000.00
00121              16.00    -3000.00
00122              18.00    -3000.00
00123              20.00    -3000.00
00124              14.00    -2800.00
00125               8.00    -2600.00
00126              10.00    -2800.00
00127              16.00    -2600.00
00128              16.00    -2600.00
00129              16.00    -2600.00
00130              14.00    -2600.00
00131              10.00    -2600.00
00132               8.00    -2400.00
00133               8.00    -2400.00
00134              12.00    -2400.00
00135              12.00    -2200.00
00136              10.00    -2400.00
00137               8.00    -2200.00
00138               8.00    -2400.00
00139               6.00    -2200.00
00140               6.00    -2000.00
00141              10.00    -2000.00
00142              12.00    -2200.00
00143              10.00    -1800.00
00144               2.00    -1800.00
00145               2.00    -1800.00
00146               6.00    -1600.00
00147               6.00    -1600.00
00148              10.00    -1600.00
00149               6.00    -1600.00
00150               0.00    -1400.00
00151               2.00    -1400.00
00152               6.00    -1400.00
00153               4.00    -1400.00
00154               0.00    -1400.00
00155               2.00    -1200.00
00156               4.00    -1200.00
00157               2.00    -1000.00
00158               2.00    -1000.00
00159               2.00    -1000.00
00160               2.00     -800.00
00161               0.00     -800.00
00162               0.00     -800.00
00163               2.00     -800.00
00164               6.00     -800.00
00165               2.00     -600.00
00166              -6.00     -600.00
00167              -2.00     -400.00
00168               2.00     -400.00
00169               2.00     -600.00
00170               0.00     -200.00
00171               0.00     -200.00
00172              -6.00     -200.00
00173              -6.00     -200.00
00174               2.00        0.00
00175               0.00        0.00
00176              -2.00      200.00
00177               0.00      200.00
00178               2.00      200.00
00179               2.00      400.00
00180               8.00      400.00
00181               6.00      600.00
00182               0.00      600.00
00183              -6.00      600.00
00184              -6.00      600.00
00185               6.00      800.00
00186              54.00      800.00
00187             190.00     1200.00
00188              56.00     1200.00
00189            -254.00      800.00
00190            -254.00      800.00
00191             246.00     1200.00
00192             246.00     1600.00
00193            -184.00     1200.00
00194            -254.00     1000.00
00195             -58.00     1400.00
00196             246.00     1600.00
00197             126.00     1400.00
00198            -254.00     1000.00
00199             -38.00     1800.00
00200             246.00     1800.00
00201            -138.00     1600.00
00202            -254.00     1600.00
00203             246.00     2200.00
00204             246.00     2000.00
00205            -254.00     1600.00
00206            -114.00     1800.00
00207             246.00     2400.00
00208             -90.00     1800.00
00209            -230.00     2000.00
00210             238.00     2400.00
00211             114.00     2200.00
00212            -254.00     2200.00
00213             -50.00     2400.00
00214             246.00     2400.00
00215             -20.00     2400.00
00216            -176.00     2600.00
00217              18.00     2600.00
00218              46.00     2400.00
00219             -22.00     2600.00
00220             -14.00     2600.00
00221              -6.00     2800.00
00222               6.00     2800.00
00223             -16.00     3000.00
00224             -50.00     3000.00
00225              26.00     3000.00
00226              28.00     3000.00
00227             -66.00     3000.00
00228             -10.00     3200.00
00229              58.00     3200.00
00230             -64.00     3000.00
00231             -42.00     3200.00
00232              56.00     3400.00
00233             -18.00     3200.00
00234             -58.00     3200.00
00235              24.00     3600.00
00236               0.00     3400.00
00237             -34.00     3400.00
00238              -4.00     3600.00
00239             -10.00     3600.00
00240              -6.00     3800.00
00241              10.00     3600.00
00242             -34.00     3400.00
00243             -22.00     3800.00
00244              16.00     3800.00
00245             -32.00     3600.00
00246             -18.00     3800.00
00247              20.00     3800.00
00248             -32.00     3800.00
00249             -32.00     3800.00
00250              14.00     4000.00
00251             -14.00     4000.00
00252             -30.00     3800.00
00253               4.00     4000.00
00254             -10.00     4000.00
00255             -24.00     3800.00
00256             -14.00     4000.00
00257             -18.00     3800.00
00258              -8.00     4200.00
00259              -6.00     4000.00
00260             -24.00     4000.00
00261             -14.00     4000.00
00262              -8.00     4000.00
00263             -32.00     4200.00
00264             -16.00     4000.00
00265              -4.00     4000.00
00266             -26.00     4200.00
00267             -22.00     4000.00
00268              -4.00     4200.00
00269             -24.00     4000.00
00270             -32.00     4000.00
00271             -16.00     4200.00
00272             -14.00     4000.00
00273             -16.00     4000.00
00274             -14.00     4200.00
00275             -24.00     4200.00
00276             -24.00     4200.00
00277             -24.00     4200.00
00278             -24.00     4200.00
00279             -14.00     4000.00
00280             -16.00     4200.00
00281             -26.00     4000.00
00282             -24.00     4200.00
00283             -24.00     4000.00
00284             -28.00     4000.00
00285             -22.00     4000.00
00286             -16.00     4200.00
00287             -26.00     4000.00
00288             -26.00     4000.00
00289             -22.00     4000.00
00290             -26.00     4000.00
00291             -26.00     3800.00
00292             -18.00     4000.00
00293             -18.00     4000.00
00294             -22.00     4000.00
00295             -28.00     3800.00
00296             -26.00     4000.00
00297             -22.00     3800.00
00298             -24.00     3800.00
00299             -26.00     3800.00
00300             -18.00     3800.00
00301             -22.00     3800.00
00302             -26.00     3800.00
00303             -22.00     3800.00
00304             -22.00     3600.00
00305             -26.00     3400.00
00306             -18.00     3400.00
00307             -18.00     3600.00
00308             -22.00     3400.00
00309             -24.00     3400.00
00310             -22.00     3400.00
00311             -22.00     3400.00
00312             -18.00     3400.00
00313             -18.00     3400.00
00314             -16.00     3400.00
00315             -16.00     3200.00
00316             -26.00     3200.00
00317             -24.00     3200.00
00318             -16.00     3000.00
00319             -10.00     3200.00
00320             -16.00     3000.00
00321             -16.00     3000.00
00322             -18.00     3000.00
00323             -22.00     3000.00
00324             -16.00     2800.00
00325             -14.00     2600.00
00326             -16.00     2600.00
00327             -18.00     2600.00
00328             -16.00     2600.00
00329             -16.00     2600.00
00330             -16.00     2400.00
00331             -16.00     2400.00
00332             -10.00     2400.00
00333             -12.00     2400.00
00334             -14.00     2400.00
00335             -14.00     2400.00
00336             -12.00     2200.00
00337             -16.00     2200.00
00338             -14.00     2200.00
00339             -10.00     2200.00
00340             -10.00     2000.00
00341             -12.00     1800.00
00342             -14.00     1800.00
00343             -10.00     1800.00
00344             -14.00     1800.00
00345             -14.00     1600.00
00346              -8.00     1600.00
00347              -6.00     1400.00
00348             -10.00     1400.00
00349             -16.00     1400.00
00350             -10.00     1400.00
00351              -6.00     1200.00
00352              -8.00     1400.00
00353              -8.00     1200.00
00354              -6.00     1200.00
00355              -6.00     1000.00
00356             -10.00     1200.00
00357             -10.00     1000.00
00358              -4.00      800.00
00359              -2.00      800.00
00360              -8.00      800.00
00361              -8.00      800.00
00362              -6.00      600.00
00363              -6.00      600.00
00364              -6.00      600.00
00365              -6.00      400.00
00366              -6.00      200.00
00367              -6.00      200.00
00368               0.00      200.00
00369               0.00      200.00
00370               0.00        0.00
00371               0.00        0.00
00372              10.00        0.00
00373               6.00        0.00
00374              -6.00     -200.00
00375              -8.00     -200.00
00376               0.00     -200.00
00377              16.00     -400.00
00378              82.00     -200.00
00379             166.00     -400.00
00380             -34.00     -800.00
00381            -254.00     -800.00
00382            -254.00     -400.00
00383             246.00     -600.00
00384             246.00     -800.00
00385            -254.00    -1000.00
00386            -254.00     -800.00
00387              48.00    -1200.00
00388             246.00    -1000.00
00389              70.00    -1200.00
00390            -254.00    -1200.00
00391             -78.00    -1400.00
00392             246.00    -1400.00
00393              32.00    -1200.00
00394            -254.00    -1600.00
00395              32.00    -1600.00
00396              52.00    -1600.00
00397             -16.00    -1600.00
00398              80.00    -1800.00
00399              32.00    -1800.00
00400            -230.00    -1800.00
00401              38.00    -1800.00
00402             246.00    -2000.00
00403             -54.00    -2000.00
00404            -254.00    -2000.00
00405              62.00    -2200.00
00406             224.00    -2200.00
00407             -38.00    -2200.00
00408            -128.00    -2400.00
00409               0.00    -2200.00
00410              58.00    -2200.00
00411              22.00    -2400.00
00412               8.00    -2400.00
00413             -30.00    -2400.00
00414              -8.00    -2600.00
00415              18.00    -2600.00
00416              12.00    -2600.00
00417             -14.00    -2600.00
00418               0.00    -2600.00
00419              26.00    -2800.00
00420              16.00    -3000.00
00421             -18.00    -2800.00
00422             -26.00    -2800.00
00423              32.00    -3000.00
00424              46.00    -3000.00
00425              -8.00    -3000.00
00426             -34.00    -3000.00
00427              10.00    -3200.00
00428              30.00    -3000.00
00429              10.00    -3200.00
00430              -8.00    -3200.00
00431               0.00    -3200.00
00432              16.00    -3000.00
00433              16.00    -3400.00
00434               4.00    -3200.00
00435              -6.00    -3400.00
00436               8.00    -3200.00
00437              14.00    -3400.00
00438              16.00    -3400.00
00439               6.00    -3400.00
00440              -2.00    -3400.00
00441               6.00    -3400.00
00442              16.00    -3400.00
00443              14.00    -3400.00
00444               0.00    -3600.00
00445               8.00    -3400.00
00446              18.00    -3600.00
00447               8.00    -3800.00
00448               0.00    -3800.00
00449               8.00    -3800.00
00450              14.00    -3800.00
00451              14.00    -3800.00
00452              14.00    -3800.00
00453              12.00    -3600.00
00454               6.00    -3800.00
00455               8.00    -3600.00
00456              10.00    -3800.00
00457              12.00    -3800.00
00458              12.00    -3600.00
00459              10.00    -3800.00
00460              14.00    -4000.00
00461              10.00    -4000.00
00462               2.00    -3800.00
00463              10.00    -3800.00
00464              18.00    -3800.00
00465              16.00    -3800.00
00466              10.00    -4000.00
00467              14.00    -3800.00
00468              10.00    -3800.00
00469               8.00    -3800.00
00470              16.00    -3800.00
00471              18.00    -3800.00
00472              18.00    -3800.00
00473              14.00    -3800.00
00474              10.00    -3800.00
00475              14.00    -3800.00
00476              16.00    -3800.00
00477              18.00    -3800.00
00478              18.00    -3800.00
00479              12.00    -3600.00
00480              14.00    -3600.00
00481              16.00    -3600.00
00482              16.00    -3600.00
00483              16.00    -3600.00
00484              18.00    -3600.00
00485              24.00    -3600.00
00486              16.00    -3400.00
00487              14.00    -3400.00
00488              18.00    -3600.00
00489              18.00    -3400.00
00490              16.00    -3400.00
00491              16.00    -3400.00
00492              18.00    -3400.00
00493              18.00    -3200.00
00494              16.00    -3400.00
00495              14.00    -3200.00
00496              16.00    -3200.00
00497              18.00    -3400.00
00498              16.00    -3200.00
00499              18.00    -3200.00
00500              14.00    -3000.00
00501              14.00    -3200.00
00502              14.00    -3000.00
00503              14.00    -3000.00
00504              14.00    -3000.00
00505              20.00    -2800.00
00506              16.00    -3000.00
00507              14.00    -2600.00
00508               8.00    -2600.00
00509              14.00    -2800.00
00510              16.00    -2600.00
00511              14.00    -2600.00
00512              14.00    -2600.00
00513              12.00    -2400.00
00514              10.00    -2600.00
00515              10.00    -2400.00
00516               8.00    -2200.00
00517              14.00    -2400.00
00518              14.00    -2200.00
00519               8.00    -2200.00
00520               6.00    -2200.00
00521               6.00    -2200.00
00522               8.00    -2200.00
00523               8.00    -2200.00
00524               8.00    -2000.00
00525               8.00    -1800.00
00526               8.00    -2000.00
00527               6.00    -1800.00
00528               2.00    -1600.00
00529               2.00    -1800.00
00530               6.00    -1600.00
00531               8.00    -1600.00
00532               8.00    -1400.00
00533               2.00    -1400.00
00534               0.00    -1600.00
00535               2.00    -1400.00
00536               4.00    -1000.00
00537               2.00    -1200.00
00538               2.00    -1200.00
00539               4.00    -1200.00
00540               0.00    -1000.00
00541               0.00    -1000.00
00542               6.00    -1000.00
00543               2.00    -1000.00
00544               0.00     -800.00
00545               0.00     -800.00
00546               2.00     -600.00
00547               2.00     -600.00
00548              -2.00     -600.00
00549              -2.00     -600.00
00550               0.00     -400.00
00551               2.00     -400.00
00552               0.00     -200.00
00553               0.00     -200.00
00554               0.00     -200.00
00555              -2.00     -200.00
00556              -2.00        0.00
00557               0.00        0.00
00558              -2.00        0.00
00559               2.00      200.00
00560               6.00      200.00
00561               0.00      400.00
00562               2.00      200.00
00563               6.00      600.00
00564               6.00      400.00
00565               0.00      600.00
00566              -8.00      600.00
00567              -6.00      800.00
00568              18.00      800.00
00569             128.00      800.00
00570             178.00     1200.00
00571            -222.00     1000.00
00572            -254.00      800.00
00573              32.00     1200.00
00574             246.00     1400.00
00575             246.00     1400.00
00576            -254.00      800.00
00577            -254.00     1200.00
00578             246.00     1600.00
00579             246.00     1800.00
00580            -254.00     1200.00
00581            -254.00     1400.00
00582             246.00     2000.00
00583             246.00     1800.00
00584            -254.00     1400.00
00585            -112.00     1800.00
00586             246.00     2200.00
00587             -70.00     1800.00
00588            -254.00     1800.00
00589             184.00     2200.00
00590             168.00     2200.00
00591            -254.00     1800.00
00592               4.00     2200.00
00593             246.00     2400.00
00594            -154.00     2200.00
00595            -250.00     2400.00
00596             198.00     2600.00
00597             148.00     2400.00
00598            -170.00     2400.00
00599             -86.00     2600.00
00600              78.00     2600.00
00601              14.00     2400.00
00602             -24.00     2600.00
00603             -18.00     2800.00
00604              -2.00     2800.00
00605               6.00     3000.00
00606             -44.00     3000.00
00607             -30.00     2800.00
00608              50.00     3200.00
00609             -20.00     3000.00
00610             -50.00     3000.00
00611              38.00     3200.00
00612             -14.00     3200.00
00613             -82.00     3200.00
00614              42.00     3400.00
00615              48.00     3400.00
00616             -70.00     3400.00
00617             -26.00     3400.00
00618              22.00     3400.00
00619             -18.00     3400.00
00620             -10.00     3400.00
00621              -8.00     3600.00
00622             -26.00     3400.00
00623               6.00     3600.00
00624             -10.00     3600.00
00625             -32.00     3800.00
00626              10.00     3800.00
00627             -10.00     3800.00
00628             -42.00     3800.00
00629              10.00     3800.00
00630               6.00     3800.00
00631             -40.00     3800.00
00632              -6.00     4000.00
00633               2.00     4000.00
00634             -32.00     4000.00
00635             -10.00     4000.00
00636               2.00     4000.00
00637             -20.00     4000.00
00638             -18.00     4000.00
00639             -14.00     4200.00
00640             -16.00     4000.00
00641              -4.00     4000.00
00642             -16.00     4000.00
00643             -18.00     4000.00
00644              -6.00     4000.00
00645             -22.00     4000.00
00646             -26.00     4000.00
00647              -2.00     4000.00
00648             -14.00     4200.00
00649             -26.00     4200.00
00650              -6.00     4200.00
00651             -10.00     4000.00
00652             -30.00     4000.00
00653             -22.00     4200.00
00654             -16.00     4200.00
00655             -16.00     4000.00
00656             -14.00     4000.00
00657             -20.00     4200.00
00658             -26.00     4200.00
00659             -18.00     4200.00
00660             -24.00     4000.00
00661             -18.00     4000.00
00662             -12.00     4200.00
00663             -24.00     4200.00
00664             -26.00     4000.00
00665             -18.00     4000.00
00666             -26.00     4000.00
00667             -26.00     3800.00
00668             -16.00     4000.00
00669             -18.00     4200.00
00670             -26.00     3800.00
00671             -26.00     4000.00
00672             -24.00     4000.00
00673             -30.00     4000.00
00674             -24.00     4000.00
00675             -18.00     4000.00
00676             -22.00     3800.00
00677             -26.00     3800.00
00678             -30.00     3800.00
00679             -26.00     3800.00
00680             -22.00     3800.00
00681             -24.00     3800.00
00682             -24.00     3800.00
00683             -18.00     3800.00
00684             -26.00     3800.00
00685             -24.00     3800.00
00686             -18.00     3600.00
00687             -24.00     3800.00
00688             -24.00     3600.00
00689             -16.00     3600.00
00690             -18.00     3400.00
00691             -24.00     3400.00
00692             -26.00     3400.00
00693             -22.00     3400.00
00694             -18.00     3400.00
00695             -18.00     3200.00
00696             -18.00     3400.00
00697             -14.00     3200.00
00698             -22.00     3200.00
00699             -24.00     3000.00
00700             -16.00     3200.00
00701             -12.00     3000.00
00702             -16.00     3200.00
00703             -18.00     3000.00
00704             -18.00     3000.00
00705             -18.00     3000.00
00706             -20.00     2800.00
00707             -12.00     3000.00
00708             -16.00     2600.00
00709             -16.00     2800.00
00710             -16.00     2600.00
00711             -16.00     2600.00
00712             -16.00     2600.00
00713             -14.00     2600.00
00714             -12.00     2400.00
00715             -10.00     2400.00
00716             -14.00     2200.00
00717             -14.00     2400.00
00718             -10.00     2200.00
00719             -12.00     2200.00
00720             -16.00     2200.00
00721             -14.00     2000.00
00722              -6.00     2200.00
00723             -10.00     2000.00
00724             -16.00     1800.00
00725             -10.00     1800.00
00726             -10.00     1800.00
00727             -10.00     1800.00
00728             -10.00     1600.00
00729              -8.00     1600.00
00730              -6.00     1400.00
00731             -10.00     1600.00
00732             -10.00     1400.00
00733              -6.00     1400.00
00734              -8.00     1400.00
00735             -10.00     1200.00
00736              -6.00     1400.00
00737              -6.00     1000.00
00738             -12.00     1000.00
00739             -12.00     1000.00
00740              -8.00      800.00
00741              -2.00      800.00
00742              -2.00      800.00
00743              -8.00      800.00
00744              -6.00      600.00
00745              -6.00      600.00
00746              -6.00      600.00
00747              -4.00      400.00
00748              -2.00      400.00
00749              -6.00      200.00
00750              -2.00      200.00
00751               0.00      200.00
00752               0.00      200.00
00753               0.00        0.00
00754               2.00     -200.00
00755               8.00     -200.00
00756               0.00     -200.00
00757              -8.00     -200.00
00758              -6.00     -200.00
00759               6.00     -200.00
00760              40.00     -400.00
00761             140.00     -400.00
00762             114.00     -800.00
00763            -254.00     -800.00
00764            -254.00     -600.00
00765             126.00     -600.00
00766             246.00     -600.00
00767             246.00    -1000.00
00768            -254.00    -1000.00
00769            -254.00     -800.00
00770             246.00    -1000.00
00771             246.00    -1000.00
00772            -254.00    -1200.00
00773            -254.00    -1200.00
00774             246.00    -1400.00
00775             246.00    -1400.00
00776            -198.00    -1400.00
00777            -134.00    -1600.00
00778             104.00    -1400.00
00779             -14.00    -1600.00
00780              22.00    -1600.00
00781             114.00    -1800.00
00782            -142.00    -1600.00
00783            -144.00    -1800.00
00784             216.00    -2000.00
00785             168.00    -1800.00
00786            -254.00    -2000.00
00787            -128.00    -2000.00
00788             210.00    -2200.00
00789             112.00    -2200.00
00790            -136.00    -2400.00
00791             -64.00    -2200.00
00792              42.00    -2200.00
00793              46.00    -2400.00
00794              18.00    -2600.00
00795             -12.00    -2400.00
00796             -26.00    -2400.00
00797               2.00    -2600.00
00798              30.00    -2600.00
00799              -8.00    -2800.00
00800             -10.00    -2600.00
00801               8.00    -2600.00
00802              30.00    -2600.00
00803              -2.00    -3000.00
00804             -32.00    -2800.00
00805              -2.00    -2800.00
00806              46.00    -3000.00
00807              20.00    -3000.00
00808             -32.00    -3000.00
00809             -12.00    -3200.00
00810              26.00    -3200.00
00811              22.00    -3000.00
00812              -6.00    -3200.00
00813              -6.00    -3200.00
00814               8.00    -3200.00
00815              18.00    -3400.00
00816              10.00    -3200.00
00817              -2.00    -3200.00
00818               0.00    -3400.00
00819              14.00    -3400.00
00820              16.00    -3400.00
00821              10.00    -3400.00
00822               2.00    -3400.00
00823               2.00    -3400.00
00824              10.00    -3400.00
00825              16.00    -3400.00
00826               4.00    -3600.00
00827               0.00    -3600.00
00828              16.00    -3600.00
00829              14.00    -3600.00
00830               2.00    -3800.00
00831               4.00    -3600.00
00832              12.00    -3800.00
00833              14.00    -3800.00
00834              16.00    -3800.00
00835              14.00    -3800.00
00836               8.00    -3800.00
00837               6.00    -3800.00
00838              12.00    -3400.00
00839              16.00    -3600.00
00840              16.00    -3800.00
00841              14.00    -3800.00
00842              10.00    -3800.00
00843              14.00    -3800.00
00844               6.00    -3600.00
00845               8.00    -3800.00
00846              16.00    -3800.00
00847              18.00    -3800.00
00848               8.00    -3800.00
00849              10.00    -3800.00
00850              14.00    -3800.00
00851              10.00    -3800.00
00852              14.00    -3800.00
00853              18.00    -3600.00
00854              16.00    -3800.00
00855              14.00    -3800.00
00856              14.00    -3600.00
00857              10.00    -3800.00
00858              10.00    -3800.00
00859              16.00    -3800.00
00860              22.00    -3600.00
00861              16.00    -3600.00
00862              14.00    -3800.00
00863              14.00    -3800.00
00864              16.00    -3600.00
00865              16.00    -3600.00
00866              16.00    -3400.00
00867              20.00    -3600.00
00868              20.00    -3600.00
00869              14.00    -3400.00
00870              14.00    -3400.00
00871              16.00    -3400.00
00872              16.00    -3400.00
00873              16.00    -3400.00
00874              18.00    -3400.00
00875              18.00    -3400.00
00876              16.00    -3000.00
00877              14.00    -3400.00
00878              14.00    -3200.00
00879              16.00    -3200.00
00880              18.00    -3200.00
00881              20.00    -3000.00
00882              16.00    -3000.00
00883              12.00    -3000.00
00884              10.00    -3000.00
00885              16.00    -3000.00
00886              18.00    -3000.00
00887              16.00    -3000.00
00888              18.00    -2800.00
00889              16.00    -2600.00
00890              10.00    -2600.00
00891               8.00    -2800.00
00892              14.00    -2600.00
00893              16.00    -2600.00
00894              16.00    -2600.00
00895              10.00    -2400.00
00896              10.00    -2600.00
00897              14.00    -2400.00
00898              10.00    -2400.00
00899              10.00    -2400.00
00900              14.00    -2200.00
00901              14.00    -2400.00
00902              10.00    -2200.00
00903               8.00    -2200.00
00904               8.00    -2200.00
00905              10.00    -2000.00
00906              10.00    -2200.00
00907               8.00    -2000.00
00908               8.00    -1800.00
00909               8.00    -1800.00
00910               8.00    -1800.00
00911               4.00    -1600.00
00912               6.00    -1600.00
00913               8.00    -1600.00
00914              10.00    -1600.00
00915               6.00    -1400.00
00916               0.00    -1400.00
00917               2.00    -1200.00
00918               6.00    -1400.00
00919               2.00    -1200.00
00920               2.00    -1200.00
00921               6.00    -1200.00
00922               6.00    -1000.00
00923               0.00    -1000.00
00924               0.00    -1000.00
00925               0.00    -1000.00
00926               0.00     -800.00
00927               4.00     -800.00
00928               6.00     -600.00
00929               0.00     -600.00
00930              -2.00     -600.00
00931              -6.00     -600.00
00932               0.00     -600.00
00933               2.00     -400.00
00934               4.00     -200.00
00935              -2.00     -200.00
00936              -2.00     -200.00
00937              -6.00     -200.00
00938               0.00        0.00
00939               0.00        0.00
00940               0.00        0.00
00941              -6.00      200.00
00942               0.00      200.00
00943               2.00      200.00
00944               6.00      200.00
00945               6.00      400.00
00946               6.00      400.00
00947               0.00      400.00
00948              -8.00      600.00
00949              -2.00      600.00
00950               2.00      600.00
00951              62.00      800.00
00952             190.00     1000.00
00953              38.00     1200.00
00954            -254.00      800.00
00955            -254.00     1000.00
00956             246.00     1400.00
00957             246.00     1600.00
00958            -240.00     1000.00
00959            -254.00     1000.00
00960             -10.00     1400.00
00961             246.00     1800.00
00962              74.00     1400.00
00963            -254.00     1200.00
00964               0.00     1800.00
00965             246.00     1800.00
00966            -174.00     1400.00
00967            -254.00     1800.00
00968             246.00     2000.00
00969             246.00     2000.00
00970            -254.00     1600.00
00971             -88.00     2200.00
00972             246.00     2200.00
00973            -106.00     2000.00
00974            -224.00     2200.00
00975             242.00     2400.00
00976              94.00     2200.00
00977            -254.00     2200.00
00978             -18.00     2400.00
00979             246.00     2400.00
00980             -46.00     2400.00
00981            -178.00     2600.00
00982              30.00     2600.00
00983              56.00     2600.00
00984             -14.00     2600.00
00985             -24.00     2600.00
00986             -16.00     2800.00
00987               6.00     2800.00
00988             -14.00     3000.00
00989             -56.00     3000.00
00990              22.00     3000.00
00991              26.00     3000.00
00992             -62.00     3000.00
00993              -2.00     3200.00
00994              42.00     3400.00
00995             -78.00     3000.00
00996             -32.00     3200.00
00997              70.00     3400.00
00998             -22.00     3400.00
00999             -66.00     3200.00
01000              14.00     3400.00
01001              -4.00     3400.00
01002             -26.00     3400.00
01003              -2.00     3600.00
01004             -22.00     3600.00
01005             -10.00     3400.00
01006               8.00     3800.00
01007             -34.00     3800.00
01008             -16.00     3600.00
01009              14.00     3800.00
01010             -38.00     3600.00
01011             -16.00     3800.00
01012              18.00     4000.00
01013             -32.00     3800.00
01014             -32.00     3800.00
01015              14.00     4000.00
01016             -22.00     3800.00
01017             -30.00     4000.00
01018               6.00     4000.00
01019             -10.00     4000.00
01020             -22.00     4000.00
01021             -14.00     4000.00
01022             -18.00     4000.00
01023             -10.00     4200.00
01024             -10.00     4000.00
01025             -22.00     4200.00
01026              -8.00     4000.00
01027             -10.00     4000.00
01028             -34.00     4000.00
01029             -18.00     4200.00
01030              -2.00     4000.00
01031             -24.00     4200.00
01032             -16.00     4200.00
01033              -6.00     4200.00
01034             -22.00     4200.00
01035             -26.00     4200.00
01036             -14.00     4200.00
01037             -16.00     4200.00
01038             -14.00     4000.00
01039             -16.00     4200.00
01040             -22.00     4200.00
01041             -24.00     4000.00
01042             -24.00     4200.00
01043             -22.00     4200.00
01044             -14.00     4000.00
01045             -18.00     4200.00
01046             -30.00     4000.00
01047             -18.00     4200.00
01048             -22.00     4000.00
01049             -30.00     4000.00
01050             -24.00     4000.00
01051             -16.00     4000.00
01052             -26.00     4000.00
01053             -26.00     4000.00
01054             -22.00     4000.00
01055             -26.00     4000.00
01056             -26.00     3800.00
01057             -22.00     3800.00
01058             -22.00     4000.00
01059             -24.00     3800.00
01060             -26.00     3800.00
01061             -26.00     3800.00
01062             -24.00     3800.00
01063             -26.00     3800.00
01064             -26.00     3800.00
01065             -18.00     3800.00
01066             -22.00     3800.00
01067             -26.00     3800.00
01068             -24.00     3600.00
01069             -24.00     3600.00
01070             -28.00     3600.00
01071             -18.00     3400.00
01072             -14.00     3600.00
01073             -24.00     3400.00
01074             -26.00     3400.00
01075             -24.00     3400.00
01076             -18.00     3400.00
01077             -18.00     3400.00
01078             -22.00     3200.00
01079             -18.00     3200.00
01080             -18.00     3200.00
01081             -24.00     3200.00
01082             -22.00     3400.00
01083             -16.00     3000.00
01084             -14.00     3000.00
01085             -16.00     3000.00
01086             -16.00     3000.00
01087             -18.00     3000.00
01088             -20.00     3000.00
01089             -16.00     2800.00
01090             -14.00     2800.00
01091             -16.00     3000.00
01092             -16.00     2600.00
01093             -12.00     2600.00
01094             -14.00     2600.00
01095             -16.00     2600.00
01096             -16.00     2400.00
01097             -10.00     2400.00
01098             -10.00     2200.00
01099             -16.00     2400.00
01100             -14.00     2200.00
01101             -10.00     2200.00
01102             -16.00     2200.00
01103             -16.00     2200.00
01104             -10.00     2200.00
01105              -4.00     2000.00
01106             -10.00     1800.00
01107             -14.00     1800.00
01108             -14.00     1800.00
01109             -10.00     1600.00
01110             -10.00     1600.00
01111             -10.00     1600.00
01112              -8.00     1600.00
01113              -8.00     1600.00
01114             -14.00     1400.00
01115             -10.00     1400.00
01116              -8.00     1400.00
01117              -8.00     1400.00
01118             -10.00     1200.00
01119              -6.00     1000.00
01120              -8.00     1200.00
01121             -10.00     1000.00
01122              -8.00      800.00
01123              -6.00     1000.00
01124              -8.00      800.00
01125             -10.00      600.00
01126              -2.00      800.00
01127              -2.00      600.00
01128              -8.00      600.00
01129             -12.00      600.00
01130              -6.00      200.00
01131              -2.00      400.00
01132              -2.00      200.00
01133              -2.00      200.00
01134              -2.00      200.00
01135               0.00        0.00
01136               2.00        0.00
01137               8.00        0.00
01138               0.00        0.00
01139              -6.00        0.00
01140             -10.00        0.00
01141              -2.00     -200.00
01142              16.00     -400.00
01143              82.00     -400.00
01144             166.00     -600.00
01145             -50.00     -800.00
01146            -254.00     -800.00
01147            -250.00     -400.00
01148             246.00     -600.00
01149             246.00     -800.00
01150            -254.00    -1000.00
01151            -254.00     -800.00
01152              94.00    -1000.00
01153             246.00    -1000.00
01154              24.00    -1000.00
01155            -254.00    -1000.00
01156             -46.00    -1200.00
01157             246.00    -1400.00
01158              14.00    -1200.00
01159            -254.00    -1600.00
01160              48.00    -1600.00
01161              46.00    -1400.00
01162             -16.00    -1400.00
01163              86.00    -1600.00
01164              24.00    -1600.00
01165            -226.00    -1600.00
01166              54.00    -1800.00
01167             246.00    -2200.00
01168             -74.00    -1800.00
01169            -254.00    -2000.00
01170              80.00    -2200.00
01171             222.00    -2200.00
01172             -48.00    -2200.00
01173            -124.00    -2200.00
01174               0.00    -2400.00
01175              62.00    -2400.00
01176              22.00    -2400.00
01177              10.00    -2400.00
01178             -30.00    -2400.00
01179             -10.00    -2600.00
01180              20.00    -2600.00
01181              10.00    -2600.00
01182             -16.00    -2600.00
01183               0.00    -2600.00
01184              30.00    -2600.00
01185              14.00    -2800.00
01186             -22.00    -3000.00
01187             -30.00    -2800.00
01188              34.00    -2800.00
01189              46.00    -3000.00
01190             -10.00    -3000.00
01191             -38.00    -3200.00
01192               8.00    -3000.00
01193              32.00    -3000.00
01194              10.00    -3200.00
01195             -10.00    -3200.00
01196              -6.00    -3200.00
01197              16.00    -3200.00
01198              16.00    -3400.00
01199               2.00    -3200.00
01200              -8.00    -3400.00
01201               2.00    -3400.00
01202              14.00    -3400.00
01203              16.00    -3400.00
01204               6.00    -3600.00
01205               0.00    -3400.00
01206               6.00    -3600.00
01207              14.00    -3600.00
01208               8.00    -3400.00
01209              -2.00    -3400.00
01210              10.00    -3600.00
01211              18.00    -3400.00
01212               6.00    -3600.00
01213               0.00    -3600.00
01214               8.00    -3800.00
01215              14.00    -3600.00
01216              10.00    -3800.00
01217              14.00    -3800.00
01218               8.00    -3800.00
01219               6.00    -3800.00
01220               8.00    -3600.00
01221              12.00    -3800.00
01222              10.00    -3800.00
01223              14.00    -3800.00
01224              14.00    -3800.00
01225              12.00    -3800.00
01226              10.00    -3800.00
01227               6.00    -4000.00
01228              14.00    -3800.00
01229              22.00    -3800.00
01230              16.00    -3800.00
01231              14.00    -3800.00
01232              14.00    -3800.00
01233              10.00    -3800.00
01234              10.00    -3800.00
01235              18.00    -3800.00
01236              18.00    -3800.00
01237              16.00    -3800.00
01238              14.00    -3800.00
01239              14.00    -3800.00
01240              10.00    -3800.00
01241              14.00    -3800.00
01242              18.00    -3600.00
01243              22.00    -3800.00
01244              14.00    -3800.00
01245              14.00    -3600.00
01246              16.00    -3600.00
01247              18.00    -3400.00
01248              16.00    -3600.00
01249              16.00    -3600.00
01250              18.00    -3600.00
01251              16.00    -3400.00
01252              16.00    -3400.00
01253              16.00    -3400.00
01254              16.00    -3400.00
01255              16.00    -3400.00
01256              20.00    -3400.00
01257              18.00    -3400.00
01258              16.00    -3400.00
01259              14.00    -3200.00
01260              14.00    -3200.00
01261              16.00    -3200.00
01262              18.00    -3200.00
01263              16.00    -3200.00
01264              22.00    -3000.00
01265              16.00    -3200.00
01266              10.00    -3000.00
01267              14.00    -3000.00
01268              14.00    -3000.00
01269              16.00    -3000.00
01270              18.00    -2800.00
01271              16.00    -2800.00
01272              10.00    -2600.00
01273               8.00    -2800.00
01274              14.00    -2800.00
01275              14.00    -2600.00
01276              16.00    -2600.00
01277              14.00    -2600.00
01278              12.00    -2600.00
01279              10.00    -2600.00
01280               8.00    -2400.00
01281              10.00    -2400.00
01282              14.00    -2400.00
01283              14.00    -2200.00
01284              14.00    -2200.00
01285               8.00    -2200.00
01286               8.00    -2200.00
01287               6.00    -2200.00
01288              10.00    -2000.00
01289              10.00    -2000.00
01290               8.00    -1800.00
01291               8.00    -1800.00
01292               6.00    -1800.00
01293               8.00    -1800.00
01294               8.00    -1600.00
01295               6.00    -1600.00
01296               8.00    -1600.00
01297               6.00    -1400.00
01298               4.00    -1600.00
01299               6.00    -1400.00
01300               8.00    -1400.00
01301               6.00    -1200.00
01302               2.00    -1200.00
01303               6.00    -1000.00
01304               8.00    -1000.00
01305               6.00    -1000.00
01306               0.00    -1000.00
01307              -2.00    -1000.00
01308               0.00    -1000.00
01309               4.00     -800.00
01310               6.00     -600.00
01311               0.00     -600.00
01312               0.00     -600.00
01313               0.00     -600.00
01314               0.00     -600.00
01315               0.00     -400.00
01316               0.00     -400.00
01317               0.00     -400.00
01318               0.00     -200.00
01319               0.00     -200.00
01320              -6.00     -200.00
01321              -2.00        0.00
01322               0.00     -200.00
01323               0.00        0.00
01324              -2.00      200.00
01325               0.00      200.00
01326               0.00      200.00
01327               0.00      200.00
01328               6.00      600.00
01329               2.00      400.00
01330              -4.00      600.00
01331              -8.00      600.00
01332              -8.00      600.00
01333              18.00      800.00
01334             134.00      800.00
01335             176.00     1200.00
01336            -248.00      800.00
01337            -254.00      800.00
01338              64.00     1200.00
01339             246.00     1400.00
01340             246.00     1400.00
01341            -254.00      800.00
01342            -254.00     1400.00
01343             246.00     1600.00
01344             246.00     1800.00
01345            -254.00     1000.00
01346            -254.00     1400.00
01347             246.00     1800.00
01348             246.00     1800.00
01349            -254.00     1400.00
01350             -82.00     2000.00
01351             246.00     2200.00
01352             -96.00     1800.00
01353            -254.00     1600.00
01354             200.00     2400.00
01355             152.00     2200.00
01356            -254.00     2200.00
01357              24.00     2400.00
01358             246.00     2400.00
01359            -170.00     2200.00
01360            -236.00     2200.00
01361             210.00     2600.00
01362             134.00     2400.00
01363            -176.00     2600.00
01364             -76.00     2600.00
01365              78.00     2600.00
01366              10.00     2600.00
01367             -22.00     2800.00
01368             -18.00     2600.00
01369              -2.00     2600.00
01370               6.00     3000.00
01371             -44.00     3000.00
01372             -22.00     3000.00
01373              54.00     3000.00
01374             -28.00     3000.00
01375             -52.00     3000.00
01376              46.00     3200.00
01377             -16.00     3200.00
01378             -82.00     3200.00
01379              42.00     3400.00
01380              38.00     3400.00
01381             -70.00     3200.00
01382             -20.00     3400.00
01383              18.00     3600.00
01384             -26.00     3400.00
01385             -12.00     3400.00
01386              -8.00     3600.00
01387             -26.00     3400.00
01388               6.00     3600.00
01389             -16.00     3800.00
01390             -34.00     3600.00
01391              10.00     3800.00
01392             -10.00     3800.00
01393             -42.00     3800.00
01394              10.00     3800.00
01395              -2.00     4000.00
01396             -42.00     3800.00
01397               0.00     4000.00
01398               2.00     4000.00
01399             -38.00     3800.00
01400             -10.00     3800.00
01401               4.00     4000.00
01402             -22.00     4000.00
01403             -22.00     3800.00
01404             -18.00     4000.00
01405             -16.00     3800.00
01406              -2.00     4000.00
01407             -16.00     4000.00
01408             -20.00     4000.00
01409              -2.00     4000.00
01410             -22.00     4000.00
01411             -30.00     4200.00
01412              -2.00     4200.00
01413             -14.00     4000.00
01414             -26.00     4200.00
01415              -6.00     4200.00
01416             -10.00     4200.00
01417             -30.00     4000.00
01418             -20.00     4000.00
01419             -14.00     4200.00
01420             -16.00     4000.00
01421             -14.00     4200.00
01422             -16.00     4000.00
01423             -24.00     4200.00
01424             -22.00     4000.00
01425             -24.00     4000.00
01426             -16.00     4000.00
01427             -10.00     4000.00
01428             -22.00     4200.00
01429             -28.00     4000.00
01430             -18.00     4200.00
01431             -24.00     4000.00
01432             -24.00     4000.00
01433             -10.00     4000.00
01434             -18.00     4000.00
01435             -30.00     4000.00
01436             -24.00     4000.00
01437             -22.00     4000.00
01438             -26.00     4000.00
01439             -24.00     4000.00
01440             -22.00     4000.00
01441             -24.00     4000.00
01442             -24.00     3800.00
01443             -26.00     3800.00
01444             -26.00     3800.00
01445             -26.00     3800.00
01446             -24.00     3800.00
01447             -18.00     3800.00
01448             -18.00     3800.00
01449             -26.00     3800.00
01450             -28.00     3600.00
01451             -18.00     3400.00
01452             -24.00     3600.00
01453             -26.00     3600.00
01454             -20.00     3400.00
01455             -22.00     3400.00
01456             -26.00     3400.00
01457             -24.00     3400.00
01458             -24.00     3400.00
01459             -22.00     3400.00
01460             -18.00     3400.00
01461             -18.00     3200.00
01462             -18.00     3200.00
01463             -22.00     3200.00
01464             -26.00     3200.00
01465             -18.00     3200.00
01466             -14.00     3000.00
01467             -16.00     3000.00
01468             -18.00     3000.00
01469             -18.00     3000.00
01470             -22.00     3000.00
01471             -16.00     2800.00
01472             -12.00     2800.00
01473             -16.00     2800.00
01474             -18.00     2600.00
01475             -18.00     2600.00
01476             -12.00     2600.00
01477             -16.00     2600.00
01478             -16.00     2400.00
01479             -14.00     2400.00
01480             -10.00     2600.00
01481             -10.00     2400.00
01482             -14.00     2400.00
01483             -12.00     2200.00
01484             -10.00     2200.00
01485             -16.00     2200.00
01486             -10.00     2200.00
01487              -6.00     2200.00
01488              -8.00     2000.00
01489             -14.00     1800.00
01490             -10.00     1800.00
01491             -10.00     2000.00
01492             -10.00     1800.00
01493             -10.00     1600.00
01494              -6.00     1600.00
01495              -8.00     1600.00
01496             -10.00     1400.00
01497             -10.00     1400.00
01498              -8.00     1400.00
01499              -8.00     1400.00
01500              -8.00     1000.00
01501              -8.00     1200.00
01502              -6.00     1000.00
01503             -10.00     1000.00
01504             -10.00     1200.00
01505              -6.00     1000.00
01506              -6.00      800.00
01507              -8.00      800.00
01508              -8.00      800.00
01509              -2.00      800.00
01510              -4.00      600.00
01511             -10.00      600.00
01512              -8.00      200.00
01513              -6.00      200.00
01514              -6.00      400.00
01515              -6.00      200.00
01516               0.00      200.00
01517               0.00      200.00
01518              -2.00        0.00
01519               2.00        0.00
01520               4.00        0.00
01521              -2.00     -200.00
01522             -10.00     -200.00
01523              -8.00     -200.00
01524               2.00     -400.00
01525              38.00     -200.00
01526             144.00     -200.00
01527             108.00     -800.00
01528            -254.00     -800.00
01529            -254.00     -600.00
01530             158.00     -600.00
01531             246.00     -600.00
01532             246.00    -1000.00
01533            -254.00    -1000.00
01534            -254.00    -1000.00
01535             246.00    -1000.00
01536             246.00    -1000.00
01537            -254.00    -1200.00
01538            -254.00    -1200.00
01539             246.00    -1400.00
01540             246.00    -1400.00
01541            -208.00    -1400.00
01542            -120.00    -1600.00
01543             102.00    -1400.00
01544             -18.00    -1400.00
01545              22.00    -1600.00
01546             114.00    -1600.00
01547            -152.00    -1600.00
01548            -132.00    -1600.00
01549             224.00    -1800.00
01550             152.00    -1800.00
01551            -254.00    -2000.00
01552            -110.00    -1800.00
01553             214.00    -2200.00
01554              98.00    -2200.00
01555            -138.00    -2400.00
01556             -54.00    -2200.00
01557              46.00    -2200.00
01558              46.00    -2400.00
01559              16.00    -2600.00
01560             -14.00    -2400.00
01561             -26.00    -2600.00
01562               6.00    -2600.00
01563              32.00    -2600.00
01564              -8.00    -2600.00
01565             -10.00    -2600.00
01566              10.00    -2600.00
01567              32.00    -2600.00
01568              -4.00    -3000.00
01569             -34.00    -3000.00
01570              -2.00    -3000.00
01571              50.00    -3000.00
01572              22.00    -3000.00
01573             -34.00    -3000.00
01574             -16.00    -3000.00
01575              26.00    -3000.00
01576              24.00    -3000.00
01577              -4.00    -3400.00
01578              -8.00    -3200.00
01579               8.00    -3200.00
01580              22.00    -3200.00
01581              10.00    -3200.00
01582              -6.00    -3400.00
01583              -2.00    -3400.00
01584              14.00    -3400.00
01585              16.00    -3200.00
01586               6.00    -3400.00
01587               2.00    -3400.00
01588               0.00    -3600.00
01589              10.00    -3400.00
01590              14.00    -3600.00
01591               0.00    -3600.00
01592               4.00    -3800.00
01593              18.00    -3600.00
01594              14.00    -3800.00
01595              -2.00    -3600.00
01596               6.00    -3400.00
01597              14.00    -3600.00
01598              12.00    -3800.00
01599              12.00    -3800.00
01600              10.00    -3800.00
01601               8.00    -3800.00
01602               6.00    -3800.00
01603              10.00    -3800.00
01604              10.00    -3800.00
01605              14.00    -3800.00
01606              14.00    -3800.00
01607              16.00    -3600.00
01608              14.00    -3800.00
01609               8.00    -3800.00
01610               8.00    -3800.00
01611              16.00    -3800.00
01612              18.00    -3800.00
01613              16.00    -3800.00
01614              14.00    -3800.00
01615              10.00    -3800.00
01616               8.00    -3800.00
01617              16.00    -3800.00
01618              22.00    -3800.00
01619              18.00    -3800.00
01620              14.00    -3800.00
01621              14.00    -3800.00
01622              16.00    -3800.00
01623              16.00    -3600.00
01624              20.00    -3600.00
01625              22.00    -3800.00
01626              20.00    -3600.00
01627              14.00    -3600.00
01628              14.00    -3800.00
01629              18.00    -3400.00
01630              16.00    -3600.00
01631              16.00    -3400.00
01632              22.00    -3400.00
01633              18.00    -3600.00
01634              16.00    -3400.00
01635              16.00    -3400.00
01636              16.00    -3400.00
01637              16.00    -3400.00
01638              18.00    -3400.00
01639              20.00    -3400.00
01640              16.00    -3400.00
01641              14.00    -3200.00
01642              16.00    -3200.00
01643              16.00    -3200.00
01644              14.00    -3200.00
01645              16.00    -3200.00
01646              22.00    -3200.00
01647              20.00    -3200.00
01648              14.00    -3000.00
01649               8.00    -3000.00
01650              14.00    -3000.00
01651              16.00    -3000.00
01652              18.00    -3000.00
01653              16.00    -2800.00
01654              12.00    -2800.00
01655               8.00    -2800.00
01656              12.00    -2800.00
01657              16.00    -2600.00
01658              18.00    -2600.00
01659              14.00    -2800.00
01660              10.00    -2600.00
01661               8.00    -2600.00
01662              10.00    -2400.00
01663              14.00    -2600.00
01664              10.00    -2400.00
01665              10.00    -2400.00
01666               8.00    -2400.00
01667               8.00    -2200.00
01668              14.00    -2200.00
01669              10.00    -2200.00
01670               6.00    -2200.00
01671               8.00    -1800.00
01672              10.00    -2000.00
01673              10.00    -1800.00
01674               8.00    -1800.00
01675               6.00    -1800.00
01676               6.00    -1600.00
01677               6.00    -1600.00
01678               6.00    -1600.00
01679              10.00    -1400.00
01680               6.00    -1400.00
01681               2.00    -1400.00
01682               2.00    -1400.00
01683               4.00    -1200.00
01684               2.00    -1200.00
01685               4.00    -1400.00
01686               6.00    -1400.00
01687               6.00    -1000.00
01688               2.00    -1000.00
01689               2.00    -1000.00
01690               2.00     -800.00
01691               0.00    -1000.00
01692               0.00     -800.00
01693               6.00     -800.00
01694               6.00     -600.00
01695               0.00     -600.00
01696              -6.00     -600.00
01697              -2.00     -600.00
01698               2.00     -600.00
01699               0.00     -400.00
01700               0.00     -200.00
01701               0.00     -400.00
01702              -2.00        0.00
01703              -4.00        0.00
01704              -2.00        0.00
01705               0.00        0.00
01706               0.00        0.00
01707               0.00      200.00
01708               0.00      200.00
01709               0.00      400.00
01710               6.00      400.00
01711               8.00      400.00
01712              -2.00      600.00
01713              -8.00      600.00
01714             -10.00      600.00
01715               0.00      800.00
01716              66.00      800.00
01717             194.00     1000.00
01718              18.00     1200.00
01719            -254.00      800.00
01720            -254.00     1200.00
01721             246.00     1400.00
01722             246.00     1400.00
01723            -254.00      800.00
01724            -254.00     1200.00
01725              38.00     1400.00
01726             246.00     1800.00
01727              22.00     1400.00
01728            -254.00     1000.00
01729              34.00     2000.00
01730             246.00     1800.00
01731            -206.00     1600.00
01732            -254.00     1600.00
01733             246.00     2000.00
01734             244.00     2200.00
01735            -254.00     1600.00
01736             -66.00     2200.00
01737             246.00     2200.00
01738            -126.00     2000.00
01739            -208.00     2200.00
01740             246.00     2400.00
01741              74.00     2200.00
01742            -254.00     2200.00
01743               6.00     2600.00
01744             246.00     2600.00
01745             -58.00     2400.00
01746            -170.00     2600.00
01747              40.00     2600.00
01748              54.00     2600.00
01749             -16.00     2600.00
01750             -22.00     2800.00
01751             -10.00     2800.00
01752              10.00     3000.00
01753             -14.00     3000.00
01754             -56.00     3000.00
01755              30.00     3000.00
01756              26.00     3000.00
01757             -60.00     3000.00
01758               2.00     3000.00
01759              38.00     3200.00
01760             -80.00     3200.00
01761             -22.00     3200.00
01762              72.00     3400.00
01763             -26.00     3200.00
01764             -64.00     3200.00
01765              16.00     3400.00
01766              -6.00     3400.00
01767             -24.00     3400.00
01768               2.00     3600.00
01769             -24.00     3400.00
01770             -10.00     3400.00
01771               6.00     3600.00
01772             -32.00     3800.00
01773             -12.00     3800.00
01774              10.00     3800.00
01775             -40.00     3800.00
01776             -16.00     3800.00
01777              22.00     4000.00
01778             -32.00     3800.00
01779             -32.00     3800.00
01780              14.00     3800.00
01781             -24.00     3800.00
01782             -28.00     3800.00
01783               6.00     3800.00
01784             -10.00     3800.00
01785             -24.00     3800.00
01786             -16.00     4000.00
01787             -18.00     3800.00
01788             -10.00     4000.00
01789              -8.00     4000.00
01790             -24.00     4000.00
01791             -10.00     4000.00
01792              -8.00     4000.00
01793             -30.00     4200.00
01794             -18.00     4000.00
01795              -4.00     4200.00
01796             -24.00     4000.00
01797             -16.00     4000.00
01798              -8.00     4200.00
01799             -22.00     4200.00
01800             -26.00     4000.00
01801             -12.00     4200.00
01802             -16.00     4200.00
01803             -14.00     4200.00
01804             -14.00     4000.00
01805             -20.00     4200.00
01806             -20.00     4000.00
01807             -24.00     4200.00
01808             -22.00     4000.00
01809              -8.00     4000.00
01810             -16.00     4200.00
01811             -26.00     4000.00
01812             -22.00     4200.00
01813             -22.00     4000.00
01814             -26.00     4000.00
01815             -16.00     4000.00
01816             -14.00     4000.00
01817             -24.00     4000.00
01818             -26.00     4000.00
01819             -22.00     4000.00
01820             -26.00     4000.00
01821             -24.00     4000.00
01822             -18.00     4000.00
01823             -22.00     4000.00
01824             -22.00     4000.00
01825             -24.00     3800.00
01826             -26.00     3800.00
01827             -24.00     3800.00
01828             -26.00     3800.00
01829             -24.00     3800.00
01830             -16.00     3600.00
01831             -24.00     3600.00
01832             -30.00     3800.00
01833             -22.00     3800.00
01834             -22.00     3800.00
01835             -26.00     3800.00
01836             -22.00     3400.00
01837             -16.00     3400.00
01838             -22.00     3400.00
01839             -26.00     3400.00
01840             -26.00     3400.00
01841             -22.00     3400.00
01842             -18.00     3400.00
01843             -18.00     3200.00
01844             -22.00     3200.00
01845             -18.00     3200.00
01846             -24.00     3200.00
01847             -24.00     3200.00
01848             -18.00     3000.00
01849             -16.00     3200.00
01850             -18.00     3000.00
01851             -16.00     3000.00
01852             -18.00     3000.00
01853             -18.00     2800.00
01854             -10.00     2800.00
01855             -22.00     2600.00
01856             -16.00     2600.00
01857             -18.00     2800.00
01858             -22.00     2600.00
01859             -32.00     2400.00
01860             -26.00     2400.00
01861              -8.00     2400.00
01862              18.00     2400.00
01863               4.00     2400.00
01864             -16.00     2400.00
01865             -26.00     2400.00
01866             -22.00     2200.00
01867             -26.00     2200.00
01868             -14.00     2200.00
01869              -4.00     2000.00
01870              -2.00     2000.00
01871             -14.00     1800.00
01872             -14.00     2000.00
01873              -2.00     1600.00
01874               0.00     1800.00
01875              -2.00     1800.00
01876             -14.00     1600.00
01877             -18.00     1400.00
01878             -18.00     1400.00
01879             -10.00     1400.00
01880               0.00     1400.00
01881              -8.00     1400.00
01882             -16.00     1400.00
01883              -8.00     1200.00
01884               8.00     1200.00
01885               8.00     1000.00
01886             -10.00     1200.00
01887             -22.00     1000.00
01888             -16.00      800.00
01889             -14.00      800.00
01890              -6.00      800.00
01891              -2.00      600.00
01892               0.00      600.00
01893              -6.00      600.00
01894              -8.00      400.00
01895              -2.00      200.00
01896               2.00      400.00
01897              -6.00      200.00
01898             -16.00      200.00
01899             -10.00        0.00
01900              -2.00        0.00
01901               8.00        0.00
01902              10.00        0.00
01903               2.00     -200.00
01904              -8.00     -200.00
01905             -10.00     -200.00
01906              -2.00     -200.00
01907              10.00     -200.00
01908              86.00     -400.00
01909             162.00     -600.00
01910             -64.00     -800.00
01911            -254.00     -600.00
01912            -222.00     -400.00
01913             246.00     -800.00
01914             246.00     -800.00
01915            -254.00    -1200.00
01916            -254.00     -800.00
01917             142.00    -1000.00
01918             246.00    -1000.00
01919             -22.00    -1200.00
01920            -254.00    -1000.00
01921             -10.00    -1400.00
01922             246.00    -1400.00
01923             -10.00    -1200.00
01924            -254.00    -1600.00
01925              54.00    -1600.00
01926              40.00    -1400.00
01927             -16.00    -1400.00
01928              90.00    -1800.00
01929              14.00    -1800.00
01930            -224.00    -1600.00
01931              70.00    -1800.00
01932             246.00    -1800.00
01933             -90.00    -1800.00
01934            -254.00    -2000.00
01935              90.00    -2200.00
01936             210.00    -2200.00
01937             -58.00    -2200.00
01938            -120.00    -2200.00
01939               8.00    -2200.00
01940              62.00    -2400.00
01941              22.00    -2400.00
01942              10.00    -2400.00
01943             -30.00    -2400.00
01944              -8.00    -2600.00
01945              22.00    -2600.00
01946              14.00    -2400.00
01947             -14.00    -2600.00
01948              -2.00    -2600.00
01949              30.00    -2600.00
01950              16.00    -3000.00
01951             -18.00    -2800.00
01952             -26.00    -2800.00
01953              34.00    -3000.00
01954              40.00    -3000.00
01955             -10.00    -3000.00
01956             -30.00    -3000.00
01957              14.00    -3200.00
01958              30.00    -3200.00
01959               8.00    -3000.00
01960             -10.00    -3000.00
01961               0.00    -3200.00
01962              16.00    -3200.00
01963              16.00    -3400.00
01964               0.00    -3200.00
01965              -8.00    -3400.00
01966               2.00    -3400.00
01967              16.00    -3400.00
01968              14.00    -3400.00
01969               2.00    -3400.00
01970              -2.00    -3400.00
01971               8.00    -3400.00
01972              16.00    -3400.00
01973               8.00    -3400.00
01974               0.00    -3800.00
01975               8.00    -3800.00
01976              18.00    -3800.00
01977               6.00    -3800.00
01978               0.00    -3600.00
01979               8.00    -3600.00
01980              10.00    -3600.00
01981              10.00    -3800.00
01982              14.00    -3800.00
01983               8.00    -3800.00
01984               8.00    -3800.00
01985               8.00    -3800.00
01986              10.00    -3800.00
01987              16.00    -3600.00
01988              10.00    -3800.00
01989              12.00    -3800.00
01990              14.00    -3800.00
01991               8.00    -3800.00
01992               6.00    -4000.00
01993              14.00    -3800.00
01994              22.00    -3800.00
01995              16.00    -3800.00
01996              14.00    -3800.00
01997              14.00    -3800.00
01998              10.00    -3800.00
01999              16.00    -3800.00
02000              22.00    -3800.00
02001              22.00    -3800.00
02002              14.00    -3600.00
02003              16.00    -3600.00
02004              16.00    -3800.00
02005              16.00    -3600.00
02006              16.00    -3800.00
02007              16.00    -3600.00
02008              22.00    -3800.00
02009              18.00    -3600.00
02010              16.00    -3600.00
02011              16.00    -3600.00
02012              16.00    -3600.00
02013              18.00    -3600.00
02014              22.00    -3400.00
02015              24.00    -3400.00
02016              16.00    -3400.00
02017              16.00    -3400.00
02018              16.00    -3400.00
02019              16.00    -3400.00
02020              18.00    -3400.00
02021              18.00    -3400.00
02022              16.00    -3400.00
02023              16.00    -3400.00
02024              16.00    -3200.00
02025              16.00    -3200.00
02026              14.00    -3200.00
02027              14.00    -3200.00
02028              18.00    -3200.00
02029              22.00    -3000.00
02030              16.00    -3200.00
02031               8.00    -3000.00
02032              10.00    -3000.00
02033              16.00    -3000.00
02034              16.00    -3000.00
02035              16.00    -3000.00
02036              16.00    -3000.00
02037              10.00    -2800.00
02038               8.00    -2600.00
02039              10.00    -2800.00
02040              14.00    -2600.00
02041              14.00    -2600.00
02042              12.00    -2600.00
02043              10.00    -2400.00
02044               6.00    -2600.00
02045               8.00    -2400.00
02046              14.00    -2400.00
02047              12.00    -2400.00
02048              10.00    -2400.00
02049               8.00    -2200.00
02050               8.00    -2200.00
02051               8.00    -2200.00
02052               8.00    -2200.00
02053               8.00    -1800.00
02054               6.00    -2200.00
02055              10.00    -2000.00
02056               6.00    -1800.00
02057               6.00    -1800.00
02058               4.00    -1800.00
02059               4.00    -1600.00
02060               6.00    -1600.00
02061               8.00    -1600.00
02062               8.00    -1400.00
02063               6.00    -1400.00
02064               2.00    -1400.00
02065               2.00    -1200.00
02066               4.00    -1400.00
02067               4.00    -1200.00
02068               6.00    -1000.00
02069               6.00    -1000.00
02070               2.00    -1000.00
02071               0.00     -800.00
02072               0.00     -800.00
02073               2.00     -800.00
02074               4.00     -800.00
02075               2.00     -600.00
02076               2.00     -600.00
02077               0.00     -600.00
02078              -2.00     -600.00
02079               0.00     -600.00
02080               0.00     -400.00
02081               2.00     -400.00
02082               0.00     -200.00
02083               2.00     -200.00
02084               0.00     -200.00
02085              -2.00     -200.00
02086              -2.00        0.00
02087               0.00      200.00
02088               0.00        0.00
02089              -2.00      200.00
02090              -2.00      200.00
02091               0.00      200.00
02092               4.00      200.00
02093               8.00      400.00
02094               4.00      600.00
02095              -8.00      600.00
02096              -8.00      800.00
02097              -2.00      600.00
02098              22.00      800.00
02099             138.00      800.00
02100             166.00     1200.00
02101            -254.00      800.00
02102            -254.00      600.00
02103              98.00     1200.00
02104             246.00     1400.00
02105             246.00     1400.00
02106            -254.00      800.00
02107            -254.00     1400.00
02108             246.00     1400.00
02109             246.00     1800.00
02110            -254.00     1200.00
02111            -254.00     1400.00
02112             246.00     1800.00
02113             246.00     1800.00
02114            -254.00     1400.00
02115             -56.00     1800.00
02116             246.00     2200.00
02117            -122.00     1600.00
02118            -254.00     1800.00
02119             214.00     2400.00
02120             132.00     2200.00
02121            -254.00     2000.00
02122              48.00     2200.00
02123             246.00     2200.00
02124            -188.00     2200.00
02125            -220.00     2400.00
02126             222.00     2600.00
02127             120.00     2400.00
02128            -178.00     2600.00
02129             -64.00     2600.00
02130              80.00     2600.00
02131               8.00     2600.00
02132             -24.00     2800.00
02133             -14.00     2600.00
02134               0.00     3000.00
02135               6.00     3000.00
02136             -50.00     3000.00
02137             -18.00     3000.00
02138              54.00     3000.00
02139             -30.00     3200.00
02140             -48.00     3000.00
02141              48.00     3200.00
02142             -24.00     3200.00
02143             -74.00     3200.00
02144              48.00     3400.00
02145              36.00     3400.00
02146             -72.00     3400.00
02147             -18.00     3400.00
02148              16.00     3400.00
02149             -24.00     3400.00
02150              -6.00     3400.00
02151             -10.00     3600.00
02152             -26.00     3800.00
02153               6.00     3800.00
02154             -16.00     3800.00
02155             -32.00     3600.00
02156              12.00     3800.00
02157             -16.00     3800.00
02158             -40.00     3800.00
02159              16.00     3800.00
02160              -2.00     3800.00
02161             -48.00     3800.00
02162               0.00     4000.00
02163               0.00     3800.00
02164             -38.00     4000.00
02165             -10.00     3800.00
02166               0.00     4000.00
02167             -22.00     4000.00
02168             -16.00     4000.00
02169             -18.00     4000.00
02170             -16.00     4000.00
02171              -6.00     4000.00
02172             -18.00     4000.00
02173             -18.00     4000.00
02174              -2.00     4200.00
02175             -24.00     4000.00
02176             -32.00     4200.00
02177              -8.00     4200.00
02178             -14.00     4000.00
02179             -24.00     4000.00
02180              -6.00     4200.00
02181             -16.00     4000.00
02182             -32.00     4200.00
02183             -18.00     4200.00
02184             -10.00     4200.00
02185             -18.00     4000.00
02186             -16.00     4200.00
02187             -22.00     4200.00
02188             -24.00     4000.00
02189             -22.00     4000.00
02190             -24.00     4000.00
02191             -16.00     4200.00
02192             -10.00     4000.00
02193             -24.00     4200.00
02194             -26.00     4200.00
02195             -16.00     4000.00
02196             -26.00     4000.00
02197             -26.00     4200.00
02198             -16.00     4200.00
02199             -20.00     4000.00
02200             -26.00     4000.00
02201             -22.00     4000.00
02202             -24.00     4000.00
02203             -28.00     4000.00
02204             -18.00     4000.00
02205             -18.00     4000.00
02206             -24.00     3800.00
02207             -24.00     3800.00
02208             -24.00     3800.00
02209             -24.00     3800.00
02210             -22.00     3800.00
02211             -26.00     3800.00
02212             -18.00     4000.00
02213             -16.00     3800.00
02214             -26.00     3800.00
02215             -28.00     3800.00
02216             -18.00     3600.00
02217             -24.00     3600.00
02218             -26.00     3600.00
02219             -18.00     3400.00
02220             -22.00     3400.00
02221             -24.00     3400.00
02222             -26.00     3400.00
02223             -24.00     3400.00
02224             -22.00     3400.00
02225             -18.00     3400.00
02226             -20.00     3400.00
02227             -18.00     3400.00
02228             -24.00     3000.00
02229             -24.00     3200.00
02230             -18.00     3200.00
02231             -18.00     3200.00
02232             -18.00     3000.00
02233             -18.00     3000.00
02234             -16.00     3000.00
02235             -18.00     3000.00
02236             -22.00     2800.00
02237             -16.00     3000.00
02238             -16.00     2800.00
02239             -16.00     2600.00
02240             -18.00     2600.00
02241             -16.00     2600.00
02242             -18.00     2600.00
02243             -16.00     2600.00
02244             -16.00     2400.00
02245             -10.00     2400.00
02246             -14.00     2400.00
02247             -16.00     2200.00
02248             -14.00     2200.00
02249             -14.00     2400.00
02250             -16.00     2200.00
02251             -10.00     2000.00
02252              -8.00     2000.00
02253             -10.00     2200.00
02254             -14.00     1800.00
02255             -14.00     1800.00
02256             -10.00     1800.00
02257             -10.00     1800.00
02258              -8.00     1800.00
02259              -4.00     1600.00
02260              -8.00     1400.00
02261             -14.00     1600.00
02262             -10.00     1400.00
02263              -6.00     1400.00
02264              -6.00     1400.00
02265              -8.00     1400.00
02266              -6.00     1400.00
02267              -4.00     1200.00
02268              -8.00     1000.00
02269             -10.00     1000.00
02270              -6.00     1000.00
02271              -4.00      800.00
02272              -6.00      800.00
02273              -6.00      600.00
02274              -2.00      600.00
02275              -4.00      400.00
02276              -6.00      600.00
02277              -8.00      600.00
02278              -2.00      200.00
02279              -2.00      400.00
02280              -4.00      200.00
02281              -2.00      200.00
02282               0.00        0.00
02283               0.00      200.00
02284               4.00     -200.00
02285               4.00     -200.00
02286              -6.00        0.00
02287              -8.00     -200.00
02288              -4.00     -200.00
02289               6.00     -200.00
02290              40.00     -400.00
02291             146.00     -400.00
02292              98.00     -800.00
02293            -254.00     -800.00
02294            -254.00     -400.00
02295             190.00     -600.00
02296             246.00     -600.00
02297             228.00    -1000.00
02298            -254.00    -1000.00
02299            -254.00    -1000.00
02300             246.00    -1000.00
02301             246.00    -1000.00
02302            -254.00    -1000.00
02303            -254.00    -1200.00
02304             246.00    -1400.00
02305             246.00    -1200.00
02306            -222.00    -1400.00
02307            -104.00    -1600.00
02308             102.00    -1600.00
02309             -18.00    -1400.00
02310              26.00    -1600.00
02311             110.00    -1800.00
02312            -160.00    -1600.00
02313            -114.00    -1800.00
02314             234.00    -2000.00
02315             134.00    -2000.00
02316            -254.00    -2000.00
02317             -94.00    -2200.00
02318             222.00    -2200.00
02319              88.00    -2200.00
02320            -142.00    -2200.00
02321             -50.00    -2200.00
02322              50.00    -2200.00
02323              46.00    -2400.00
02324              18.00    -2400.00
02325             -18.00    -2400.00
02326             -22.00    -2600.00
02327               8.00    -2600.00
02328              32.00    -2400.00
02329              -6.00    -2600.00
02330             -10.00    -2600.00
02331              16.00    -2600.00
02332              32.00    -2800.00
02333              -2.00    -2600.00
02334             -32.00    -2600.00
02335               4.00    -2800.00
02336              50.00    -3000.00
02337              18.00    -3000.00
02338             -32.00    -3000.00
02339             -10.00    -3000.00
02340              26.00    -3200.00
02341              22.00    -3000.00
02342              -6.00    -3200.00
02343              -6.00    -3200.00
02344              10.00    -3200.00
02345              22.00    -3200.00
02346              10.00    -3200.00
02347              -2.00    -3200.00
02348               0.00    -3400.00
02349              14.00    -3400.00
02350              16.00    -3400.00
02351               8.00    -3400.00
02352              -2.00    -3400.00
02353               0.00    -3400.00
02354              10.00    -3400.00
02355              14.00    -3600.00
02356               4.00    -3400.00
02357               4.00    -3800.00
02358              18.00    -3400.00
02359              14.00    -3600.00
02360               0.00    -3800.00
02361               2.00    -3800.00
02362              10.00    -3800.00
02363              12.00    -3800.00
02364              12.00    -3800.00
02365              14.00    -3800.00
02366               8.00    -3800.00
02367               6.00    -3800.00
02368               8.00    -3800.00
02369              10.00    -3800.00
02370              14.00    -3800.00
02371              14.00    -3600.00
02372              10.00    -3800.00
02373               8.00    -3800.00
02374               4.00    -3800.00
02375               6.00    -3800.00
02376              18.00    -3800.00
02377              18.00    -3600.00
02378              10.00    -3800.00
02379              10.00    -3800.00
02380              10.00    -3800.00
02381              12.00    -3800.00
02382              16.00    -3800.00
02383              18.00    -3800.00
02384              16.00    -3600.00
02385              10.00    -3800.00
02386              16.00    -3800.00
02387              16.00    -3800.00
02388              16.00    -3800.00
02389              16.00    -3600.00
02390              22.00    -3800.00
02391              20.00    -3600.00
02392              18.00    -3600.00
02393              14.00    -3600.00
02394              16.00    -3600.00
02395              16.00    -3400.00
02396              22.00    -3600.00
02397              22.00    -3400.00
02398              16.00    -3400.00
02399              14.00    -3400.00
02400              18.00    -3400.00
02401              16.00    -3400.00
02402              16.00    -3200.00
02403              22.00    -3400.00
02404              22.00    -3400.00
02405              18.00    -3400.00
02406              14.00    -3400.00
02407              16.00    -3200.00
02408              14.00    -3200.00
02409              18.00    -3000.00
02410              16.00    -3200.00
02411              16.00    -3200.00
02412              18.00    -3200.00
02413              14.00    -3000.00
02414              10.00    -3000.00
02415              12.00    -3000.00
02416              16.00    -3000.00
02417              16.00    -3000.00
02418              14.00    -2600.00
02419              14.00    -2800.00
02420              10.00    -2600.00
02421              14.00    -2800.00
02422              10.00    -2600.00
02423              14.00    -2600.00
02424              14.00    -2600.00
02425              14.00    -2600.00
02426               8.00    -2600.00
02427               6.00    -2600.00
02428               8.00    -2400.00
02429              14.00    -2400.00
02430              14.00    -2400.00
02431               8.00    -2200.00
02432               8.00    -2200.00
02433               8.00    -2200.00
02434               8.00    -2200.00
02435               6.00    -2000.00
02436               8.00    -2000.00
02437              10.00    -1800.00
02438              10.00    -1800.00
02439               6.00    -1800.00
02440               6.00    -1600.00
02441               6.00    -1800.00
02442               6.00    -1600.00
02443               6.00    -1600.00
02444               6.00    -1400.00
02445               6.00    -1400.00
02446               6.00    -1400.00
02447               0.00    -1400.00
02448               2.00    -1400.00
02449               4.00    -1000.00
02450               6.00    -1400.00
02451               8.00    -1000.00
02452               2.00    -1000.00
02453               0.00    -1000.00
02454               0.00     -800.00
02455               2.00     -800.00
02456               6.00     -800.00
02457               6.00     -800.00
02458               4.00     -600.00
02459               2.00     -600.00
02460              -2.00     -600.00
02461               0.00     -600.00
02462               6.00     -600.00
02463               0.00     -400.00
02464               2.00     -200.00
02465               0.00     -200.00
02466               2.00     -200.00
02467               0.00     -200.00
02468              -4.00        0.00
02469              -2.00        0.00
02470               2.00      200.00
02471               0.00      200.00
02472               4.00      200.00
02473               2.00      200.00
02474               2.00      200.00
02475               6.00      400.00
02476               8.00      600.00
02477               0.00      400.00
02478              -6.00      600.00
02479              -6.00      600.00
02480               4.00      800.00
02481              68.00      800.00
02482             194.00     1000.00
02483               2.00     1200.00
02484            -254.00      800.00
02485            -254.00     1000.00
02486             246.00     1200.00
02487             246.00     1600.00
02488            -254.00     1000.00
02489            -254.00     1000.00
02490              94.00     1600.00
02491             246.00     1800.00
02492             -36.00     1400.00
02493            -254.00     1200.00
02494              78.00     1800.00
02495             246.00     1800.00
02496            -242.00     1400.00
02497            -254.00     1600.00
02498             246.00     2000.00
02499             218.00     2000.00
02500            -254.00     1600.00
02501             -42.00     2200.00
02502             246.00     2200.00
02503            -146.00     2000.00
02504            -192.00     2200.00
02505             246.00     2400.00
02506              48.00     2200.00
02507            -254.00     2200.00
02508              26.00     2400.00
02509             246.00     2600.00
02510             -74.00     2400.00
02511            -168.00     2600.00
02512              48.00     2800.00
02513              54.00     2600.00
02514             -22.00     2600.00
02515             -24.00     3000.00
02516             -14.00     2800.00
02517              10.00     3000.00
02518             -14.00     3000.00
02519             -54.00     3000.00
02520              32.00     3000.00
02521              22.00     3200.00
02522             -62.00     3000.00
02523               8.00     3200.00
02524              34.00     3400.00
02525             -80.00     3200.00
02526             -16.00     3200.00
02527              70.00     3400.00
02528             -32.00     3400.00
02529             -62.00     3400.00
02530              18.00     3800.00
02531              -8.00     3400.00
02532             -20.00     3600.00
02533               2.00     3600.00
02534             -24.00     3400.00
02535              -8.00     3600.00
02536               2.00     3800.00
02537             -32.00     3600.00
02538              -6.00     3600.00
02539              10.00     3800.00
02540             -42.00     3800.00
02541             -14.00     3800.00
02542              18.00     4000.00
02543             -34.00     3800.00
02544             -26.00     4000.00
02545              10.00     4000.00
02546             -24.00     3800.00
02547             -28.00     4000.00
02548               6.00     4000.00
02549             -10.00     4000.00
02550             -26.00     3800.00
02551             -16.00     4000.00
02552             -22.00     4000.00
02553              -8.00     4000.00
02554              -8.00     4000.00
02555             -24.00     4000.00
02556             -10.00     4200.00
02557             -10.00     4000.00
02558             -32.00     4000.00
02559             -16.00     4200.00
02560              -6.00     4200.00
02561             -26.00     4000.00
02562             -16.00     4000.00
02563              -6.00     4200.00
02564             -26.00     4200.00
02565             -26.00     4000.00
02566             -10.00     4200.00
02567             -16.00     4200.00
02568             -16.00     4000.00
02569             -18.00     4200.00
02570             -22.00     4200.00
02571             -18.00     4000.00
02572             -22.00     4200.00
02573             -24.00     4200.00
02574             -12.00     4000.00
02575             -16.00     4200.00
02576             -26.00     4000.00
02577             -22.00     4000.00
02578             -24.00     4000.00
02579             -32.00     4000.00
02580             -18.00     4000.00
02581             -14.00     4200.00
02582             -24.00     4000.00
02583             -24.00     4000.00
02584             -22.00     4000.00
02585             -26.00     4000.00
02586             -24.00     3800.00
02587             -20.00     4000.00
02588             -22.00     4000.00
02589             -24.00     3800.00
02590             -24.00     4000.00
02591             -26.00     3800.00
02592             -22.00     3800.00
02593             -26.00     3800.00
02594             -24.00     3800.00
02595             -16.00     3800.00
02596             -22.00     3800.00
02597             -26.00     3800.00
02598             -24.00     3800.00
02599             -18.00     3800.00
02600             -24.00     3600.00
02601             -22.00     3600.00
02602             -18.00     3400.00
02603             -24.00     3400.00
02604             -26.00     3400.00
02605             -22.00     3400.00
02606             -22.00     3200.00
02607             -20.00     3400.00
02608             -18.00     3400.00
02609             -14.00     3200.00
02610             -22.00     3200.00
02611             -26.00     3200.00
02612             -24.00     3200.00
02613             -16.00     3200.00
02614             -16.00     3000.00
02615             -16.00     3000.00
02616             -16.00     3000.00
02617             -18.00     3000.00
02618             -24.00     3000.00
02619             -16.00     3000.00
02620             -12.00     2800.00
02621             -16.00     2800.00
02622             -22.00     2800.00
02623             -16.00     2600.00
02624             -16.00     2600.00
02625             -14.00     2600.00
02626             -16.00     2400.00
02627             -14.00     2600.00
02628             -12.00     2400.00
02629             -14.00     2200.00
02630             -16.00     2200.00
02631             -14.00     2200.00
02632             -18.00     2400.00
02633             -14.00     2200.00
02634              -6.00     2200.00
02635              -8.00     2000.00
02636             -16.00     1800.00
02637             -16.00     1800.00
02638             -10.00     1800.00
02639             -10.00     1800.00
02640             -10.00     1600.00
02641              -8.00     1600.00
02642              -6.00     1600.00
02643             -10.00     1600.00
02644             -14.00     1600.00
02645             -10.00     1400.00
02646              -6.00     1400.00
02647             -10.00     1400.00
02648              -8.00     1200.00
02649              -2.00     1000.00
02650              -4.00     1200.00
02651             -14.00     1000.00
02652              -8.00     1000.00
02653              -2.00      800.00
02654              -2.00      800.00
02655              -6.00      800.00
02656              -6.00      800.00
02657              -2.00      600.00
02658              -2.00      600.00
02659              -6.00      600.00
02660              -8.00      600.00
02661              -2.00      200.00
02662              -2.00      200.00
02663              -2.00      200.00
02664               0.00      200.00
02665               0.00        0.00
02666               2.00        0.00
02667               8.00        0.00
02668               2.00        0.00
02669              -8.00     -200.00
02670              -6.00     -200.00
02671               0.00     -200.00
02672              16.00     -200.00
02673              96.00     -400.00
02674             162.00     -600.00
02675             -90.00    -1000.00
02676            -254.00     -800.00
02677            -192.00     -400.00
02678             246.00     -600.00
02679             246.00     -800.00
02680            -254.00    -1000.00
02681            -254.00     -800.00
02682             190.00    -1000.00
02683             246.00     -800.00
02684             -66.00    -1000.00
02685            -254.00    -1200.00
02686              24.00    -1400.00
02687             246.00    -1400.00
02688             -32.00    -1000.00
02689            -246.00    -1600.00
02690              66.00    -1600.00
02691              32.00    -1600.00
02692             -10.00    -1400.00
02693              94.00    -1800.00
02694              -6.00    -1600.00
02695            -224.00    -1600.00
02696              86.00    -1800.00
02697             246.00    -1800.00
02698            -114.00    -1800.00
02699            -250.00    -2000.00
02700             108.00    -2200.00
02701             208.00    -1800.00
02702             -70.00    -2200.00
02703            -112.00    -2400.00
02704              14.00    -2200.00
02705              56.00    -2400.00
02706              22.00    -2400.00
02707               6.00    -2400.00
02708             -28.00    -2400.00
02709              -6.00    -2600.00
02710              22.00    -2600.00
02711              12.00    -2400.00
02712             -10.00    -2600.00
02713               0.00    -2600.00
02714              30.00    -2600.00
02715              14.00    -3000.00
02716             -18.00    -2800.00
02717             -24.00    -2800.00
02718              36.00    -3000.00
02719              40.00    -3000.00
02720             -14.00    -3000.00
02721             -30.00    -3000.00
02722              14.00    -3200.00
02723              28.00    -3200.00
02724               8.00    -3000.00
02725              -8.00    -3200.00
02726               2.00    -3200.00
02727              16.00    -3400.00
02728              16.00    -3200.00
02729               2.00    -3400.00
02730              -4.00    -3400.00
02731               8.00    -3400.00
02732              16.00    -3200.00
02733              14.00    -3400.00
02734               4.00    -3400.00
02735               0.00    -3400.00
02736               8.00    -3400.00
02737              14.00    -3600.00
02738               8.00    -3400.00
02739               0.00    -3600.00
02740               8.00    -3800.00
02741              22.00    -3800.00
02742               6.00    -3600.00
02743              -2.00    -3800.00
02744               8.00    -3600.00
02745              16.00    -3600.00
02746              12.00    -3800.00
02747              10.00    -3800.00
02748               6.00    -3600.00
02749               6.00    -3600.00
02750              10.00    -3800.00
02751               8.00    -3800.00
02752              10.00    -3800.00
02753              10.00    -3800.00
02754              14.00    -3800.00
02755              10.00    -3800.00
02756               8.00    -3800.00
02757               4.00    -3800.00
02758              10.00    -3800.00
02759              16.00    -3800.00
02760              14.00    -3800.00
02761              10.00    -3800.00
02762              14.00    -3800.00
02763               8.00    -3800.00
02764               8.00    -3800.00
02765              16.00    -3800.00
02766              22.00    -3800.00
02767              16.00    -3800.00
02768              10.00    -3800.00
02769              10.00    -3800.00
02770              16.00    -3600.00
02771              18.00    -3400.00
02772              18.00    -3800.00
02773              16.00    -3800.00
02774              16.00    -3800.00
02775              16.00    -3600.00
02776              18.00    -3400.00
02777              16.00    -3600.00
02778              14.00    -3600.00
02779              20.00    -3400.00
02780              22.00    -3400.00
02781              18.00    -3600.00
02782              18.00    -3400.00
02783              18.00    -3400.00
02784              14.00    -3400.00
02785              16.00    -3400.00
02786              22.00    -3200.00
02787              22.00    -3400.00
02788              18.00    -3400.00
02789              14.00    -3200.00
02790              14.00    -3200.00
02791              18.00    -3200.00
02792              18.00    -3200.00
02793              16.00    -3000.00
02794              16.00    -3200.00
02795              18.00    -3200.00
02796              14.00    -3000.00
02797              14.00    -3000.00
02798              14.00    -3000.00
02799              16.00    -2800.00
02800              18.00    -2800.00
02801              18.00    -2800.00
02802              10.00    -3000.00
02803               6.00    -2800.00
02804              14.00    -2600.00
02805              16.00    -2600.00
02806              16.00    -2600.00
02807               8.00    -2600.00
02808               6.00    -2600.00
02809              10.00    -2400.00
02810              14.00    -2400.00
02811              14.00    -2600.00
02812              10.00    -2400.00
02813               8.00    -2200.00
02814               6.00    -2200.00
02815               8.00    -2200.00
02816              10.00    -2200.00
02817               8.00    -1800.00
02818               6.00    -2000.00
02819               8.00    -1800.00
02820               8.00    -2000.00
02821              10.00    -1800.00
02822               8.00    -1800.00
02823               2.00    -1800.00
02824               0.00    -1600.00
02825               0.00    -1400.00
02826               8.00    -1600.00
02827               6.00    -1600.00
02828               0.00    -1400.00
02829               0.00    -1400.00
02830               2.00    -1400.00
02831              12.00    -1200.00
02832              16.00    -1200.00
02833              16.00    -1200.00
02834               8.00    -1000.00
02835              -8.00    -1200.00
02836             -14.00    -1000.00
02837             -10.00    -1000.00
02838              -2.00     -800.00
02839               2.00     -800.00
02840               8.00     -600.00
02841              14.00     -600.00
02842              10.00     -600.00
02843               6.00     -400.00
02844               0.00     -600.00
02845              -2.00     -400.00
02846              -8.00     -200.00
02847             -10.00     -400.00
02848               0.00     -200.00
02849               6.00     -200.00
02850               2.00        0.00
02851              -2.00        0.00
02852               0.00        0.00
02853               8.00      200.00
02854               8.00      200.00
02855               2.00      200.00
02856              -2.00      400.00
02857              -6.00      400.00
02858               2.00      400.00
02859               2.00      600.00
02860              -2.00      600.00
02861              -4.00      600.00
02862               6.00      600.00
02863              30.00      800.00
02864             154.00     1000.00
02865             166.00     1200.00
02866            -254.00      800.00
02867            -254.00      800.00
02868             130.00     1200.00
02869             246.00     1400.00
02870             246.00     1400.00
02871            -254.00      800.00
02872            -254.00     1400.00
02873             246.00     1600.00
02874             246.00     1800.00
02875            -254.00     1000.00
02876            -254.00     1400.00
02877             246.00     1800.00
02878             210.00     1800.00
02879            -254.00     1400.00
02880             -16.00     1800.00
02881             246.00     2200.00
02882            -146.00     1800.00
02883            -254.00     1800.00
02884             230.00     2200.00
02885             104.00     2200.00
02886            -254.00     2200.00
02887              66.00     2400.00
02888             246.00     2400.00
02889            -210.00     2200.00
02890            -208.00     2400.00
02891             234.00     2600.00
02892             106.00     2400.00
02893            -186.00     2400.00
02894             -56.00     2600.00
02895              74.00     2600.00
02896               2.00     2600.00
02897             -26.00     2600.00
02898             -16.00     2800.00
02899               0.00     2800.00
02900               2.00     3000.00
02901             -50.00     2800.00
02902             -16.00     3000.00
02903              54.00     3200.00
02904             -32.00     3000.00
02905             -44.00     3000.00
02906              46.00     3200.00
02907             -32.00     3200.00
02908             -74.00     3200.00
02909              56.00     3400.00
02910              32.00     3400.00
02911             -74.00     3200.00
02912             -10.00     3400.00
02913              18.00     3400.00
02914             -24.00     3400.00
02915              -6.00     3400.00
02916              -8.00     3800.00
02917             -28.00     3400.00
02918               6.00     3600.00
02919             -14.00     3800.00
02920             -26.00     3600.00
02921              16.00     3800.00
02922             -18.00     3800.00
02923             -40.00     3800.00
02924              18.00     3800.00
02925              -6.00     3800.00
02926             -46.00     3800.00
02927               0.00     4000.00
02928               0.00     3800.00
02929             -32.00     4000.00
02930              -8.00     4000.00
02931               2.00     4000.00
02932             -24.00     4000.00
02933             -20.00     4000.00
02934             -18.00     4000.00
02935             -18.00     4000.00
02936              -8.00     4000.00
02937             -18.00     4200.00
02938             -18.00     4000.00
02939              -2.00     4000.00
02940             -24.00     4200.00
02941             -30.00     4000.00
02942              -2.00     4200.00
02943             -16.00     4000.00
02944             -26.00     4000.00
02945              -6.00     4200.00
02946             -18.00     4000.00
02947             -32.00     4000.00
02948             -18.00     4200.00
02949             -14.00     4200.00
02950             -16.00     4000.00
02951             -18.00     4000.00
02952             -20.00     4000.00
02953             -24.00     4000.00
02954             -22.00     4200.00
02955             -26.00     4000.00
02956             -22.00     4200.00
02957             -12.00     4200.00
02958             -24.00     4000.00
02959             -24.00     4000.00
02960             -18.00     4200.00
02961             -26.00     4200.00
02962             -26.00     4000.00
02963             -14.00     4200.00
02964             -20.00     4000.00
02965             -28.00     4000.00
02966             -22.00     4000.00
02967             -24.00     3800.00
02968             -28.00     4000.00
02969             -22.00     4000.00
02970             -18.00     3800.00
02971             -22.00     4000.00
02972             -24.00     4000.00
02973             -26.00     3800.00
02974             -22.00     3800.00
02975             -22.00     4000.00
02976             -24.00     3800.00
02977             -22.00     3800.00
02978             -16.00     3800.00
02979             -24.00     3800.00
02980             -26.00     3800.00
02981             -22.00     3600.00
02982             -24.00     3800.00
02983             -22.00     3400.00
02984             -16.00     3600.00
02985             -18.00     3400.00
02986             -24.00     3600.00
02987             -22.00     3400.00
02988             -20.00     3400.00
02989             -22.00     3400.00
02990             -18.00     3400.00
02991             -16.00     3200.00
02992             -16.00     3200.00
02993             -22.00     3400.00
02994             -22.00     3200.00
02995             -18.00     3200.00
02996             -16.00     3000.00
02997             -18.00     3000.00
02998             -16.00     3000.00
02999             -16.00     3000.00
03000             -18.00     3000.00
03001             -18.00     2800.00
03002             -16.00     3000.00
03003             -16.00     2800.00
03004             -16.00     2600.00
03005             -16.00     2600.00
03006             -16.00     2600.00
03007             -18.00     2400.00
03008             -16.00     2400.00
03009             -10.00     2400.00
03010              -8.00     2400.00
03011             -16.00     2400.00
03012             -18.00     2400.00
03013             -14.00     2200.00
03014             -14.00     2200.00
03015             -14.00     2200.00
03016             -14.00     2200.00
03017              -8.00     2200.00
03018             -10.00     2000.00
03019             -14.00     1800.00
03020             -10.00     1800.00
03021             -12.00     1800.00
03022             -14.00     1600.00
03023              -8.00     1600.00
03024              -6.00     1600.00
03025             -10.00     1600.00
03026             -14.00     1400.00
03027             -12.00     1400.00
03028              -6.00     1400.00
03029              -6.00     1200.00
03030             -10.00     1200.00
03031              -6.00     1400.00
03032              -4.00     1000.00
03033              -8.00     1200.00
03034             -10.00     1000.00
03035              -8.00     1000.00
03036              -6.00      600.00
03037              -6.00      800.00
03038              -6.00      800.00
03039              -6.00      600.00
03040              -2.00      600.00
03041              -8.00      600.00
03042              -8.00      400.00
03043              -8.00      400.00
03044               0.00      200.00
03045               0.00      200.00
03046              -2.00      200.00
03047               0.00        0.00
03048              -2.00        0.00
03049               8.00        0.00
03050               6.00        0.00
03051              -2.00     -200.00
03052             -10.00     -200.00
03053              -4.00     -200.00
03054               6.00     -200.00
03055              46.00     -200.00
03056             152.00     -600.00
03057              88.00     -800.00
03058            -254.00     -800.00
03059            -254.00     -400.00
03060             228.00     -600.00
03061             246.00     -600.00
03062             172.00    -1000.00
03063            -254.00    -1000.00
03064            -254.00     -800.00
03065             246.00    -1000.00
03066             246.00    -1000.00
03067            -254.00    -1000.00
03068            -254.00    -1200.00
03069             246.00    -1400.00
03070             226.00    -1200.00
03071            -232.00    -1400.00
03072             -90.00    -1400.00
03073              98.00    -1600.00
03074             -20.00    -1600.00
03075              32.00    -1600.00
03076             102.00    -1800.00
03077            -176.00    -1800.00
03078             -98.00    -1600.00
03079             246.00    -2000.00
03080             112.00    -2000.00
03081            -254.00    -1800.00
03082             -74.00    -2200.00
03083             230.00    -2200.00
03084              72.00    -2200.00
03085            -146.00    -2400.00
03086             -46.00    -2200.00
03087              54.00    -2200.00
03088              38.00    -2400.00
03089              16.00    -2400.00
03090             -20.00    -2400.00
03091             -24.00    -2600.00
03092              10.00    -2400.00
03093              30.00    -2600.00
03094             -10.00    -2600.00
03095              -8.00    -2600.00
03096              14.00    -2600.00
03097              30.00    -2800.00
03098              -6.00    -3000.00
03099             -32.00    -3000.00
03100               2.00    -3000.00
03101              46.00    -3000.00
03102              16.00    -3000.00
03103             -32.00    -3000.00
03104              -6.00    -3000.00
03105              26.00    -3000.00
03106              18.00    -3200.00
03107              -6.00    -3200.00
03108              -6.00    -3200.00
03109              14.00    -3200.00
03110              22.00    -3200.00
03111               8.00    -3400.00
03112              -6.00    -3200.00
03113               0.00    -3400.00
03114              14.00    -3200.00
03115              18.00    -3400.00
03116              10.00    -3400.00
03117               0.00    -3400.00
03118               0.00    -3400.00
03119              14.00    -3400.00
03120              18.00    -3400.00
03121               2.00    -3400.00
03122               2.00    -3400.00
03123              16.00    -3600.00
03124              14.00    -3600.00
03125               2.00    -3600.00
03126               6.00    -3600.00
03127              10.00    -3600.00
03128              10.00    -3800.00
03129              14.00    -3800.00
03130              10.00    -3800.00
03131               8.00    -3800.00
03132               6.00    -3800.00
03133               8.00    -3800.00
03134              10.00    -3800.00
03135              14.00    -3800.00
03136              12.00    -3800.00
03137              14.00    -3800.00
03138              10.00    -3800.00
03139               6.00    -3800.00
03140               8.00    -3800.00
03141              16.00    -3800.00
03142              16.00    -3800.00
03143              10.00    -3800.00
03144              14.00    -3800.00
03145              14.00    -3800.00
03146               8.00    -3800.00
03147              14.00    -3800.00
03148              22.00    -3800.00
03149              18.00    -3800.00
03150              14.00    -3800.00
03151               8.00    -3800.00
03152              14.00    -3600.00
03153              16.00    -3800.00
03154              18.00    -3800.00
03155              18.00    -3800.00
03156              16.00    -3800.00
03157              14.00    -3800.00
03158              18.00    -3800.00
03159              16.00    -3600.00
03160              14.00    -3600.00
03161              22.00    -3600.00
03162              22.00    -3600.00
03163              18.00    -3400.00
03164              14.00    -3600.00
03165              16.00    -3400.00
03166              18.00    -3400.00
03167              16.00    -3400.00
03168              16.00    -3400.00
03169              18.00    -3400.00
03170              22.00    -3400.00
03171              16.00    -3400.00
03172              16.00    -3200.00
03173              18.00    -3200.00
03174              18.00    -3200.00
03175              18.00    -3000.00
03176              18.00    -3200.00
03177              16.00    -3000.00
03178              16.00    -3000.00
03179              14.00    -3000.00
03180              16.00    -3000.00
03181              16.00    -3000.00
03182              18.00    -2800.00
03183              18.00    -2800.00
03184              14.00    -2800.00
03185               8.00    -2600.00
03186              12.00    -2800.00
03187              16.00    -2600.00
03188              16.00    -2600.00
03189              16.00    -2600.00
03190              16.00    -2600.00
03191              14.00    -2400.00
03192               8.00    -2400.00
03193              10.00    -2400.00
03194              12.00    -2400.00
03195              16.00    -2200.00
03196               8.00    -2400.00
03197               8.00    -2400.00
03198               8.00    -2200.00
03199               6.00    -2200.00
03200               6.00    -2200.00
03201               6.00    -2200.00
03202               8.00    -1800.00
03203               8.00    -1800.00
03204               6.00    -1800.00
03205               6.00    -1800.00
03206               2.00    -1600.00
03207               4.00    -1600.00
03208               8.00    -1600.00
03209               8.00    -1600.00
03210               2.00    -1400.00
03211               0.00    -1400.00
03212               2.00    -1400.00
03213               6.00    -1200.00
03214               4.00    -1400.00
03215               2.00    -1200.00
03216               6.00    -1000.00
03217               2.00    -1000.00
03218              -2.00    -1000.00
03219               2.00    -1000.00
03220               0.00    -1000.00
03221               0.00     -600.00
03222               0.00     -600.00
03223               6.00     -600.00
03224               4.00     -600.00
03225               0.00     -600.00
03226              -6.00     -600.00
03227               0.00     -200.00
03228               6.00     -400.00
03229               2.00     -200.00
03230              -2.00     -200.00
03231               0.00     -200.00
03232              -2.00        0.00
03233              -2.00        0.00
03234              -2.00        0.00
03235               0.00        0.00
03236               0.00      200.00
03237               4.00      200.00
03238               2.00      200.00
03239               2.00      200.00
03240               2.00      400.00
03241               8.00      200.00
03242               2.00      600.00
03243              -8.00      600.00
03244             -10.00      600.00
03245               4.00      800.00
03246              78.00      800.00
03247             200.00     1000.00
03248             -22.00     1000.00
03249            -254.00      800.00
03250            -254.00      800.00
03251             246.00     1200.00
03252             246.00     1400.00
03253            -254.00     1000.00
03254            -254.00     1200.00
03255             158.00     1600.00
03256             246.00     1800.00
03257            -102.00     1400.00
03258            -254.00     1200.00
03259             126.00     1800.00
03260             246.00     1800.00
03261            -254.00     1600.00
03262            -254.00     1600.00
03263             246.00     2200.00
03264             190.00     1800.00
03265            -254.00     1600.00
03266             -14.00     2200.00
03267             246.00     2200.00
03268            -170.00     2000.00
03269            -174.00     2200.00
03270             246.00     2400.00
03271              24.00     2200.00
03272            -254.00     2200.00
03273              46.00     2600.00
03274             246.00     2600.00
03275             -90.00     2400.00
03276            -162.00     2600.00
03277              48.00     2600.00
03278              46.00     2600.00
03279             -20.00     2800.00
03280             -22.00     2800.00
03281             -16.00     2800.00
03282               8.00     3000.00
03283             -20.00     3000.00
03284             -50.00     3000.00
03285              34.00     3000.00
03286              14.00     3200.00
03287             -64.00     3200.00
03288              10.00     3000.00
03289              32.00     3400.00
03290             -82.00     3200.00
03291             -10.00     3200.00
03292              66.00     3400.00
03293             -40.00     3400.00
03294             -56.00     3400.00
03295              22.00     3400.00
03296             -10.00     3400.00
03297             -22.00     3400.00
03298               0.00     3600.00
03299             -24.00     3400.00
03300              -6.00     3600.00
03301               2.00     3600.00
03302             -34.00     3800.00
03303              -6.00     3800.00
03304              10.00     3800.00
03305             -40.00     3800.00
03306             -10.00     3800.00
03307              16.00     4000.00
03308             -34.00     3800.00
03309             -26.00     3800.00
03310              14.00     4000.00
03311             -24.00     3800.00
03312             -26.00     3800.00
03313               6.00     4000.00
03314             -10.00     4000.00
03315             -22.00     4000.00
03316             -16.00     4000.00
03317             -18.00     4000.00
03318             -10.00     4000.00
03319              -8.00     4200.00
03320             -22.00     4200.00
03321              -8.00     4000.00
03322             -14.00     4200.00
03323             -32.00     4200.00
03324             -14.00     4000.00
03325              -2.00     4000.00
03326             -26.00     4200.00
03327             -16.00     4200.00
03328              -8.00     4200.00
03329             -26.00     4200.00
03330             -26.00     4000.00
03331             -12.00     4000.00
03332             -16.00     4200.00
03333             -16.00     4000.00
03334             -18.00     4200.00
03335             -22.00     4000.00
03336             -24.00     4200.00
03337             -26.00     4200.00
03338             -22.00     4000.00
03339             -10.00     4000.00
03340             -16.00     4000.00
03341             -26.00     4200.00
03342             -22.00     4200.00
03343             -22.00     4200.00
03344             -26.00     4000.00
03345             -16.00     4000.00
03346             -16.00     4000.00
03347             -30.00     4000.00
03348             -24.00     4000.00
03349             -18.00     4000.00
03350             -26.00     4000.00
03351             -26.00     4000.00
03352             -22.00     4000.00
03353             -18.00     4000.00
03354             -24.00     3800.00
03355             -26.00     3800.00
03356             -26.00     4000.00
03357             -22.00     3800.00
03358             -24.00     3800.00
03359             -26.00     3800.00
03360             -20.00     3800.00
03361             -24.00     3800.00
03362             -30.00     3800.00
03363             -22.00     3800.00
03364             -22.00     3400.00
03365             -26.00     3400.00
03366             -18.00     3600.00
03367             -14.00     3400.00
03368             -22.00     3400.00
03369             -26.00     3400.00
03370             -24.00     3400.00
03371             -22.00     3400.00
03372             -18.00     3200.00
03373             -16.00     3400.00
03374             -18.00     3200.00
03375             -22.00     3400.00
03376             -26.00     3200.00
03377             -18.00     3200.00
03378             -12.00     3000.00
03379             -16.00     3000.00
03380             -18.00     3000.00
03381             -16.00     3000.00
03382             -16.00     3000.00
03383             -18.00     3000.00
03384             -16.00     2800.00
03385             -16.00     2800.00
03386             -16.00     2800.00
03387             -16.00     2600.00
03388             -16.00     2600.00
03389             -16.00     2600.00
03390             -16.00     2600.00
03391             -16.00     2400.00
03392             -12.00     2400.00
03393             -16.00     2400.00
03394             -14.00     2200.00
03395             -14.00     2200.00
03396             -14.00     2200.00
03397             -18.00     2200.00
03398             -16.00     2200.00
03399             -10.00     2200.00
03400              -8.00     2200.00
03401             -14.00     1800.00
03402             -16.00     1800.00
03403             -14.00     1800.00
03404             -12.00     1800.00
03405             -10.00     1800.00
03406              -8.00     1600.00
03407              -8.00     1600.00
03408             -14.00     1600.00
03409             -14.00     1400.00
03410             -10.00     1400.00
03411              -8.00     1400.00
03412             -10.00     1400.00
03413             -10.00     1200.00
03414              -6.00     1200.00
03415              -8.00     1000.00
03416             -12.00     1200.00
03417             -10.00     1000.00
03418             -10.00      800.00
03419              -6.00      800.00
03420              -8.00      800.00
03421              -6.00      600.00
03422              -2.00      600.00
03423              -6.00      600.00
03424             -10.00      400.00
03425              -6.00      200.00
03426              -2.00      200.00
03427              -2.00      200.00
03428              -2.00      200.00
03429              -2.00      200.00
03430               0.00        0.00
03431               2.00        0.00
03432               8.00     -200.00
03433               0.00        0.00
03434              -8.00     -200.00
03435              -8.00     -400.00
03436               0.00     -200.00
03437              20.00     -400.00
03438             102.00     -200.00
03439             160.00     -600.00
03440            -110.00     -800.00
03441            -254.00     -600.00
03442            -154.00     -200.00
03443             246.00     -600.00
03444             246.00    -1000.00
03445            -254.00    -1000.00
03446            -254.00     -800.00
03447             246.00    -1000.00
03448             246.00     -800.00
03449            -120.00    -1000.00
03450            -254.00    -1000.00
03451              64.00    -1200.00
03452             246.00    -1400.00
03453             -52.00    -1200.00
03454            -238.00    -1600.00
03455              72.00    -1400.00
03456              22.00    -1400.00
03457             -12.00    -1400.00
03458              98.00    -1800.00
03459             -18.00    -1600.00
03460            -222.00    -1600.00
03461             102.00    -1800.00
03462             246.00    -2000.00
03463            -134.00    -2000.00
03464            -240.00    -2000.00
03465             120.00    -2200.00
03466             198.00    -2200.00
03467             -82.00    -2200.00
03468            -110.00    -2200.00
03469              14.00    -2400.00
03470              56.00    -2200.00
03471              18.00    -2400.00
03472               6.00    -2400.00
03473             -30.00    -2400.00
03474              -6.00    -2600.00
03475              22.00    -2600.00
03476               6.00    -2600.00
03477             -10.00    -2600.00
03478               0.00    -2600.00
03479              30.00    -2600.00
03480               8.00    -2800.00
03481             -26.00    -3000.00
03482             -22.00    -3000.00
03483              40.00    -3000.00
03484              40.00    -3000.00
03485             -16.00    -3000.00
03486             -30.00    -3000.00
03487              18.00    -3200.00
03488              32.00    -3000.00
03489               4.00    -3200.00
03490             -10.00    -3200.00
03491              -2.00    -3200.00
03492              18.00    -3400.00
03493              18.00    -3400.00
03494               0.00    -3200.00
03495              -6.00    -3400.00
03496               6.00    -3400.00
03497              18.00    -3400.00
03498              14.00    -3400.00
03499               6.00    -3400.00
03500              -2.00    -3400.00
03501               8.00    -3600.00
03502              18.00    -3400.00
03503              10.00    -3400.00
03504               0.00    -3400.00
03505              12.00    -3800.00
03506              18.00    -3600.00
03507               8.00    -3800.00
03508               2.00    -3400.00
03509               8.00    -3800.00
03510              16.00    -3800.00
03511              16.00    -3600.00
03512              16.00    -3600.00
03513               6.00    -3800.00
03514               6.00    -3800.00
03515               8.00    -3800.00
03516              14.00    -3800.00
03517              12.00    -3800.00
03518              10.00    -3800.00
03519              14.00    -3800.00
03520              16.00    -3800.00
03521               6.00    -3800.00
03522               6.00    -3800.00
03523              14.00    -3800.00
03524              20.00    -3800.00
03525              16.00    -3800.00
03526              10.00    -3800.00
03527              10.00    -3800.00
03528              14.00    -3800.00
03529              10.00    -4000.00
03530              16.00    -3800.00
03531              18.00    -3800.00
03532              16.00    -3800.00
03533              16.00    -3800.00
03534              14.00    -3800.00
03535              12.00    -3800.00
03536              14.00    -3800.00
03537              18.00    -3600.00
03538              18.00    -3800.00
03539              16.00    -3600.00
03540              14.00    -3800.00
03541              14.00    -3400.00
03542              14.00    -3400.00
03543              14.00    -3600.00
03544              22.00    -3400.00
03545              22.00    -3400.00
03546              14.00    -3400.00
03547              14.00    -3400.00
03548              16.00    -3400.00
03549              20.00    -3400.00
03550              16.00    -3400.00
03551              18.00    -3200.00
03552              16.00    -3200.00
03553              18.00    -3400.00
03554              18.00    -3200.00
03555              16.00    -3400.00
03556              14.00    -3200.00
03557              16.00    -3200.00
03558              18.00    -3000.00
03559              22.00    -3000.00
03560              16.00    -3200.00
03561              14.00    -3000.00
03562              14.00    -3000.00
03563              16.00    -3000.00
03564              16.00    -3000.00
03565              18.00    -3000.00
03566              14.00    -2800.00
03567              10.00    -2800.00
03568              10.00    -2800.00
03569              14.00    -2600.00
03570              18.00    -2600.00
03571              14.00    -2600.00
03572              10.00    -2600.00
03573              10.00    -2600.00
03574              10.00    -2600.00
03575              10.00    -2400.00
03576              10.00    -2400.00
03577              14.00    -2200.00
03578              14.00    -2400.00
03579               8.00    -2200.00
03580               6.00    -2200.00
03581               8.00    -2000.00
03582              10.00    -2200.00
03583               8.00    -2000.00
03584               6.00    -2000.00
03585               4.00    -1800.00
03586               8.00    -1800.00
03587               6.00    -1800.00
03588               6.00    -1600.00
03589               0.00    -1600.00
03590               4.00    -1600.00
03591               8.00    -1600.00
03592               8.00    -1400.00
03593               4.00    -1400.00
03594               0.00    -1400.00
03595               2.00    -1400.00
03596               0.00    -1400.00
03597               4.00    -1200.00
03598               6.00    -1000.00
03599               4.00    -1000.00
03600               0.00    -1000.00
03601              -2.00    -1000.00
03602               2.00    -1000.00
03603               6.00     -800.00
03604               0.00     -800.00
03605               0.00     -800.00
03606               2.00     -600.00
03607               0.00     -600.00
03608              -2.00     -600.00
03609              -2.00     -600.00
03610               2.00     -400.00
03611               0.00     -200.00
03612               0.00     -200.00
03613              -2.00     -200.00
03614              -2.00        0.00
03615              -2.00        0.00
03616               0.00        0.00
03617               0.00        0.00
03618              -2.00        0.00
03619               2.00      200.00
03620               2.00      200.00
03621               0.00      200.00
03622               0.00      200.00
03623               6.00      200.00
03624               4.00      600.00
03625              -2.00      600.00
03626              -8.00      800.00
03627              -4.00      600.00
03628              24.00      800.00
03629             152.00      800.00
03630             152.00     1200.00
03631            -254.00      800.00
03632            -254.00      800.00
03633             182.00     1200.00
03634             246.00     1400.00
03635             246.00     1400.00
03636            -254.00      800.00
03637            -254.00     1600.00
03638             246.00     1800.00
03639             246.00     1600.00
03640            -254.00     1000.00
03641            -254.00     1600.00
03642             246.00     1800.00
03643             170.00     1600.00
03644            -254.00     1400.00
03645              22.00     2200.00
03646             246.00     2000.00
03647            -182.00     1800.00
03648            -254.00     1800.00
03649             246.00     2400.00
03650              86.00     2200.00
03651            -254.00     2000.00
03652              94.00     2200.00
03653             236.00     2200.00
03654            -226.00     2200.00
03655            -184.00     2400.00
03656             244.00     2600.00
03657              82.00     2400.00
03658            -192.00     2600.00
03659             -44.00     2800.00
03660              78.00     2600.00
03661               0.00     2600.00
03662             -26.00     3000.00
03663             -18.00     2800.00
03664               2.00     3000.00
03665               2.00     3000.00
03666             -50.00     3000.00
03667             -14.00     3000.00
03668              50.00     3000.00
03669             -38.00     3000.00
03670             -40.00     3200.00
03671              50.00     3400.00
03672             -34.00     3200.00
03673             -72.00     3200.00
03674              56.00     3400.00
03675              24.00     3200.00
03676             -78.00     3400.00
03677             -10.00     3600.00
03678              14.00     3400.00
03679             -24.00     3400.00
03680              -2.00     3400.00
03681             -10.00     3600.00
03682             -24.00     3600.00
03683               8.00     3800.00
03684             -18.00     3800.00
03685             -30.00     3800.00
03686              14.00     3800.00
03687             -20.00     3800.00
03688             -38.00     3800.00
03689              18.00     3800.00
03690              -8.00     3800.00
03691             -42.00     3800.00
03692               2.00     4000.00
03693              -2.00     3800.00
03694             -36.00     3800.00
03695              -6.00     4000.00
03696               2.00     4000.00
03697             -22.00     4000.00
03698             -14.00     4000.00
03699             -16.00     4200.00
03700             -14.00     4000.00
03701              -6.00     4000.00
03702             -16.00     4200.00
03703             -14.00     4000.00
03704              -6.00     4200.00
03705             -26.00     4200.00
03706             -24.00     4200.00
03707              -2.00     4200.00
03708             -14.00     4200.00
03709             -24.00     4200.00
03710              -6.00     4000.00
03711             -14.00     4000.00
03712             -30.00     4200.00
03713             -16.00     4200.00
03714             -14.00     4200.00
03715             -14.00     4200.00
03716             -14.00     4000.00
03717             -22.00     4200.00
03718             -24.00     4200.00
03719             -18.00     4000.00
03720             -22.00     4000.00
03721             -16.00     4200.00
03722             -16.00     4000.00
03723             -26.00     4000.00
03724             -24.00     4200.00
03725             -16.00     4200.00
03726             -26.00     4200.00
03727             -26.00     4000.00
03728             -16.00     4200.00
03729             -22.00     4000.00
03730             -26.00     4000.00
03731             -18.00     4000.00
03732             -24.00     4000.00
03733             -30.00     3800.00
03734             -22.00     4000.00
03735             -18.00     3800.00
03736             -22.00     4000.00
03737             -26.00     3800.00
03738             -24.00     4000.00
03739             -24.00     3800.00
03740             -24.00     3800.00
03741             -24.00     3800.00
03742             -18.00     3800.00
03743             -22.00     3800.00
03744             -26.00     3800.00
03745             -24.00     3600.00
03746             -18.00     3600.00
03747             -24.00     3600.00
03748             -22.00     3600.00
03749             -18.00     3600.00
03750             -18.00     3400.00
03751             -24.00     3400.00
03752             -26.00     3400.00
03753             -22.00     3400.00
03754             -18.00     3400.00
03755             -18.00     3400.00
03756             -18.00     3400.00
03757             -16.00     3400.00
03758             -24.00     3200.00
03759             -24.00     3400.00
03760             -18.00     3200.00
03761             -16.00     3200.00
03762             -16.00     3000.00
03763             -16.00     3000.00
03764             -18.00     3000.00
03765             -18.00     2800.00
03766             -18.00     3000.00
03767             -12.00     2800.00
03768             -14.00     3000.00
03769             -16.00     2600.00
03770             -18.00     2600.00
03771             -14.00     2600.00
03772             -14.00     2600.00
03773             -14.00     2600.00
03774             -14.00     2600.00
03775             -10.00     2400.00
03776             -14.00     2400.00
03777             -10.00     2200.00
03778             -10.00     2200.00
03779             -14.00     2200.00
03780             -18.00     2200.00
03781             -12.00     2200.00
03782              -6.00     2200.00
03783              -8.00     1800.00
03784             -14.00     1800.00
03785             -14.00     1800.00
03786             -14.00     1800.00
03787             -10.00     1800.00
03788              -6.00     1600.00
03789              -2.00     1600.00
03790              -8.00     1400.00
03791             -16.00     1400.00
03792             -14.00     1400.00
03793              -6.00     1400.00
03794              -6.00     1400.00
03795              -8.00     1400.00
03796              -8.00     1200.00
03797             -10.00     1200.00
03798             -12.00     1000.00
03799             -10.00     1000.00
03800              -6.00      800.00
03801              -6.00      800.00
03802             -10.00      800.00
03803             -10.00      800.00
03804              -2.00      800.00
03805              -4.00      600.00
03806              -8.00      600.00
03807              -8.00      400.00
03808              -6.00      200.00
03809              -4.00      200.00
03810              -4.00      200.00
03811               0.00      200.00
03812               0.00      200.00
03813               0.00        0.00
03814               6.00        0.00
03815               4.00        0.00
03816              -4.00        0.00
03817              -8.00     -200.00
03818              -6.00     -200.00
03819              10.00     -200.00
03820              48.00     -400.00
03821             158.00     -600.00
03822              72.00     -800.00
03823            -254.00     -800.00
03824            -254.00     -600.00
03825             246.00     -600.00
03826             246.00     -600.00
03827             110.00    -1000.00
03828            -254.00     -800.00
03829            -254.00    -1000.00
03830             246.00    -1000.00
03831             246.00    -1000.00
03832            -254.00    -1400.00
03833            -254.00    -1000.00
03834             246.00    -1400.00
03835             206.00    -1200.00
03836            -240.00    -1400.00
03837             -70.00    -1600.00
03838              96.00    -1400.00
03839             -20.00    -1400.00
03840              42.00    -1600.00
03841              98.00    -1800.00
03842            -186.00    -1600.00
03843             -82.00    -1800.00
03844             246.00    -1800.00
03845              96.00    -1800.00
03846            -254.00    -2200.00
03847             -58.00    -2000.00
03848             230.00    -2000.00
03849              58.00    -2200.00
03850            -142.00    -2400.00
03851             -38.00    -2200.00
03852              54.00    -2200.00
03853              38.00    -2400.00
03854              16.00    -2400.00
03855             -18.00    -2400.00
03856             -18.00    -2400.00
03857              10.00    -2600.00
03858              24.00    -2600.00
03859             -10.00    -2600.00
03860              -6.00    -2600.00
03861              22.00    -2600.00
03862              26.00    -2800.00
03863             -10.00    -2800.00
03864             -34.00    -2600.00
03865              10.00    -3000.00
03866              50.00    -3000.00
03867              16.00    -3000.00
03868             -38.00    -3000.00
03869              -8.00    -3200.00
03870              28.00    -3000.00
03871              22.00    -3200.00
03872              -6.00    -3200.00
03873              -6.00    -3200.00
03874              10.00    -3200.00
03875              16.00    -3400.00
03876              10.00    -3200.00
03877              -2.00    -3200.00
03878               2.00    -3400.00
03879              10.00    -3400.00
03880              14.00    -3400.00
03881               8.00    -3400.00
03882               0.00    -3400.00
03883               4.00    -3400.00
03884              12.00    -3600.00
03885              14.00    -3400.00
03886               6.00    -3400.00
03887               6.00    -3600.00
03888              18.00    -3800.00
03889              14.00    -3400.00
03890               0.00    -3600.00
03891               6.00    -3600.00
03892              14.00    -3400.00
03893              14.00    -3800.00
03894              16.00    -3800.00
03895              12.00    -3800.00
03896               6.00    -3800.00
03897               6.00    -3800.00
03898              14.00    -3800.00
03899              14.00    -3800.00
03900              14.00    -3800.00
03901              12.00    -3800.00
03902              14.00    -3800.00
03903              14.00    -3800.00
03904               6.00    -3800.00
03905               8.00    -3600.00
03906              18.00    -3800.00
03907              18.00    -3800.00
03908              14.00    -3800.00
03909              14.00    -3800.00
03910              10.00    -3800.00
03911               8.00    -3800.00
03912              16.00    -3800.00
03913              22.00    -3800.00
03914              18.00    -3800.00
03915              16.00    -3800.00
03916              10.00    -3800.00
03917              10.00    -3800.00
03918              16.00    -3800.00
03919              18.00    -3600.00
03920              22.00    -3800.00
03921              14.00    -3600.00
03922              10.00    -3600.00
03923              14.00    -3400.00
03924              18.00    -3800.00
03925              16.00    -3400.00
03926              16.00    -3600.00
03927              18.00    -3600.00
03928              16.00    -3400.00
03929              16.00    -3400.00
03930              16.00    -3400.00
03931              16.00    -3400.00
03932              16.00    -3400.00
03933              18.00    -3200.00
03934              18.00    -3400.00
03935              18.00    -3400.00
03936              16.00    -3200.00
03937              16.00    -3200.00
03938              14.00    -3200.00
03939              14.00    -3200.00
03940              16.00    -3200.00
03941              22.00    -3000.00
03942              18.00    -3000.00
03943              12.00    -3000.00
03944              10.00    -3000.00
03945              14.00    -3000.00
03946              16.00    -3000.00
03947              18.00    -3000.00
03948              16.00    -3000.00
03949              14.00    -2800.00
03950               8.00    -2800.00
03951              10.00    -2600.00
03952              16.00    -2600.00
03953              18.00    -2600.00
03954              14.00    -2600.00
03955              12.00    -2600.00
03956              10.00    -2600.00
03957              10.00    -2600.00
03958              10.00    -2400.00
03959              14.00    -2400.00
03960              10.00    -2400.00
03961              10.00    -2200.00
03962               8.00    -2200.00
03963              10.00    -2200.00
03964               8.00    -2000.00
03965               8.00    -2200.00
03966              10.00    -2000.00
03967              10.00    -1800.00
03968               8.00    -1800.00
03969               8.00    -1800.00
03970               6.00    -1800.00
03971               2.00    -1600.00
03972               6.00    -1600.00
03973               8.00    -1600.00
03974               8.00    -1600.00
03975               6.00    -1600.00
03976               0.00    -1400.00
03977               6.00    -1400.00
03978               4.00    -1400.00
03979               0.00    -1200.00
03980               6.00    -1200.00
03981               6.00    -1200.00
03982               2.00    -1000.00
03983               0.00    -1000.00
03984              -2.00    -1000.00
03985               0.00     -800.00
03986               6.00     -800.00
03987               0.00     -800.00
03988               2.00     -600.00
03989               2.00     -600.00
03990               0.00     -600.00
03991              -2.00     -600.00
03992              -2.00     -400.00
03993               0.00     -600.00
03994               2.00     -200.00
03995               0.00     -200.00
03996               0.00     -200.00
03997              -2.00     -200.00
03998              -4.00        0.00
03999               0.00        0.00
04000               0.00      200.00
04001               0.00        0.00
04002               0.00      200.00
04003               0.00      200.00
04004               2.00      400.00
04005               8.00      400.00
04006               8.00      400.00
04007              -2.00      400.00
04008             -10.00      600.00
04009              -6.00      800.00
04010               6.00      600.00
04011              86.00      800.00
04012             196.00     1200.00
04013             -48.00     1000.00
04014            -254.00      800.00
04015            -232.00     1000.00
04016             246.00     1200.00
04017             246.00     1400.00
04018            -254.00      800.00
04019            -254.00     1200.00
04020             216.00     1600.00
04021             246.00     1800.00
04022            -168.00     1400.00
04023            -254.00     1200.00
04024             174.00     1800.00
04025             246.00     1800.00
04026            -254.00     1400.00
04027            -254.00     1600.00
04028             246.00     2200.00
04029             158.00     1800.00
04030            -254.00     1600.00
04031              16.00     2200.00
04032             246.00     2200.00
04033            -186.00     2200.00
04034            -152.00     2200.00
04035             246.00     2400.00
04036               2.00     2200.00
04037            -254.00     2400.00
04038              72.00     2600.00
04039             238.00     2600.00
04040            -102.00     2400.00
04041            -152.00     2600.00
04042              58.00     2600.00
04043              40.00     2600.00
04044             -22.00     2600.00
04045             -22.00     2800.00
04046             -10.00     2800.00
04047              12.00     3000.00
04048             -22.00     3000.00
04049             -50.00     3000.00
04050              38.00     3000.00
04051              14.00     3000.00
04052             -62.00     3000.00
04053              16.00     3000.00
04054              24.00     3200.00
04055             -86.00     3200.00
04056              -2.00     3200.00
04057              70.00     3400.00
04058             -44.00     3400.00
04059             -58.00     3200.00
04060              22.00     3400.00
04061              -8.00     3400.00
04062             -18.00     3400.00
04063               0.00     3600.00
04064             -28.00     3600.00
04065              -8.00     3600.00
04066               4.00     3600.00
04067             -34.00     3600.00
04068              -6.00     3800.00
04069               8.00     3800.00
04070             -42.00     3800.00
04071              -6.00     3800.00
04072              18.00     4000.00
04073             -38.00     3800.00
04074             -22.00     3800.00
04075              12.00     4000.00
04076             -26.00     3800.00
04077             -24.00     3800.00
04078               6.00     4000.00
04079             -14.00     4000.00
04080             -22.00     4000.00
04081             -14.00     4000.00
04082             -18.00     4000.00
04083              -8.00     4000.00
04084             -10.00     4000.00
04085             -22.00     4000.00
04086              -6.00     4000.00
04087             -10.00     4000.00
04088             -34.00     4200.00
04089             -10.00     4000.00
04090              -4.00     4200.00
04091             -26.00     4000.00
04092             -14.00     4000.00
04093              -8.00     4200.00
04094             -26.00     4000.00
04095             -24.00     4200.00
04096             -10.00     4200.00
04097             -14.00     4000.00
04098             -16.00     4200.00
04099             -14.00     4200.00
04100             -24.00     4200.00
04101             -22.00     4200.00
04102             -20.00     4000.00
04103             -18.00     4000.00
04104             -10.00     4200.00
04105             -20.00     4000.00
04106             -28.00     4000.00
04107             -18.00     4200.00
04108             -22.00     4000.00
04109             -32.00     4000.00
04110             -18.00     4000.00
04111             -16.00     4000.00
04112             -26.00     4000.00
04113             -24.00     4000.00
04114             -20.00     4000.00
04115             -28.00     3800.00
04116             -26.00     4000.00
04117             -18.00     4000.00
04118             -22.00     4000.00
04119             -24.00     3800.00
04120             -26.00     3800.00
04121             -28.00     3800.00
04122             -24.00     3800.00
04123             -26.00     3800.00
04124             -24.00     3800.00
04125             -16.00     3800.00
04126             -24.00     3800.00
04127             -26.00     3800.00
04128             -24.00     3800.00
04129             -24.00     3800.00
04130             -26.00     3600.00
04131             -18.00     3400.00
04132             -18.00     3600.00
04133             -26.00     3400.00
04134             -26.00     3400.00
04135             -24.00     3400.00
04136             -18.00     3400.00
04137             -22.00     3400.00
04138             -22.00     3400.00
04139             -18.00     3200.00
04140             -18.00     3200.00
04141             -26.00     3200.00
04142             -24.00     3200.00
04143             -16.00     3200.00
04144             -16.00     3000.00
04145             -18.00     3000.00
04146             -18.00     3000.00
04147             -18.00     3000.00
04148             -18.00     2800.00
04149             -16.00     3000.00
04150             -16.00     2800.00
04151             -16.00     2800.00
04152             -16.00     2800.00
04153             -14.00     2600.00
04154             -16.00     2600.00
04155             -16.00     2600.00
04156             -16.00     2600.00
04157             -10.00     2400.00
04158             -10.00     2400.00
04159             -16.00     2400.00
04160             -14.00     2200.00
04161             -10.00     2200.00
04162             -18.00     2200.00
04163             -14.00     2200.00
04164              -8.00     2200.00
04165              -4.00     2000.00
04166             -10.00     1800.00
04167             -14.00     1800.00
04168             -10.00     1800.00
04169              -8.00     1600.00
04170             -10.00     1600.00
04171              -8.00     1600.00
04172              -8.00     1600.00
04173             -10.00     1400.00
04174             -10.00     1400.00
04175              -8.00     1400.00
04176              -6.00     1200.00
04177             -10.00     1200.00
04178             -10.00     1200.00
04179              -4.00     1200.00
04180              -6.00     1000.00
04181             -10.00     1000.00
04182              -8.00     1000.00
04183              -8.00      800.00
04184              -6.00      800.00
04185              -8.00      800.00
04186              -4.00      800.00
04187              -6.00      600.00
04188             -10.00      600.00
04189             -10.00      400.00
04190              -2.00      200.00
04191              -2.00      200.00
04192              -8.00      200.00
04193              -2.00      200.00
04194               0.00        0.00
04195               0.00      200.00
04196               0.00        0.00
04197               6.00     -200.00
04198               0.00     -200.00
04199             -10.00     -200.00
04200             -10.00     -200.00
04201               2.00     -400.00
04202              22.00     -400.00
04203             106.00     -600.00
04204             154.00     -600.00
04205            -134.00     -800.00
04206            -254.00     -600.00
04207            -114.00     -400.00
04208             246.00     -600.00
04209             246.00     -800.00
04210            -254.00    -1200.00
04211            -254.00     -600.00
04212             246.00    -1000.00
04213             246.00    -1000.00
04214            -170.00    -1200.00
04215            -254.00    -1200.00
04216             106.00    -1400.00
04217             246.00    -1400.00
04218             -80.00    -1400.00
04219            -226.00    -1400.00
04220              86.00    -1400.00
04221              22.00    -1600.00
04222              -6.00    -1600.00
04223             102.00    -1600.00
04224             -34.00    -1600.00
04225            -214.00    -1600.00
04226             120.00    -1800.00
04227             246.00    -2000.00
04228            -152.00    -2000.00
04229            -226.00    -2000.00
04230             142.00    -2200.00
04231             192.00    -2200.00
04232             -94.00    -2200.00
04233            -104.00    -2200.00
04234              20.00    -2200.00
04235              56.00    -2200.00
04236              20.00    -2400.00
04237               0.00    -2400.00
04238             -32.00    -2400.00
04239              -4.00    -2600.00
04240              28.00    -2400.00
04241               6.00    -2600.00
04242             -10.00    -2600.00
04243               0.00    -2800.00
04244              32.00    -2800.00
04245               8.00    -2800.00
04246             -24.00    -2800.00
04247             -22.00    -3000.00
04248              40.00    -3000.00
04249              38.00    -3000.00
04250             -20.00    -3000.00
04251             -30.00    -3200.00
04252              18.00    -3000.00
04253              26.00    -3200.00
04254               0.00    -3200.00
04255             -10.00    -3200.00
04256               2.00    -3200.00
04257              16.00    -3200.00
04258              14.00    -3400.00
04259              -2.00    -3400.00
04260              -4.00    -3400.00
04261               8.00    -3200.00
04262              16.00    -3600.00
04263              10.00    -3400.00
04264               0.00    -3400.00
04265               0.00    -3400.00
04266              10.00    -3400.00
04267              16.00    -3600.00
04268               6.00    -3400.00
04269              -2.00    -3600.00
04270              10.00    -3600.00
04271              20.00    -3600.00
04272               6.00    -3600.00
04273               0.00    -3800.00
04274               6.00    -3800.00
04275              10.00    -3800.00
04276              14.00    -3600.00
04277              16.00    -3800.00
04278               8.00    -3800.00
04279               6.00    -3600.00
04280               8.00    -3800.00
04281              12.00    -4000.00
04282              14.00    -3600.00
04283              10.00    -3800.00
04284              10.00    -3800.00
04285              14.00    -3800.00
04286              10.00    -3800.00
04287               6.00    -3800.00
04288              14.00    -3800.00
04289              18.00    -3800.00
04290              16.00    -3800.00
04291              10.00    -3800.00
04292              12.00    -3800.00
04293              10.00    -3800.00
04294              16.00    -3800.00
04295              18.00    -3800.00
04296              16.00    -3800.00
04297              16.00    -3800.00
04298              14.00    -3800.00
04299              14.00    -3800.00
04300              14.00    -3800.00
04301              16.00    -3600.00
04302              22.00    -3600.00
04303              18.00    -3600.00
04304              14.00    -3800.00
04305              14.00    -3600.00
04306              14.00    -3600.00
04307              16.00    -3400.00
04308              14.00    -3600.00
04309              18.00    -3600.00
04310              20.00    -3600.00
04311              18.00    -3600.00
04312              14.00    -3400.00
04313              14.00    -3400.00
04314              14.00    -3400.00
04315              16.00    -3400.00
04316              22.00    -3200.00
04317              16.00    -3400.00
04318              14.00    -3400.00
04319              14.00    -3200.00
04320              14.00    -3400.00
04321              16.00    -3200.00
04322              14.00    -3200.00
04323              14.00    -3000.00
04324              18.00    -3000.00
04325              14.00    -3000.00
04326              10.00    -3200.00
04327              14.00    -3000.00
04328              16.00    -3000.00
04329              16.00    -3000.00
04330              14.00    -3000.00
04331              16.00    -3000.00
04332              10.00    -2800.00
04333               8.00    -2600.00
04334              14.00    -2600.00
04335              16.00    -2800.00
04336              14.00    -2600.00
04337              14.00    -2600.00
04338              10.00    -2600.00
04339              10.00    -2600.00
04340              10.00    -2400.00
04341               8.00    -2400.00
04342              10.00    -2400.00
04343              14.00    -2200.00
04344              14.00    -2200.00
04345               8.00    -2200.00
04346               6.00    -2200.00
04347               6.00    -2200.00
04348               8.00    -2000.00
04349              10.00    -1800.00
04350               8.00    -1800.00
04351               6.00    -1800.00
04352               6.00    -1800.00
04353               6.00    -1800.00
04354               6.00    -1800.00
04355               6.00    -1600.00
04356               8.00    -1600.00
04357               8.00    -1400.00
04358               6.00    -1400.00
04359               0.00    -1400.00
04360               4.00    -1400.00
04361               6.00    -1000.00
04362               6.00    -1200.00
04363               6.00    -1400.00
04364               8.00    -1000.00
04365               2.00    -1000.00
04366               0.00    -1000.00
04367               0.00    -1000.00
04368               2.00     -800.00
04369               4.00     -800.00
04370               2.00     -800.00
04371               0.00     -800.00
04372               0.00     -600.00
04373              -2.00     -600.00
04374               0.00     -600.00
04375               0.00     -400.00
04376               0.00     -400.00
04377               0.00     -400.00
04378               0.00     -200.00
04379               0.00     -200.00
04380              -2.00        0.00
04381              -2.00        0.00
04382               0.00      200.00
04383              -2.00        0.00
04384               0.00      200.00
04385               0.00      200.00
04386               0.00      200.00
04387               4.00      400.00
04388               8.00      600.00
04389               0.00      400.00
04390              -6.00      600.00
04391              -8.00      600.00
04392               0.00      600.00
04393              30.00      800.00
04394             158.00      800.00
04395             142.00     1200.00
04396            -254.00      800.00
04397            -254.00      800.00
04398             222.00     1200.00
04399             246.00     1400.00
04400             194.00     1400.00
04401            -254.00      800.00
04402            -254.00     1400.00
04403             246.00     1600.00
04404             246.00     1800.00
04405            -254.00     1000.00
04406            -254.00     1600.00
04407             246.00     2000.00
04408             130.00     1800.00
04409            -254.00     1400.00
04410              56.00     2000.00
04411             246.00     2200.00
04412            -208.00     1600.00
04413            -250.00     1800.00
04414             246.00     2200.00
04415              62.00     2200.00
04416            -254.00     2000.00
04417             116.00     2400.00
04418             224.00     2400.00
04419            -238.00     2200.00
04420            -162.00     2400.00
04421             246.00     2600.00
04422              66.00     2400.00
04423            -192.00     2600.00
04424             -32.00     2600.00
04425              80.00     2600.00
04426              -2.00     2600.00
04427             -26.00     2800.00
04428             -16.00     3000.00
04429               6.00     2800.00
04430               2.00     2800.00
04431             -50.00     3000.00
04432              -8.00     3200.00
04433              48.00     3000.00
04434             -40.00     3200.00
04435             -38.00     3000.00
04436              50.00     3200.00
04437             -46.00     3200.00
04438             -66.00     3000.00
04439              62.00     3400.00
04440              18.00     3200.00
04441             -78.00     3400.00
04442              -8.00     3400.00
04443              14.00     3400.00
04444             -24.00     3400.00
04445              -4.00     3400.00
04446             -14.00     3600.00
04447             -26.00     3400.00
04448               8.00     3600.00
04449             -22.00     3800.00
04450             -32.00     3800.00
04451              14.00     3800.00
04452             -24.00     3600.00
04453             -34.00     3800.00
04454              16.00     3800.00
04455             -12.00     3800.00
04456             -44.00     3800.00
04457               6.00     3800.00
04458              -6.00     3800.00
04459             -38.00     3800.00
04460              -6.00     4000.00
04461               0.00     4000.00
04462             -24.00     4000.00
04463             -16.00     4000.00
04464             -18.00     4000.00
04465             -16.00     3800.00
04466              -6.00     4200.00
04467             -22.00     4200.00
04468             -16.00     4000.00
04469              -2.00     4200.00
04470             -26.00     4000.00
04471             -26.00     4200.00
04472               0.00     4000.00
04473             -14.00     4000.00
04474             -24.00     4000.00
04475              -6.00     4200.00
04476             -16.00     4000.00
04477             -30.00     4200.00
04478             -16.00     4000.00
04479             -14.00     4000.00
04480             -16.00     4200.00
04481             -14.00     4200.00
04482             -22.00     4000.00
04483             -24.00     4200.00
04484             -24.00     4200.00
04485             -22.00     4000.00
04486             -14.00     4000.00
04487             -10.00     4200.00
04488             -26.00     4000.00
04489             -24.00     4200.00
04490             -16.00     4000.00
04491             -30.00     4000.00
04492             -24.00     4000.00
04493             -10.00     4000.00
04494             -18.00     4000.00
04495             -30.00     4000.00
04496             -24.00     4000.00
04497             -22.00     4000.00
04498             -28.00     4000.00
04499             -24.00     4000.00
04500             -22.00     4000.00
04501             -24.00     3800.00
04502             -24.00     4000.00
04503             -26.00     3800.00
04504             -26.00     3800.00
04505             -24.00     3800.00
04506             -26.00     3800.00
04507             -20.00     3800.00
04508             -22.00     3800.00
04509             -30.00     3800.00
04510             -26.00     3800.00
04511             -18.00     3800.00
04512             -26.00     3800.00
04513             -24.00     3600.00
04514             -16.00     3400.00
04515             -22.00     3400.00
04516             -26.00     3400.00
04517             -26.00     3400.00
04518             -22.00     3400.00
04519             -18.00     3200.00
04520             -18.00     3400.00
04521             -22.00     3400.00
04522             -18.00     3200.00
04523             -24.00     3200.00
04524             -24.00     3200.00
04525             -18.00     3000.00
04526             -16.00     3200.00
04527             -18.00     3000.00
04528             -16.00     3000.00
04529             -16.00     3000.00
04530             -16.00     3000.00
04531             -18.00     3000.00
04532             -14.00     2800.00
04533             -16.00     2800.00
04534             -16.00     2600.00
04535             -16.00     2600.00
04536             -14.00     2600.00
04537             -16.00     2600.00
04538             -16.00     2600.00
04539             -10.00     2400.00
04540              -8.00     2400.00
04541             -14.00     2400.00
04542             -16.00     2200.00
04543             -12.00     2200.00
04544             -12.00     2200.00
04545             -14.00     2200.00
04546             -10.00     2200.00
04547              -8.00     2200.00
04548             -10.00     1800.00
04549             -10.00     1800.00
04550             -10.00     1800.00
04551             -12.00     1800.00
04552             -10.00     1600.00
04553              -8.00     1600.00
04554              -4.00     1600.00
04555              -8.00     1600.00
04556             -14.00     1400.00
04557             -10.00     1600.00
04558              -6.00     1400.00
04559              -8.00     1400.00
04560              -6.00     1200.00
04561              -6.00     1200.00
04562              -6.00     1000.00
04563             -10.00     1000.00
04564              -8.00     1000.00
04565              -4.00      800.00
04566              -6.00      800.00
04567              -8.00      800.00
04568              -2.00      600.00
04569              -4.00      600.00
04570              -8.00      600.00
04571             -10.00      400.00
04572              -8.00      200.00
04573              -2.00      400.00
04574              -2.00      200.00
04575              -6.00      200.00
04576              -6.00        0.00
04577              -2.00        0.00
04578               0.00      200.00
04579               6.00        0.00
04580               6.00        0.00
04581              -8.00     -200.00
04582             -10.00     -200.00
04583              -2.00     -200.00
04584              10.00     -200.00
04585              50.00     -200.00
04586             158.00     -600.00
04587              60.00     -800.00
04588            -254.00     -800.00
04589            -254.00     -600.00
04590             246.00     -600.00
04591             246.00     -800.00
04592              46.00    -1000.00
04593            -254.00    -1000.00
04594            -254.00     -800.00
04595             246.00    -1000.00
04596             246.00    -1000.00
04597            -254.00    -1000.00
04598            -254.00    -1200.00
04599             246.00    -1400.00
04600             176.00    -1000.00
04601            -248.00    -1400.00
04602             -54.00    -1600.00
04603              88.00    -1400.00
04604             -24.00    -1400.00
04605              48.00    -1800.00
04606              98.00    -1800.00
04607            -200.00    -1800.00
04608             -72.00    -1800.00
04609             246.00    -2000.00
04610              80.00    -1800.00
04611            -254.00    -2000.00
04612             -42.00    -2000.00
04613             230.00    -2200.00
04614              46.00    -2200.00
04615            -144.00    -2200.00
04616             -32.00    -2200.00
04617              56.00    -2200.00
04618              32.00    -2400.00
04619              14.00    -2400.00
04620             -22.00    -2400.00
04621             -16.00    -2600.00
04622              10.00    -2600.00
04623              24.00    -2600.00
04624             -14.00    -2600.00
04625              -6.00    -2600.00
04626              16.00    -2600.00
04627              30.00    -2800.00
04628              -8.00    -2800.00
04629             -38.00    -2800.00
04630              10.00    -3000.00
04631              50.00    -3000.00
04632              10.00    -3000.00
04633             -36.00    -3000.00
04634              -6.00    -3200.00
04635              24.00    -3000.00
04636              16.00    -3000.00
04637              -8.00    -3200.00
04638              -6.00    -3200.00
04639              10.00    -3200.00
04640              16.00    -3400.00
04641               8.00    -3400.00
04642              -6.00    -3200.00
04643               0.00    -3400.00
04644              10.00    -3400.00
04645              14.00    -3400.00
04646               6.00    -3400.00
04647               0.00    -3400.00
04648               0.00    -3400.00
04649              14.00    -3400.00
04650              12.00    -3600.00
04651               0.00    -3400.00
04652               6.00    -3600.00
04653              16.00    -3400.00
04654              12.00    -3600.00
04655              -2.00    -3600.00
04656               6.00    -3400.00
04657              14.00    -3800.00
04658              14.00    -3600.00
04659              14.00    -3800.00
04660              10.00    -3800.00
04661               6.00    -3800.00
04662               6.00    -3600.00
04663              10.00    -3800.00
04664              14.00    -3800.00
04665              10.00    -3800.00
04666              10.00    -3800.00
04667              14.00    -3800.00
04668              14.00    -3800.00
04669               6.00    -3800.00
04670               8.00    -3800.00
04671              18.00    -3800.00
04672              18.00    -3800.00
04673              14.00    -3800.00
04674              14.00    -3800.00
04675               8.00    -3800.00
04676              10.00    -3800.00
04677              18.00    -3800.00
04678              22.00    -3800.00
04679              14.00    -3800.00
04680              14.00    -3800.00
04681              16.00    -3800.00
04682              14.00    -3600.00
04683              14.00    -3800.00
04684              18.00    -3800.00
04685              22.00    -3800.00
04686              22.00    -3800.00
04687              14.00    -3600.00
04688              14.00    -3800.00
04689              18.00    -3600.00
04690              18.00    -3400.00
04691              18.00    -3400.00
04692              22.00    -3400.00
04693              16.00    -3400.00
04694              18.00    -3400.00
04695              16.00    -3400.00
04696              18.00    -3400.00
04697              16.00    -3400.00
04698              18.00    -3200.00
04699              20.00    -3400.00
04700              18.00    -3400.00
04701              16.00    -3400.00
04702              14.00    -3400.00
04703              16.00    -3200.00
04704              14.00    -3400.00
04705              16.00    -3200.00
04706              22.00    -3200.00
04707              14.00    -3000.00
04708              12.00    -3200.00
04709              10.00    -3000.00
04710              14.00    -3000.00
04711              16.00    -3000.00
04712              16.00    -2800.00
04713              16.00    -3000.00
04714              12.00    -3000.00
04715               8.00    -3000.00
04716              10.00    -2800.00
04717              14.00    -2600.00
04718              14.00    -2600.00
04719              14.00    -2600.00
04720              10.00    -2400.00
04721              10.00    -2400.00
04722              10.00    -2600.00
04723              10.00    -2400.00
04724               8.00    -2400.00
04725              14.00    -2200.00
04726               8.00    -2200.00
04727              14.00    -2200.00
04728               8.00    -2200.00
04729               4.00    -2200.00
04730               6.00    -2200.00
04731              10.00    -2200.00
04732              14.00    -1800.00
04733               8.00    -2000.00
04734               6.00    -1800.00
04735               6.00    -1800.00
04736               8.00    -1600.00
04737               6.00    -1600.00
04738               6.00    -1600.00
04739               8.00    -1600.00
04740               6.00    -1400.00
04741               6.00    -1400.00
04742               6.00    -1400.00
04743               2.00    -1400.00
04744               0.00    -1200.00
04745               6.00    -1000.00
04746               6.00    -1000.00
04747               6.00    -1000.00
04748               0.00    -1000.00
04749               0.00     -800.00
04750               2.00     -800.00
04751               6.00     -800.00
04752               6.00     -800.00
04753               2.00     -600.00
04754               0.00     -600.00
04755               0.00     -600.00
04756               2.00     -600.00
04757               2.00     -400.00
04758               0.00     -600.00
04759              -2.00     -400.00
04760               2.00     -200.00
04761               0.00     -200.00
04762              -4.00     -200.00
04763              -6.00     -200.00
04764               0.00        0.00
04765               0.00        0.00
04766              -2.00      200.00
04767               0.00      200.00
04768               2.00      200.00
04769               2.00      200.00
04770               6.00      400.00
04771               6.00      600.00
04772              -2.00      600.00
04773              -8.00      600.00
04774              -8.00      600.00
04775               4.00      800.00
04776              88.00      800.00
04777             198.00     1200.00
04778             -70.00     1000.00
04779            -254.00      800.00
04780            -200.00     1000.00
04781             246.00     1200.00
04782             246.00     1400.00
04783            -254.00      800.00
04784            -254.00     1400.00
04785             246.00     1600.00
04786             246.00     1800.00
04787            -228.00     1200.00
04788            -254.00     1400.00
04789             220.00     1800.00
04790             246.00     1800.00
04791            -254.00     1400.00
04792            -254.00     1800.00
04793             246.00     2200.00
04794             124.00     1800.00
04795            -254.00     1600.00
04796              40.00     2200.00
04797             246.00     2200.00
04798            -206.00     2200.00
04799            -132.00     2200.00
04800             246.00     2400.00
04801             -22.00     2200.00
04802            -254.00     2400.00
04803              90.00     2600.00
04804             230.00     2600.00
04805            -114.00     2400.00
04806            -150.00     2600.00
04807              62.00     2600.00
04808              38.00     2600.00
04809             -22.00     2600.00
04810             -20.00     3000.00
04811              -8.00     3000.00
04812              10.00     2800.00
04813             -30.00     3000.00
04814             -48.00     3000.00
04815              48.00     3000.00
04816               6.00     3000.00
04817             -66.00     3000.00
04818              24.00     3200.00
04819              24.00     3400.00
04820             -90.00     3200.00
04821               0.00     3200.00
04822              70.00     3400.00
04823             -46.00     3400.00
04824             -50.00     3400.00
04825              22.00     3400.00
04826             -14.00     3400.00
04827             -18.00     3400.00
04828               0.00     3600.00
04829             -26.00     3400.00
04830              -4.00     3400.00
04831               0.00     3800.00
04832             -34.00     3600.00
04833              -2.00     3800.00
04834               2.00     3800.00
04835             -46.00     3800.00
04836              -6.00     3800.00
04837              14.00     3800.00
04838             -40.00     3800.00
04839             -20.00     4000.00
04840               8.00     3800.00
04841             -30.00     3800.00
04842             -24.00     4000.00
04843               6.00     4000.00
04844             -16.00     3800.00
04845             -24.00     4000.00
04846             -16.00     4000.00
04847             -22.00     4000.00
04848              -8.00     4000.00
04849             -10.00     4000.00
04850             -26.00     4000.00
04851              -8.00     4000.00
04852             -14.00     4200.00
04853             -32.00     4000.00
04854             -10.00     4200.00
04855              -6.00     4000.00
04856             -26.00     4000.00
04857             -12.00     4200.00
04858              -6.00     4000.00
04859             -26.00     4200.00
04860             -26.00     4200.00
04861             -14.00     4200.00
04862             -14.00     4000.00
04863             -16.00     4200.00
04864             -18.00     4200.00
04865             -22.00     4200.00
04866             -22.00     4200.00
04867             -22.00     4000.00
04868             -18.00     4000.00
04869             -10.00     4200.00
04870             -18.00     4000.00
04871             -26.00     4000.00
04872             -16.00     4200.00
04873             -18.00     4000.00
04874             -30.00     4000.00
04875             -16.00     4000.00
04876             -14.00     4000.00
04877             -24.00     4000.00
04878             -24.00     4000.00
04879             -22.00     4000.00
04880             -26.00     4000.00
04881             -22.00     3800.00
04882             -18.00     4200.00
04883             -22.00     4000.00
04884             -22.00     4000.00
04885             -22.00     3800.00
04886             -24.00     3800.00
04887             -26.00     3800.00
04888             -24.00     3800.00
04889             -18.00     3800.00
04890             -16.00     3800.00
04891             -26.00     3800.00
04892             -32.00     3800.00
04893             -20.00     3800.00
04894             -20.00     3400.00
04895             -26.00     3600.00
04896             -20.00     3600.00
04897             -16.00     3600.00
04898             -22.00     3400.00
04899             -26.00     3400.00
04900             -24.00     3400.00
04901             -22.00     3400.00
04902             -18.00     3400.00
04903             -18.00     3200.00
04904             -18.00     3400.00
04905             -20.00     3200.00
04906             -24.00     3200.00
04907             -22.00     3000.00
04908             -16.00     3200.00
04909             -16.00     3000.00
04910             -18.00     3000.00
04911             -16.00     3000.00
04912             -18.00     3000.00
04913             -18.00     3000.00
04914             -16.00     2800.00
04915             -14.00     2600.00
04916             -18.00     2800.00
04917             -20.00     2600.00
04918             -14.00     2600.00
04919             -10.00     2600.00
04920             -12.00     2600.00
04921             -16.00     2400.00
04922             -18.00     2400.00
04923             -22.00     2400.00
04924             -10.00     2400.00
04925               0.00     2200.00
04926              -8.00     2200.00
04927             -26.00     2200.00
04928             -26.00     2200.00
04929              -6.00     2200.00
04930               2.00     2000.00
04931              -8.00     1800.00
04932             -16.00     1800.00
04933             -18.00     1800.00
04934             -10.00     1800.00
04935              -2.00     1600.00
04936              -6.00     1600.00
04937             -12.00     1600.00
04938             -14.00     1400.00
04939              -6.00     1400.00
04940               2.00     1400.00
04941             -10.00     1400.00
04942             -18.00     1200.00
04943             -10.00     1200.00
04944               8.00     1200.00
04945               6.00     1200.00
04946             -14.00     1200.00
04947             -18.00     1000.00
04948              -8.00     1000.00
04949               2.00      800.00
04950               2.00      800.00
04951              -6.00      600.00
04952             -10.00      800.00
04953             -10.00      600.00
04954              -8.00      600.00
04955               0.00      400.00
04956              -2.00      200.00
04957              -8.00      200.00
04958              -6.00      200.00
04959              -2.00        0.00
04960               0.00        0.00
04961               6.00        0.00
04962               6.00        0.00
04963              -2.00        0.00
04964             -14.00        0.00
04965              -8.00     -400.00
04966               2.00     -200.00
04967              22.00     -400.00
04968             112.00     -600.00
04969             150.00     -800.00
04970            -154.00     -800.00
04971            -254.00     -800.00
04972             -82.00     -600.00
04973             246.00     -600.00
04974             246.00     -800.00
04975            -254.00    -1000.00
04976            -254.00     -800.00
04977             246.00    -1200.00
04978             246.00    -1000.00
04979            -218.00    -1200.00
04980            -254.00    -1200.00
04981             142.00    -1200.00
04982             246.00    -1400.00
04983            -102.00    -1200.00
04984            -218.00    -1600.00
04985              94.00    -1400.00
04986              16.00    -1400.00
04987              -6.00    -1400.00
04988             104.00    -1800.00
04989             -48.00    -1800.00
04990            -208.00    -1800.00
04991             136.00    -1800.00
04992             246.00    -1800.00
04993            -174.00    -1800.00
04994            -222.00    -2000.00
04995             150.00    -2200.00
04996             184.00    -2200.00
04997             -98.00    -2200.00
04998            -102.00    -2400.00
04999              22.00    -2200.00
05000              60.00    -2200.00
