Unit:(mV)
                     CH1         CH2
Frequency              ? 261.451 kHz
00001             246.00     -600.00
00002             246.00    -1000.00
00003            -254.00    -1000.00
00004            -254.00     -800.00
00005             246.00    -1000.00
00006             246.00    -1000.00
00007            -254.00    -1400.00
00008            -254.00    -1200.00
00009             236.00    -1400.00
00010             246.00    -1200.00
00011            -126.00    -1200.00
00012            -146.00    -1600.00
00013              58.00    -1400.00
00014             -14.00    -1600.00
00015              42.00    -1600.00
00016              88.00    -1800.00
00017            -130.00    -1800.00
00018            -130.00    -1800.00
00019             184.00    -2000.00
00020             140.00    -1800.00
00021            -212.00    -2000.00
00022            -118.00    -2200.00
00023             150.00    -2200.00
00024             102.00    -2200.00
00025             -90.00    -2200.00
00026             -74.00    -2200.00
00027              -4.00    -2200.00
00028              64.00    -2400.00
00029              32.00    -2600.00
00030             -46.00    -2400.00
00031             -32.00    -2600.00
00032              26.00    -2600.00
00033               6.00    -2600.00
00034             -26.00    -2600.00
00035              10.00    -2600.00
00036               2.00    -2600.00
00037               2.00    -2600.00
00038               8.00    -2800.00
00039             -22.00    -2800.00
00040             -30.00    -3000.00
00041              38.00    -3000.00
00042              30.00    -3000.00
00043             -40.00    -3000.00
00044             -30.00    -3200.00
00045              22.00    -3000.00
00046              18.00    -3200.00
00047             -14.00    -3200.00
00048             -12.00    -3200.00
00049               0.00    -3200.00
00050               8.00    -3200.00
00051               6.00    -3200.00
00052             -10.00    -3200.00
00053             -12.00    -3400.00
00054               0.00    -3400.00
00055              10.00    -3400.00
00056               2.00    -3400.00
00057             -10.00    -3600.00
00058             -14.00    -3400.00
00059               2.00    -3400.00
00060               8.00    -3600.00
00061              -8.00    -3600.00
00062             -10.00    -3400.00
00063               6.00    -3600.00
00064               6.00    -3600.00
00065              -8.00    -3800.00
00066             -10.00    -3800.00
00067              -2.00    -3800.00
00068               0.00    -3600.00
00069               0.00    -3800.00
00070              -2.00    -3800.00
00071              -6.00    -3800.00
00072              -6.00    -3800.00
00073              -4.00    -3800.00
00074              -4.00    -3800.00
00075               0.00    -3800.00
00076               0.00    -3800.00
00077               0.00    -3800.00
00078              -4.00    -3800.00
00079              -8.00    -3800.00
00080              -8.00    -3800.00
00081               2.00    -3800.00
00082               2.00    -3600.00
00083              -2.00    -3800.00
00084              -6.00    -3800.00
00085              -4.00    -3800.00
00086              -6.00    -3800.00
00087              -2.00    -3800.00
00088               2.00    -3800.00
00089               0.00    -3800.00
00090              -6.00    -3800.00
00091              -4.00    -3800.00
00092              -4.00    -3800.00
00093              -2.00    -3800.00
00094              -2.00    -3600.00
00095               0.00    -3800.00
00096               0.00    -3800.00
00097              -2.00    -3600.00
00098              -2.00    -3800.00
00099              -6.00    -3800.00
00100              -4.00    -3400.00
00101               0.00    -3400.00
00102               2.00    -3400.00
00103              -2.00    -3400.00
00104              -6.00    -3600.00
00105              -6.00    -3400.00
00106              -2.00    -3400.00
00107              -2.00    -3400.00
00108               6.00    -3400.00
00109               6.00    -3400.00
00110              -6.00    -3400.00
00111              -2.00    -3200.00
00112              -6.00    -3200.00
00113             -10.00    -3200.00
00114             -18.00    -3200.00
00115              -6.00    -3200.00
00116              16.00    -3000.00
00117              32.00    -3200.00
00118               6.00    -3200.00
00119             -16.00    -3000.00
00120             -24.00    -3000.00
00121             -16.00    -3000.00
00122               0.00    -2800.00
00123              14.00    -3000.00
00124               4.00    -2600.00
00125             -14.00    -2800.00
00126             -16.00    -2800.00
00127               6.00    -2600.00
00128              22.00    -2600.00
00129              14.00    -2600.00
00130             -14.00    -2600.00
00131             -30.00    -2600.00
00132             -20.00    -2600.00
00133               0.00    -2400.00
00134              18.00    -2400.00
00135              12.00    -2400.00
00136             -16.00    -2200.00
00137             -26.00    -2200.00
00138              -6.00    -2200.00
00139              22.00    -2200.00
00140              18.00    -2200.00
00141             -10.00    -2000.00
00142             -26.00    -1800.00
00143             -18.00    -1800.00
00144               2.00    -2000.00
00145              14.00    -1800.00
00146               6.00    -1600.00
00147             -10.00    -1600.00
00148             -18.00    -1600.00
00149              -4.00    -1600.00
00150              14.00    -1400.00
00151              14.00    -1400.00
00152              -8.00    -1400.00
00153             -26.00    -1400.00
00154             -20.00    -1200.00
00155               6.00    -1200.00
00156              20.00    -1000.00
00157               8.00    -1000.00
00158             -16.00    -1000.00
00159             -16.00    -1000.00
00160              -6.00     -800.00
00161               8.00     -800.00
00162               8.00     -800.00
00163              -8.00     -800.00
00164             -14.00     -800.00
00165             -10.00     -600.00
00166               0.00     -600.00
00167              10.00     -400.00
00168               2.00     -200.00
00169              -8.00     -600.00
00170             -14.00     -400.00
00171              -2.00     -200.00
00172               8.00        0.00
00173               6.00        0.00
00174              -4.00        0.00
00175             -14.00        0.00
00176             -10.00        0.00
00177               6.00      200.00
00178              10.00      200.00
00179               4.00      600.00
00180               0.00      400.00
00181               0.00      200.00
00182               0.00      600.00
00183               0.00      600.00
00184               0.00      600.00
00185               0.00      600.00
00186              40.00      800.00
00187             166.00     1200.00
00188              64.00     1200.00
00189            -254.00     1000.00
00190            -254.00      800.00
00191             246.00     1200.00
00192             246.00     1400.00
00193            -114.00     1200.00
00194            -254.00     1000.00
00195            -106.00     1600.00
00196             246.00     1600.00
00197             182.00     1600.00
00198            -254.00     1200.00
00199             -88.00     1800.00
00200             246.00     1800.00
00201             -80.00     1600.00
00202            -254.00     1400.00
00203             190.00     2200.00
00204             246.00     2000.00
00205            -254.00     1800.00
00206             -94.00     2200.00
00207             246.00     2200.00
00208             -72.00     2200.00
00209            -198.00     2000.00
00210             198.00     2400.00
00211              86.00     2200.00
00212            -248.00     2400.00
00213             -24.00     2400.00
00214             212.00     2600.00
00215             -24.00     2400.00
00216            -122.00     2600.00
00217               0.00     2600.00
00218              26.00     2600.00
00219              32.00     2600.00
00220              -6.00     2800.00
00221             -64.00     2800.00
00222              28.00     3000.00
00223              36.00     3000.00
00224             -80.00     3000.00
00225               6.00     3000.00
00226              74.00     3200.00
00227             -56.00     3000.00
00228             -32.00     3000.00
00229              70.00     3400.00
00230             -48.00     3200.00
00231             -54.00     3200.00
00232              78.00     3400.00
00233               8.00     3400.00
00234             -66.00     3400.00
00235              16.00     3600.00
00236              16.00     3600.00
00237             -18.00     3400.00
00238               6.00     3600.00
00239              -8.00     3600.00
00240              -6.00     3600.00
00241              10.00     3800.00
00242             -24.00     3800.00
00243              -8.00     3800.00
00244              26.00     3800.00
00245             -24.00     3800.00
00246             -16.00     3800.00
00247              30.00     4000.00
00248             -14.00     3800.00
00249             -26.00     3800.00
00250              22.00     4000.00
00251              -2.00     4000.00
00252             -24.00     4000.00
00253               8.00     4200.00
00254               6.00     4000.00
00255             -10.00     4000.00
00256              -2.00     4200.00
00257             -10.00     4000.00
00258              -6.00     4000.00
00259               4.00     4200.00
00260              -8.00     4000.00
00261              -2.00     4000.00
00262               0.00     4200.00
00263             -16.00     4200.00
00264              -8.00     4200.00
00265               6.00     4200.00
00266             -10.00     4000.00
00267              -8.00     4200.00
00268               8.00     4200.00
00269             -10.00     4200.00
00270             -16.00     4000.00
00271              -4.00     4200.00
00272               0.00     4200.00
00273               0.00     4200.00
00274              -2.00     4200.00
00275             -10.00     4200.00
00276              -8.00     4200.00
00277              -2.00     4200.00
00278              -8.00     4200.00
00279               0.00     4200.00
00280               2.00     4200.00
00281             -10.00     4000.00
00282              -8.00     4200.00
00283              -2.00     4200.00
00284             -10.00     4200.00
00285              -2.00     4200.00
00286               0.00     4000.00
00287             -10.00     4200.00
00288              -8.00     4000.00
00289               0.00     4000.00
00290              -8.00     4000.00
00291             -10.00     4000.00
00292              -2.00     4000.00
00293               0.00     4000.00
00294              -2.00     4000.00
00295              -8.00     3800.00
00296              -6.00     4000.00
00297              -2.00     3800.00
00298              -2.00     3800.00
00299              -4.00     4000.00
00300               0.00     3800.00
00301              -4.00     3800.00
00302              -8.00     3600.00
00303              -2.00     3800.00
00304              -6.00     3800.00
00305              -6.00     3400.00
00306              -2.00     3400.00
00307               2.00     3600.00
00308              -6.00     3800.00
00309              -8.00     3400.00
00310              -6.00     3400.00
00311              -2.00     3400.00
00312              -2.00     3400.00
00313              -2.00     3400.00
00314              -2.00     3400.00
00315              -2.00     3200.00
00316              -8.00     3200.00
00317              -6.00     3200.00
00318               0.00     3200.00
00319               0.00     3000.00
00320               0.00     3000.00
00321              -2.00     3000.00
00322              -2.00     3000.00
00323              -6.00     3000.00
00324              -2.00     3000.00
00325              -2.00     2800.00
00326              -4.00     2600.00
00327              -6.00     2600.00
00328              -4.00     2600.00
00329              -2.00     2600.00
00330              -4.00     2400.00
00331              -6.00     2400.00
00332              -2.00     2400.00
00333              -2.00     2400.00
00334              -2.00     2400.00
00335              -6.00     2400.00
00336              -2.00     2400.00
00337              -8.00     2200.00
00338              -6.00     2200.00
00339               0.00     2000.00
00340               0.00     1800.00
00341              -6.00     2000.00
00342              -6.00     1800.00
00343              -4.00     1600.00
00344              -6.00     1800.00
00345              -6.00     1600.00
00346               0.00     1800.00
00347              -2.00     1600.00
00348              -6.00     1400.00
00349              -6.00     1400.00
00350              -6.00     1400.00
00351              -2.00     1400.00
00352              -6.00     1200.00
00353              -6.00     1400.00
00354               0.00     1400.00
00355              -2.00     1000.00
00356              -8.00     1000.00
00357              -6.00      800.00
00358              -2.00      800.00
00359               0.00      800.00
00360              -2.00      800.00
00361              -4.00      800.00
00362              -2.00      600.00
00363              -2.00      600.00
00364              -4.00      600.00
00365              -2.00      400.00
00366              -2.00      600.00
00367               0.00      200.00
00368               0.00      200.00
00369               2.00      200.00
00370               0.00      200.00
00371               0.00        0.00
00372               6.00        0.00
00373               6.00        0.00
00374              -6.00     -200.00
00375              -8.00     -200.00
00376               0.00     -200.00
00377              16.00     -200.00
00378              72.00     -600.00
00379             154.00     -600.00
00380             -18.00     -800.00
00381            -254.00     -800.00
00382            -254.00     -400.00
00383             246.00     -600.00
00384             246.00     -800.00
00385            -242.00    -1200.00
00386            -254.00     -600.00
00387               0.00    -1000.00
00388             246.00    -1000.00
00389             110.00    -1000.00
00390            -254.00    -1000.00
00391            -126.00    -1400.00
00392             246.00    -1400.00
00393              70.00    -1000.00
00394            -216.00    -1400.00
00395              -8.00    -1600.00
00396              18.00    -1400.00
00397               6.00    -1400.00
00398              80.00    -1800.00
00399              14.00    -1800.00
00400            -210.00    -1800.00
00401              38.00    -1800.00
00402             230.00    -2000.00
00403             -50.00    -1800.00
00404            -226.00    -2000.00
00405              42.00    -2000.00
00406             168.00    -2200.00
00407             -12.00    -2200.00
00408            -102.00    -2400.00
00409             -42.00    -2200.00
00410              42.00    -2400.00
00411              52.00    -2400.00
00412             -10.00    -2400.00
00413             -62.00    -2400.00
00414              14.00    -2600.00
00415              18.00    -2400.00
00416             -18.00    -2600.00
00417             -10.00    -2600.00
00418              14.00    -2800.00
00419              -4.00    -2600.00
00420               6.00    -2800.00
00421              -6.00    -3000.00
00422             -38.00    -3000.00
00423               2.00    -3000.00
00424              42.00    -3000.00
00425              -6.00    -3000.00
00426             -48.00    -3000.00
00427               0.00    -3200.00
00428              26.00    -3200.00
00429               0.00    -3200.00
00430             -16.00    -3200.00
00431              -6.00    -3200.00
00432               6.00    -3200.00
00433               6.00    -3200.00
00434              -2.00    -3400.00
00435             -10.00    -3200.00
00436              -6.00    -3400.00
00437               2.00    -3400.00
00438               8.00    -3400.00
00439              -2.00    -3400.00
00440             -10.00    -3400.00
00441              -4.00    -3600.00
00442               6.00    -3400.00
00443              -2.00    -3400.00
00444              -8.00    -3600.00
00445               0.00    -3400.00
00446               6.00    -3400.00
00447               0.00    -3800.00
00448             -10.00    -3800.00
00449              -6.00    -3600.00
00450               0.00    -3800.00
00451               6.00    -3800.00
00452               0.00    -3800.00
00453              -2.00    -3800.00
00454              -8.00    -3800.00
00455              -6.00    -3800.00
00456              -2.00    -3800.00
00457              -2.00    -3800.00
00458              -2.00    -3800.00
00459               0.00    -3800.00
00460              -2.00    -4000.00
00461              -6.00    -3800.00
00462             -10.00    -3800.00
00463              -2.00    -3800.00
00464               2.00    -3800.00
00465               0.00    -3800.00
00466              -6.00    -3800.00
00467              -2.00    -4000.00
00468              -6.00    -3800.00
00469              -8.00    -3800.00
00470              -2.00    -3800.00
00471               0.00    -3800.00
00472               0.00    -3800.00
00473              -6.00    -3600.00
00474              -8.00    -3800.00
00475              -6.00    -3800.00
00476              -2.00    -3800.00
00477               0.00    -3400.00
00478              -2.00    -3600.00
00479              -6.00    -3600.00
00480              -6.00    -3600.00
00481              -6.00    -3800.00
00482              -2.00    -3400.00
00483              -2.00    -3600.00
00484               0.00    -3600.00
00485               0.00    -3400.00
00486              -2.00    -3400.00
00487              -6.00    -3400.00
00488               0.00    -3600.00
00489              -2.00    -3400.00
00490              -2.00    -3400.00
00491              -2.00    -3400.00
00492               0.00    -3200.00
00493              -2.00    -3200.00
00494              -2.00    -3400.00
00495              -4.00    -3200.00
00496              -2.00    -3200.00
00497              -2.00    -3200.00
00498               0.00    -3200.00
00499              -2.00    -3200.00
00500              -2.00    -3000.00
00501              -4.00    -3000.00
00502              -6.00    -3000.00
00503              -2.00    -3000.00
00504              -2.00    -3000.00
00505               0.00    -3000.00
00506               2.00    -2800.00
00507              -4.00    -2800.00
00508              -4.00    -2600.00
00509              -2.00    -2600.00
00510               0.00    -2600.00
00511               0.00    -2600.00
00512              -2.00    -2600.00
00513              -2.00    -2400.00
00514              -2.00    -2400.00
00515               0.00    -2400.00
00516               0.00    -2400.00
00517              -4.00    -2200.00
00518             -10.00    -2400.00
00519              -6.00    -2200.00
00520               6.00    -2200.00
00521               6.00    -2200.00
00522              -6.00    -2200.00
00523             -16.00    -2200.00
00524              -8.00    -2200.00
00525               6.00    -1800.00
00526               6.00    -1800.00
00527              -2.00    -1800.00
00528             -14.00    -1800.00
00529             -10.00    -1800.00
00530               0.00    -1600.00
00531               4.00    -1600.00
00532              -6.00    -1600.00
00533             -10.00    -1400.00
00534              -2.00    -1400.00
00535               4.00    -1400.00
00536              -2.00    -1200.00
00537             -14.00    -1200.00
00538             -10.00    -1200.00
00539               2.00    -1200.00
00540               6.00    -1000.00
00541              -6.00    -1000.00
00542             -10.00    -1000.00
00543             -10.00    -1000.00
00544               0.00     -800.00
00545               6.00     -800.00
00546               0.00     -600.00
00547              -8.00     -600.00
00548             -10.00     -600.00
00549              -2.00     -600.00
00550               2.00     -400.00
00551               0.00     -600.00
00552              -6.00     -200.00
00553              -6.00     -200.00
00554              -6.00     -200.00
00555              -2.00        0.00
00556              -2.00        0.00
00557              -2.00        0.00
00558              -2.00        0.00
00559              -2.00        0.00
00560               0.00      200.00
00561               2.00      400.00
00562               4.00      600.00
00563               6.00      400.00
00564               2.00      600.00
00565              -4.00      600.00
00566              -8.00      600.00
00567              -2.00      600.00
00568              14.00      800.00
00569             112.00     1000.00
00570             170.00     1200.00
00571            -176.00     1000.00
00572            -254.00      800.00
00573              -8.00     1200.00
00574             246.00     1400.00
00575             246.00     1600.00
00576            -254.00      800.00
00577            -254.00     1400.00
00578             246.00     1600.00
00579             246.00     1800.00
00580            -254.00     1000.00
00581            -254.00     1600.00
00582             246.00     2200.00
00583             246.00     1600.00
00584            -254.00     1400.00
00585            -130.00     2000.00
00586             246.00     2200.00
00587             -40.00     1800.00
00588            -254.00     1800.00
00589             144.00     2200.00
00590             158.00     2200.00
00591            -230.00     2200.00
00592               0.00     2200.00
00593             232.00     2400.00
00594            -126.00     2200.00
00595            -202.00     2400.00
00596             160.00     2800.00
00597             112.00     2400.00
00598            -116.00     2600.00
00599             -64.00     2800.00
00600              26.00     2600.00
00601              22.00     2400.00
00602              28.00     2800.00
00603             -42.00     2800.00
00604             -28.00     3000.00
00605              56.00     3000.00
00606             -32.00     3000.00
00607             -66.00     3000.00
00608              74.00     3200.00
00609              10.00     3200.00
00610             -78.00     3000.00
00611              40.00     3200.00
00612              26.00     3400.00
00613             -90.00     3200.00
00614              24.00     3400.00
00615              70.00     3400.00
00616             -52.00     3200.00
00617             -32.00     3400.00
00618              30.00     3400.00
00619              -8.00     3400.00
00620              -6.00     3400.00
00621               6.00     3800.00
00622             -16.00     3600.00
00623              10.00     3800.00
00624               0.00     3800.00
00625             -26.00     3800.00
00626              16.00     3800.00
00627               6.00     3800.00
00628             -32.00     3800.00
00629              14.00     3800.00
00630              14.00     4000.00
00631             -32.00     3800.00
00632               6.00     4000.00
00633              18.00     4000.00
00634             -24.00     3800.00
00635              -8.00     4000.00
00636              16.00     4000.00
00637              -8.00     4000.00
00638              -6.00     4000.00
00639              -8.00     4200.00
00640              -8.00     4000.00
00641               6.00     4000.00
00642               0.00     4200.00
00643             -10.00     4000.00
00644               6.00     4000.00
00645              -6.00     4000.00
00646             -16.00     4200.00
00647               6.00     4200.00
00648               0.00     4200.00
00649             -10.00     4000.00
00650               0.00     4200.00
00651               0.00     4200.00
00652             -10.00     4200.00
00653             -10.00     4200.00
00654              -2.00     4200.00
00655              -6.00     4200.00
00656               0.00     4200.00
00657               0.00     4200.00
00658              -8.00     4000.00
00659              -8.00     4000.00
00660             -10.00     4200.00
00661              -6.00     4000.00
00662               6.00     4000.00
00663               0.00     4200.00
00664             -10.00     4000.00
00665              -6.00     4200.00
00666             -10.00     4200.00
00667              -8.00     4000.00
00668               4.00     4200.00
00669               2.00     4200.00
00670             -10.00     4200.00
00671              -8.00     4000.00
00672              -8.00     4000.00
00673              -8.00     4000.00
00674              -2.00     4000.00
00675               0.00     4000.00
00676              -2.00     4000.00
00677              -2.00     4000.00
00678              -6.00     4000.00
00679              -6.00     4000.00
00680              -6.00     4000.00
00681              -6.00     3800.00
00682               0.00     3800.00
00683               2.00     3800.00
00684              -8.00     3800.00
00685             -10.00     3800.00
00686              -2.00     3800.00
00687              -6.00     3800.00
00688              -2.00     3600.00
00689               0.00     3600.00
00690              -2.00     3600.00
00691              -8.00     3400.00
00692              -6.00     3400.00
00693              -2.00     3400.00
00694               0.00     3200.00
00695              -2.00     3400.00
00696              -4.00     3200.00
00697              -2.00     3400.00
00698              -4.00     3200.00
00699              -6.00     3000.00
00700              -2.00     3200.00
00701              -2.00     3200.00
00702              -2.00     3000.00
00703              -2.00     3000.00
00704               0.00     3000.00
00705              -2.00     3200.00
00706              -6.00     3000.00
00707              -2.00     2800.00
00708              -2.00     2800.00
00709              -2.00     2800.00
00710              -2.00     2800.00
00711              -2.00     2600.00
00712              -6.00     2600.00
00713              -2.00     2600.00
00714              -2.00     2600.00
00715               0.00     2400.00
00716              -2.00     2400.00
00717             -10.00     2400.00
00718              -8.00     2200.00
00719               2.00     2200.00
00720               2.00     2200.00
00721              -2.00     2200.00
00722             -14.00     2000.00
00723             -16.00     2000.00
00724               0.00     2000.00
00725              10.00     1800.00
00726               2.00     1800.00
00727             -14.00     1600.00
00728             -16.00     1600.00
00729              -2.00     1600.00
00730               8.00     1400.00
00731               0.00     1400.00
00732             -10.00     1400.00
00733             -10.00     1400.00
00734               0.00     1400.00
00735               0.00     1200.00
00736              -8.00     1000.00
00737             -14.00     1200.00
00738              -6.00     1000.00
00739               6.00     1200.00
00740               4.00     1000.00
00741             -10.00      800.00
00742             -18.00      800.00
00743              -8.00      600.00
00744               6.00      800.00
00745               8.00      600.00
00746              -6.00      600.00
00747             -16.00      600.00
00748              -6.00      600.00
00749               2.00      200.00
00750               2.00      200.00
00751               0.00      200.00
00752              -4.00      200.00
00753              -2.00        0.00
00754               6.00        0.00
00755               8.00     -200.00
00756               0.00     -200.00
00757             -10.00     -200.00
00758              -8.00     -200.00
00759               4.00     -200.00
00760              32.00     -200.00
00761             128.00     -400.00
00762             112.00     -600.00
00763            -254.00     -800.00
00764            -254.00     -600.00
00765              94.00     -600.00
00766             246.00     -600.00
00767             246.00    -1000.00
00768            -254.00    -1000.00
00769            -254.00     -800.00
00770             246.00    -1000.00
00771             246.00    -1000.00
00772            -254.00    -1000.00
00773            -254.00    -1200.00
00774             246.00    -1200.00
00775             246.00    -1400.00
00776            -130.00    -1400.00
00777            -144.00    -1600.00
00778              60.00    -1400.00
00779             -14.00    -1600.00
00780              42.00    -1600.00
00781              82.00    -1800.00
00782            -134.00    -1600.00
00783            -126.00    -1600.00
00784             186.00    -1800.00
00785             134.00    -1800.00
00786            -216.00    -1800.00
00787            -110.00    -2000.00
00788             152.00    -2200.00
00789              96.00    -2200.00
00790             -94.00    -2200.00
00791             -74.00    -2200.00
00792              -2.00    -2200.00
00793              66.00    -2400.00
00794              26.00    -2400.00
00795             -50.00    -2400.00
00796             -30.00    -2400.00
00797              26.00    -2600.00
00798               2.00    -2600.00
00799             -26.00    -2600.00
00800               8.00    -2600.00
00801               2.00    -2600.00
00802               0.00    -2600.00
00803               6.00    -3000.00
00804             -24.00    -2800.00
00805             -30.00    -2800.00
00806              34.00    -2800.00
00807              30.00    -3000.00
00808             -40.00    -3000.00
00809             -30.00    -3000.00
00810              24.00    -3200.00
00811              16.00    -3000.00
00812             -16.00    -3200.00
00813             -12.00    -3200.00
00814               0.00    -3200.00
00815               8.00    -3200.00
00816               0.00    -3200.00
00817             -10.00    -3200.00
00818             -10.00    -3400.00
00819               2.00    -3400.00
00820               8.00    -3400.00
00821               2.00    -3400.00
00822             -10.00    -3400.00
00823             -10.00    -3400.00
00824               2.00    -3400.00
00825               2.00    -3400.00
00826              -6.00    -3600.00
00827              -8.00    -3600.00
00828               6.00    -3600.00
00829               4.00    -3600.00
00830              -8.00    -3800.00
00831              -8.00    -3600.00
00832               0.00    -3800.00
00833               0.00    -3600.00
00834               2.00    -3600.00
00835               0.00    -3800.00
00836              -2.00    -3800.00
00837              -6.00    -3800.00
00838              -2.00    -3800.00
00839               0.00    -3800.00
00840               2.00    -3800.00
00841               0.00    -3800.00
00842               0.00    -3800.00
00843              -2.00    -3800.00
00844              -6.00    -3800.00
00845              -8.00    -3800.00
00846               2.00    -3800.00
00847               2.00    -3800.00
00848              -2.00    -3800.00
00849              -2.00    -3800.00
00850              -6.00    -4000.00
00851              -6.00    -3800.00
00852              -2.00    -3800.00
00853               2.00    -4000.00
00854               0.00    -3800.00
00855              -2.00    -3800.00
00856              -6.00    -3800.00
00857              -6.00    -3800.00
00858              -4.00    -3800.00
00859              -2.00    -3800.00
00860               0.00    -3600.00
00861              -2.00    -3600.00
00862              -4.00    -3800.00
00863              -2.00    -3600.00
00864              -2.00    -3800.00
00865              -6.00    -3800.00
00866              -2.00    -3600.00
00867               0.00    -3600.00
00868              -2.00    -3400.00
00869              -4.00    -3400.00
00870              -4.00    -3400.00
00871              -2.00    -3400.00
00872              -6.00    -3400.00
00873               0.00    -3200.00
00874               0.00    -3400.00
00875              -2.00    -3200.00
00876              -6.00    -3400.00
00877              -6.00    -3200.00
00878              -2.00    -3200.00
00879              -2.00    -3000.00
00880              -2.00    -3200.00
00881               0.00    -3000.00
00882              -2.00    -3200.00
00883              -6.00    -3000.00
00884              -8.00    -3000.00
00885              -2.00    -3000.00
00886               0.00    -2800.00
00887               0.00    -3000.00
00888               0.00    -2800.00
00889              -2.00    -3000.00
00890              -4.00    -2600.00
00891              -6.00    -2600.00
00892               0.00    -2800.00
00893               2.00    -2600.00
00894               0.00    -2600.00
00895               0.00    -2600.00
00896              -2.00    -2600.00
00897              -2.00    -2600.00
00898              -2.00    -2400.00
00899              -2.00    -2400.00
00900               0.00    -2400.00
00901              -2.00    -2200.00
00902              -2.00    -2200.00
00903               0.00    -2200.00
00904              -2.00    -2200.00
00905              -2.00    -2000.00
00906              -2.00    -2000.00
00907               0.00    -2000.00
00908              -2.00    -1800.00
00909              -2.00    -1800.00
00910              -6.00    -1800.00
00911              -6.00    -1600.00
00912              -6.00    -1800.00
00913              -2.00    -1600.00
00914              -2.00    -1600.00
00915              -2.00    -1400.00
00916              -6.00    -1400.00
00917              -6.00    -1400.00
00918              -6.00    -1400.00
00919              -2.00    -1400.00
00920              -2.00    -1200.00
00921              -2.00    -1000.00
00922              -2.00    -1000.00
00923              -6.00    -1000.00
00924              -6.00    -1000.00
00925              -4.00     -800.00
00926              -2.00     -600.00
00927              -2.00     -800.00
00928              -2.00     -600.00
00929              -2.00     -600.00
00930              -6.00     -600.00
00931              -8.00     -600.00
00932              -2.00     -600.00
00933              -2.00     -400.00
00934              -2.00     -200.00
00935              -2.00     -200.00
00936              -6.00     -200.00
00937              -4.00        0.00
00938              -6.00        0.00
00939              -2.00        0.00
00940              -2.00      200.00
00941              -2.00      200.00
00942              -2.00      200.00
00943               0.00      200.00
00944               0.00      200.00
00945               0.00      400.00
00946               6.00      600.00
00947              -2.00      600.00
00948              -6.00      600.00
00949              -6.00      800.00
00950               2.00      800.00
00951              48.00      800.00
00952             174.00     1200.00
00953              56.00     1000.00
00954            -254.00      800.00
00955            -254.00      800.00
00956             246.00     1400.00
00957             246.00     1600.00
00958            -144.00     1000.00
00959            -254.00     1000.00
00960             -82.00     1600.00
00961             246.00     1800.00
00962             154.00     1400.00
00963            -254.00     1200.00
00964             -66.00     1800.00
00965             246.00     1800.00
00966             -96.00     1800.00
00967            -254.00     1600.00
00968             204.00     2200.00
00969             246.00     2200.00
00970            -254.00     1600.00
00971             -90.00     2200.00
00972             246.00     2400.00
00973             -74.00     2200.00
00974            -190.00     2200.00
00975             206.00     2400.00
00976              78.00     2400.00
00977            -250.00     2400.00
00978             -18.00     2400.00
00979             210.00     2800.00
00980             -26.00     2400.00
00981            -122.00     2600.00
00982               0.00     2600.00
00983              24.00     2600.00
00984              32.00     2800.00
00985              -4.00     3000.00
00986             -58.00     3000.00
00987              26.00     3000.00
00988              32.00     3000.00
00989             -82.00     3000.00
00990               8.00     3200.00
00991              74.00     3200.00
00992             -60.00     3000.00
00993             -34.00     3000.00
00994              70.00     3400.00
00995             -50.00     3400.00
00996             -54.00     3200.00
00997              78.00     3400.00
00998               8.00     3400.00
00999             -70.00     3200.00
01000              16.00     3400.00
01001              16.00     3400.00
01002             -18.00     3400.00
01003               0.00     3600.00
01004             -10.00     3600.00
01005              -6.00     3600.00
01006              14.00     3800.00
01007             -24.00     3800.00
01008              -8.00     3800.00
01009              22.00     3800.00
01010             -26.00     3800.00
01011             -14.00     4000.00
01012              30.00     4000.00
01013             -16.00     4000.00
01014             -26.00     4000.00
01015              20.00     3800.00
01016              -6.00     4000.00
01017             -22.00     3800.00
01018              12.00     4200.00
01019               2.00     4200.00
01020             -10.00     4000.00
01021              -2.00     4200.00
01022              -8.00     4200.00
01023               0.00     4000.00
01024               6.00     4000.00
01025             -10.00     4000.00
01026               0.00     4000.00
01027               6.00     4200.00
01028             -10.00     4200.00
01029              -8.00     4200.00
01030               8.00     4200.00
01031              -8.00     4200.00
01032              -4.00     4200.00
01033               8.00     4200.00
01034              -8.00     4200.00
01035             -14.00     4200.00
01036              -2.00     4200.00
01037               0.00     4200.00
01038              -2.00     4200.00
01039               0.00     4200.00
01040             -10.00     4200.00
01041              -8.00     4200.00
01042              -2.00     4200.00
01043              -6.00     4200.00
01044               2.00     4200.00
01045               0.00     4200.00
01046              -8.00     4000.00
01047              -8.00     4000.00
01048               0.00     4000.00
01049              -8.00     4200.00
01050              -2.00     4200.00
01051               0.00     4200.00
01052              -8.00     4000.00
01053              -8.00     4000.00
01054               0.00     4000.00
01055             -10.00     4000.00
01056              -8.00     4000.00
01057               0.00     4000.00
01058              -2.00     4000.00
01059              -6.00     4000.00
01060              -6.00     4000.00
01061              -2.00     4000.00
01062              -6.00     3800.00
01063              -8.00     4000.00
01064              -8.00     3800.00
01065               2.00     3800.00
01066               2.00     3800.00
01067              -6.00     3600.00
01068              -6.00     3800.00
01069              -6.00     3800.00
01070             -10.00     3800.00
01071               0.00     3800.00
01072               2.00     3800.00
01073              -4.00     3400.00
01074              -8.00     3400.00
01075             -10.00     3400.00
01076              -4.00     3400.00
01077               0.00     3400.00
01078               0.00     3200.00
01079               0.00     3400.00
01080              -8.00     3400.00
01081             -10.00     3200.00
01082              -2.00     3200.00
01083               0.00     3200.00
01084              -2.00     3000.00
01085              -8.00     3000.00
01086              -2.00     3000.00
01087               4.00     3000.00
01088               8.00     3000.00
01089               6.00     2800.00
01090               0.00     3000.00
01091             -16.00     2800.00
01092             -22.00     2600.00
01093             -16.00     2800.00
01094              -8.00     2600.00
01095              -2.00     2600.00
01096               8.00     2600.00
01097              14.00     2400.00
01098              10.00     2400.00
01099               0.00     2400.00
01100             -10.00     2200.00
01101             -16.00     2400.00
01102             -22.00     2200.00
01103             -12.00     2200.00
01104               6.00     2200.00
01105               8.00     2000.00
01106               2.00     2200.00
01107              -2.00     1800.00
01108              -4.00     1800.00
01109              -6.00     1800.00
01110              -6.00     1800.00
01111              -8.00     1600.00
01112              -8.00     1600.00
01113              -8.00     1400.00
01114              -6.00     1600.00
01115               0.00     1400.00
01116               0.00     1400.00
01117              -8.00     1400.00
01118             -10.00     1200.00
01119              -2.00     1000.00
01120               2.00     1200.00
01121               0.00     1200.00
01122              -6.00     1000.00
01123              -8.00      800.00
01124             -10.00      800.00
01125              -8.00      800.00
01126              -2.00      800.00
01127               0.00      600.00
01128              -2.00      400.00
01129              -6.00      600.00
01130               0.00      600.00
01131               0.00      200.00
01132              -6.00      200.00
01133             -10.00      200.00
01134             -10.00      200.00
01135              -2.00        0.00
01136               6.00        0.00
01137              14.00        0.00
01138               6.00     -200.00
01139              -8.00     -200.00
01140             -14.00     -200.00
01141              -6.00     -200.00
01142              10.00     -200.00
01143              74.00     -200.00
01144             154.00     -600.00
01145             -30.00     -800.00
01146            -254.00     -800.00
01147            -254.00     -400.00
01148             246.00     -600.00
01149             246.00     -800.00
01150            -254.00    -1000.00
01151            -254.00     -800.00
01152              32.00    -1000.00
01153             246.00    -1000.00
01154              80.00    -1200.00
01155            -254.00    -1000.00
01156            -104.00    -1000.00
01157             246.00    -1400.00
01158              54.00    -1200.00
01159            -216.00    -1400.00
01160               0.00    -1400.00
01161              22.00    -1600.00
01162              10.00    -1400.00
01163              80.00    -1800.00
01164               4.00    -1600.00
01165            -208.00    -1600.00
01166              48.00    -1800.00
01167             228.00    -1800.00
01168             -62.00    -1800.00
01169            -224.00    -1800.00
01170              48.00    -2200.00
01171             168.00    -2200.00
01172             -20.00    -2200.00
01173            -102.00    -2400.00
01174             -40.00    -2200.00
01175              48.00    -2200.00
01176              54.00    -2600.00
01177             -10.00    -2400.00
01178             -62.00    -2400.00
01179              14.00    -2600.00
01180              22.00    -2600.00
01181             -22.00    -2600.00
01182             -10.00    -2600.00
01183              12.00    -2800.00
01184              -2.00    -2600.00
01185               6.00    -2800.00
01186              -2.00    -2800.00
01187             -40.00    -2600.00
01188               4.00    -2800.00
01189              42.00    -3000.00
01190              -6.00    -3000.00
01191             -48.00    -3000.00
01192               2.00    -3200.00
01193              26.00    -3000.00
01194              -2.00    -3000.00
01195             -18.00    -3200.00
01196              -8.00    -3200.00
01197               6.00    -3200.00
01198               4.00    -3200.00
01199              -6.00    -3400.00
01200             -14.00    -3400.00
01201              -2.00    -3400.00
01202               6.00    -3400.00
01203               6.00    -3400.00
01204              -6.00    -3400.00
01205             -10.00    -3400.00
01206              -4.00    -3400.00
01207               6.00    -3400.00
01208               0.00    -3800.00
01209             -10.00    -3400.00
01210               0.00    -3800.00
01211               6.00    -3800.00
01212               0.00    -3600.00
01213              -8.00    -3800.00
01214              -6.00    -3800.00
01215               0.00    -3600.00
01216               0.00    -3800.00
01217               2.00    -3800.00
01218               0.00    -3600.00
01219              -6.00    -3800.00
01220              -6.00    -3800.00
01221              -2.00    -3800.00
01222               2.00    -3800.00
01223               0.00    -3800.00
01224               0.00    -3800.00
01225               0.00    -3800.00
01226              -6.00    -3800.00
01227              -8.00    -3800.00
01228               0.00    -3800.00
01229               6.00    -3800.00
01230               0.00    -3800.00
01231               0.00    -3800.00
01232              -2.00    -3800.00
01233              -2.00    -3800.00
01234              -6.00    -3800.00
01235               0.00    -3600.00
01236               2.00    -3800.00
01237               0.00    -3800.00
01238              -4.00    -3600.00
01239              -6.00    -3800.00
01240              -6.00    -3600.00
01241              -2.00    -3800.00
01242               0.00    -3600.00
01243               0.00    -3800.00
01244              -2.00    -3600.00
01245              -6.00    -3800.00
01246              -6.00    -3800.00
01247               0.00    -3600.00
01248              -4.00    -3600.00
01249               0.00    -3400.00
01250               0.00    -3600.00
01251              -6.00    -3600.00
01252              -4.00    -3400.00
01253              -2.00    -3400.00
01254              -2.00    -3400.00
01255              -6.00    -3400.00
01256              -2.00    -3400.00
01257              -2.00    -3400.00
01258              -2.00    -3200.00
01259              -4.00    -3400.00
01260              -2.00    -3200.00
01261              -6.00    -3200.00
01262              -4.00    -3200.00
01263              -2.00    -3200.00
01264               0.00    -3000.00
01265              -2.00    -3000.00
01266              -6.00    -3200.00
01267              -6.00    -3200.00
01268              -6.00    -3000.00
01269              -2.00    -3000.00
01270               2.00    -2800.00
01271               2.00    -3000.00
01272              -6.00    -2800.00
01273              -8.00    -2800.00
01274              -6.00    -2600.00
01275               2.00    -2800.00
01276               0.00    -2600.00
01277               0.00    -2600.00
01278              -2.00    -2600.00
01279              -4.00    -2600.00
01280              -6.00    -2600.00
01281              -2.00    -2400.00
01282               0.00    -2200.00
01283               0.00    -2400.00
01284              -6.00    -2200.00
01285              -2.00    -2200.00
01286               0.00    -2000.00
01287              -4.00    -2200.00
01288              -2.00    -2000.00
01289              -2.00    -2200.00
01290               0.00    -1800.00
01291               0.00    -1800.00
01292              -2.00    -1800.00
01293              -6.00    -1600.00
01294              -2.00    -1600.00
01295              -2.00    -1600.00
01296               0.00    -1600.00
01297               0.00    -1400.00
01298              -6.00    -1600.00
01299              -2.00    -1400.00
01300              -2.00    -1400.00
01301              -2.00    -1400.00
01302              -2.00    -1000.00
01303              -2.00    -1200.00
01304              -2.00    -1200.00
01305              -6.00    -1000.00
01306              -6.00    -1000.00
01307              -6.00    -1000.00
01308              -2.00     -800.00
01309              -6.00     -800.00
01310               0.00     -800.00
01311              -2.00     -600.00
01312              -6.00     -600.00
01313              -6.00     -600.00
01314              -6.00     -600.00
01315              -2.00     -600.00
01316              -2.00     -400.00
01317              -6.00     -200.00
01318              -4.00        0.00
01319              -2.00     -200.00
01320              -6.00        0.00
01321              -2.00        0.00
01322              -4.00        0.00
01323              -2.00        0.00
01324              -2.00      200.00
01325               0.00      200.00
01326              -2.00      400.00
01327               0.00      200.00
01328               6.00      400.00
01329               2.00      400.00
01330              -2.00      600.00
01331              -8.00      600.00
01332              -6.00      800.00
01333              14.00      800.00
01334             112.00     1000.00
01335             166.00     1000.00
01336            -192.00     1200.00
01337            -254.00      800.00
01338              10.00     1200.00
01339             246.00     1400.00
01340             246.00     1400.00
01341            -254.00      800.00
01342            -254.00     1400.00
01343             246.00     1600.00
01344             246.00     1800.00
01345            -254.00     1200.00
01346            -254.00     1600.00
01347             246.00     2000.00
01348             246.00     1800.00
01349            -254.00     1400.00
01350            -118.00     2000.00
01351             246.00     2400.00
01352             -50.00     1800.00
01353            -254.00     1600.00
01354             154.00     2400.00
01355             144.00     2200.00
01356            -230.00     2200.00
01357              14.00     2200.00
01358             230.00     2400.00
01359            -136.00     2200.00
01360            -192.00     2200.00
01361             170.00     2600.00
01362             112.00     2400.00
01363            -120.00     2600.00
01364             -64.00     2600.00
01365              30.00     2600.00
01366              26.00     2600.00
01367              32.00     3000.00
01368             -46.00     2600.00
01369             -26.00     3000.00
01370              56.00     3000.00
01371             -32.00     3000.00
01372             -62.00     3000.00
01373              78.00     3200.00
01374               8.00     3000.00
01375             -78.00     3200.00
01376              42.00     3200.00
01377              26.00     3400.00
01378             -90.00     3000.00
01379              26.00     3400.00
01380              66.00     3400.00
01381             -56.00     3200.00
01382             -32.00     3400.00
01383              32.00     3400.00
01384              -8.00     3600.00
01385              -8.00     3400.00
01386               2.00     3600.00
01387             -16.00     3400.00
01388               8.00     3600.00
01389              -2.00     3800.00
01390             -24.00     3800.00
01391              14.00     3800.00
01392               0.00     3800.00
01393             -34.00     3800.00
01394              16.00     3800.00
01395              14.00     4000.00
01396             -32.00     3800.00
01397               0.00     4000.00
01398              14.00     4000.00
01399             -24.00     3800.00
01400              -6.00     3800.00
01401              16.00     4000.00
01402              -8.00     4000.00
01403             -10.00     4000.00
01404              -8.00     4200.00
01405              -6.00     4000.00
01406               4.00     4000.00
01407              -2.00     4200.00
01408              -8.00     4000.00
01409               6.00     4200.00
01410              -6.00     4200.00
01411             -16.00     4000.00
01412               6.00     4000.00
01413               0.00     4200.00
01414             -10.00     4200.00
01415               2.00     4200.00
01416               0.00     4000.00
01417             -14.00     4200.00
01418              -6.00     4200.00
01419               0.00     4200.00
01420               0.00     4000.00
01421               0.00     4200.00
01422              -2.00     4200.00
01423              -8.00     4000.00
01424              -4.00     4200.00
01425              -4.00     4200.00
01426              -2.00     4000.00
01427               6.00     4200.00
01428              -2.00     4000.00
01429             -10.00     4200.00
01430              -2.00     4200.00
01431              -6.00     4200.00
01432              -8.00     4000.00
01433               2.00     4000.00
01434              -2.00     4200.00
01435             -10.00     4200.00
01436              -6.00     4200.00
01437              -2.00     4000.00
01438             -10.00     4000.00
01439              -4.00     4000.00
01440              -2.00     4000.00
01441              -2.00     4000.00
01442              -6.00     4000.00
01443              -6.00     3800.00
01444              -6.00     3800.00
01445              -6.00     4000.00
01446              -6.00     3800.00
01447               0.00     4000.00
01448               0.00     3800.00
01449              -8.00     3800.00
01450              -8.00     3800.00
01451              -2.00     3800.00
01452              -6.00     3800.00
01453              -8.00     3800.00
01454              -2.00     3600.00
01455              -2.00     3400.00
01456              -8.00     3600.00
01457              -6.00     3600.00
01458              -6.00     3400.00
01459              -6.00     3400.00
01460              -2.00     3400.00
01461               0.00     3400.00
01462              -2.00     3200.00
01463              -8.00     3200.00
01464             -10.00     3200.00
01465              -2.00     3200.00
01466              -2.00     3200.00
01467              -2.00     3200.00
01468              -4.00     3000.00
01469              -2.00     3000.00
01470              -4.00     3000.00
01471              -8.00     3000.00
01472              -2.00     3000.00
01473               0.00     3000.00
01474              -2.00     2800.00
01475              -6.00     2600.00
01476              -2.00     2600.00
01477              -6.00     2600.00
01478              -2.00     2600.00
01479               0.00     2400.00
01480               0.00     2400.00
01481              -2.00     2400.00
01482              -2.00     2400.00
01483              -2.00     2400.00
01484              -2.00     2400.00
01485              -8.00     2200.00
01486              -4.00     2200.00
01487               0.00     2200.00
01488               0.00     2200.00
01489              -4.00     1800.00
01490              -2.00     2000.00
01491              -6.00     1800.00
01492              -8.00     1800.00
01493               0.00     1800.00
01494               0.00     1600.00
01495               0.00     1600.00
01496              -8.00     1400.00
01497              -6.00     1400.00
01498              -2.00     1400.00
01499              -2.00     1400.00
01500              -4.00     1000.00
01501              -2.00     1400.00
01502              -6.00     1000.00
01503              -6.00     1200.00
01504              -8.00     1000.00
01505              -2.00      800.00
01506               0.00      800.00
01507              -6.00      800.00
01508              -6.00      800.00
01509              -2.00      600.00
01510              -2.00      600.00
01511              -6.00      600.00
01512              -8.00      600.00
01513              -2.00      200.00
01514              -4.00      400.00
01515              -2.00      200.00
01516              -2.00      200.00
01517               0.00      200.00
01518              -2.00      200.00
01519               6.00        0.00
01520               6.00        0.00
01521              -2.00        0.00
01522             -10.00     -200.00
01523              -6.00     -200.00
01524               6.00     -200.00
01525              32.00     -400.00
01526             128.00     -400.00
01527             106.00     -800.00
01528            -254.00     -800.00
01529            -254.00     -600.00
01530             112.00     -200.00
01531             246.00     -800.00
01532             246.00    -1000.00
01533            -254.00    -1000.00
01534            -254.00     -800.00
01535             246.00    -1000.00
01536             246.00    -1000.00
01537            -254.00    -1000.00
01538            -254.00    -1000.00
01539             246.00    -1200.00
01540             246.00    -1400.00
01541            -142.00    -1400.00
01542            -138.00    -1600.00
01543              62.00    -1400.00
01544             -14.00    -1600.00
01545              46.00    -1600.00
01546              86.00    -1800.00
01547            -140.00    -1800.00
01548            -114.00    -1600.00
01549             192.00    -1800.00
01550             128.00    -2000.00
01551            -218.00    -2000.00
01552            -102.00    -1800.00
01553             158.00    -2200.00
01554              96.00    -2200.00
01555             -94.00    -2200.00
01556             -74.00    -2400.00
01557               2.00    -2200.00
01558              66.00    -2200.00
01559              28.00    -2400.00
01560             -50.00    -2400.00
01561             -26.00    -2400.00
01562              26.00    -2400.00
01563               0.00    -2600.00
01564             -26.00    -2600.00
01565              14.00    -2800.00
01566               0.00    -2600.00
01567               0.00    -2600.00
01568               2.00    -3000.00
01569             -24.00    -2800.00
01570             -26.00    -3000.00
01571              38.00    -3000.00
01572              28.00    -3000.00
01573             -42.00    -3000.00
01574             -26.00    -3000.00
01575              24.00    -3000.00
01576              16.00    -3000.00
01577             -16.00    -3000.00
01578             -12.00    -3200.00
01579               0.00    -3200.00
01580               8.00    -3200.00
01581               0.00    -3200.00
01582             -10.00    -3400.00
01583             -14.00    -3400.00
01584               0.00    -3400.00
01585               8.00    -3400.00
01586               2.00    -3400.00
01587              -8.00    -3400.00
01588             -10.00    -3600.00
01589               2.00    -3400.00
01590               4.00    -3400.00
01591              -8.00    -3400.00
01592              -6.00    -3400.00
01593               6.00    -3800.00
01594               2.00    -3600.00
01595             -10.00    -3600.00
01596              -6.00    -3800.00
01597              -2.00    -3800.00
01598               0.00    -3800.00
01599               2.00    -3800.00
01600               0.00    -3800.00
01601              -6.00    -3800.00
01602              -6.00    -3800.00
01603              -2.00    -3800.00
01604               0.00    -3800.00
01605               2.00    -4000.00
01606              -2.00    -3800.00
01607               0.00    -3800.00
01608              -2.00    -3800.00
01609              -6.00    -3800.00
01610              -6.00    -3800.00
01611               2.00    -4000.00
01612               4.00    -3800.00
01613               0.00    -3800.00
01614              -2.00    -3800.00
01615              -4.00    -3800.00
01616              -8.00    -3800.00
01617               0.00    -3800.00
01618               2.00    -3800.00
01619               0.00    -3600.00
01620              -2.00    -3800.00
01621              -2.00    -3600.00
01622              -2.00    -3800.00
01623              -2.00    -3800.00
01624               0.00    -3800.00
01625               0.00    -3800.00
01626               0.00    -3600.00
01627              -6.00    -3800.00
01628              -2.00    -3600.00
01629              -6.00    -3800.00
01630              -2.00    -3400.00
01631              -2.00    -3600.00
01632               0.00    -3400.00
01633              -2.00    -3400.00
01634              -4.00    -3400.00
01635              -6.00    -3400.00
01636              -6.00    -3600.00
01637              -2.00    -3400.00
01638              -2.00    -3200.00
01639               0.00    -3400.00
01640               0.00    -3400.00
01641              -6.00    -3400.00
01642              -6.00    -3400.00
01643              -2.00    -3200.00
01644              -6.00    -3200.00
01645              -2.00    -3200.00
01646               0.00    -3200.00
01647              -2.00    -3000.00
01648              -6.00    -3000.00
01649              -6.00    -3000.00
01650              -6.00    -3000.00
01651              -2.00    -3000.00
01652               0.00    -2800.00
01653               0.00    -3000.00
01654              -2.00    -3000.00
01655              -6.00    -2800.00
01656              -6.00    -2600.00
01657              -2.00    -2600.00
01658               0.00    -2600.00
01659              -2.00    -2600.00
01660              -2.00    -2600.00
01661              -4.00    -2600.00
01662              -6.00    -2400.00
01663              -6.00    -2400.00
01664              -2.00    -2400.00
01665              -2.00    -2200.00
01666              -2.00    -2200.00
01667              -2.00    -2200.00
01668              -4.00    -2200.00
01669              -6.00    -2200.00
01670              -6.00    -2000.00
01671               0.00    -2000.00
01672               0.00    -1800.00
01673              -2.00    -1800.00
01674              -2.00    -1800.00
01675              -6.00    -1800.00
01676              -6.00    -1600.00
01677              -6.00    -1600.00
01678               0.00    -1400.00
01679               0.00    -1600.00
01680              -2.00    -1600.00
01681              -6.00    -1400.00
01682              -4.00    -1200.00
01683              -4.00    -1400.00
01684              -2.00    -1200.00
01685               0.00    -1000.00
01686               0.00    -1000.00
01687              -2.00    -1000.00
01688              -6.00    -1000.00
01689              -2.00    -1000.00
01690              -2.00     -800.00
01691              -2.00     -800.00
01692              -6.00     -800.00
01693              -2.00     -800.00
01694              -2.00     -800.00
01695              -6.00     -600.00
01696              -6.00     -600.00
01697              -2.00     -600.00
01698              -2.00     -400.00
01699              -2.00     -600.00
01700              -2.00     -200.00
01701              -2.00     -200.00
01702              -6.00     -200.00
01703              -6.00        0.00
01704              -6.00        0.00
01705              -2.00        0.00
01706              -2.00        0.00
01707              -2.00        0.00
01708               0.00      200.00
01709               0.00      200.00
01710               2.00      200.00
01711               6.00      400.00
01712              -2.00      600.00
01713              -8.00      600.00
01714              -8.00      600.00
01715               0.00      800.00
01716              52.00      800.00
01717             174.00     1000.00
01718              48.00     1200.00
01719            -254.00      800.00
01720            -254.00      800.00
01721             246.00     1200.00
01722             246.00     1600.00
01723            -176.00     1200.00
01724            -254.00      800.00
01725             -54.00     1600.00
01726             246.00     1600.00
01727             122.00     1400.00
01728            -254.00     1200.00
01729             -44.00     1800.00
01730             246.00     1800.00
01731            -118.00     1600.00
01732            -254.00     1600.00
01733             216.00     2200.00
01734             246.00     2000.00
01735            -254.00     1600.00
01736             -78.00     2200.00
01737             246.00     2200.00
01738             -86.00     2200.00
01739            -184.00     2200.00
01740             210.00     2400.00
01741              66.00     2200.00
01742            -248.00     2200.00
01743              -8.00     2600.00
01744             214.00     2600.00
01745             -32.00     2400.00
01746            -118.00     2600.00
01747               6.00     2800.00
01748              24.00     2600.00
01749              34.00     2600.00
01750              -2.00     2600.00
01751             -58.00     3000.00
01752              30.00     3000.00
01753              32.00     3000.00
01754             -80.00     3000.00
01755              14.00     3200.00
01756              72.00     3200.00
01757             -62.00     3000.00
01758             -26.00     3000.00
01759              70.00     3200.00
01760             -56.00     3200.00
01761             -48.00     3200.00
01762              78.00     3400.00
01763               6.00     3200.00
01764             -70.00     3400.00
01765              16.00     3400.00
01766              16.00     3400.00
01767             -16.00     3400.00
01768               2.00     3800.00
01769             -10.00     3600.00
01770              -6.00     3600.00
01771              10.00     3800.00
01772             -22.00     3800.00
01773              -6.00     3800.00
01774              20.00     3800.00
01775             -26.00     3800.00
01776             -14.00     3800.00
01777              28.00     3800.00
01778             -16.00     3800.00
01779             -24.00     3800.00
01780              18.00     4000.00
01781              -8.00     3800.00
01782             -24.00     3800.00
01783              10.00     4000.00
01784               2.00     4000.00
01785             -12.00     4000.00
01786              -8.00     4000.00
01787              -8.00     4000.00
01788               0.00     4200.00
01789               6.00     4200.00
01790             -10.00     4200.00
01791              -2.00     4200.00
01792               2.00     4200.00
01793             -16.00     4200.00
01794              -6.00     4200.00
01795               6.00     4200.00
01796              -8.00     4200.00
01797              -6.00     4200.00
01798               8.00     4200.00
01799              -8.00     4200.00
01800             -14.00     4200.00
01801               0.00     4200.00
01802               0.00     4200.00
01803               0.00     4200.00
01804               0.00     4200.00
01805              -8.00     4200.00
01806              -8.00     4200.00
01807              -2.00     4200.00
01808              -6.00     4200.00
01809               2.00     4200.00
01810               0.00     4200.00
01811              -8.00     4000.00
01812              -6.00     4200.00
01813              -2.00     4000.00
01814             -10.00     4200.00
01815              -2.00     4200.00
01816               4.00     4000.00
01817              -6.00     3800.00
01818              -6.00     4200.00
01819              -2.00     4000.00
01820             -10.00     4000.00
01821              -8.00     4000.00
01822               0.00     4000.00
01823               0.00     3800.00
01824              -6.00     3800.00
01825             -10.00     4000.00
01826              -8.00     3800.00
01827              -2.00     3800.00
01828              -2.00     3800.00
01829              -4.00     3800.00
01830               0.00     3800.00
01831              -4.00     3800.00
01832              -8.00     3800.00
01833              -6.00     3800.00
01834              -2.00     3800.00
01835              -6.00     3400.00
01836              -2.00     3800.00
01837              -2.00     3800.00
01838              -6.00     3400.00
01839              -8.00     3400.00
01840              -2.00     3400.00
01841              -6.00     3400.00
01842              -6.00     3400.00
01843              -2.00     3400.00
01844               0.00     3200.00
01845              -2.00     3400.00
01846              -8.00     3200.00
01847              -8.00     3000.00
01848              -2.00     3200.00
01849               0.00     3000.00
01850              -2.00     3200.00
01851              -2.00     3000.00
01852              -6.00     3000.00
01853              -8.00     3000.00
01854              -4.00     3000.00
01855               0.00     3000.00
01856              -2.00     3000.00
01857              -6.00     2800.00
01858              -6.00     2600.00
01859              -2.00     2600.00
01860              -6.00     2600.00
01861              -2.00     2600.00
01862               0.00     2600.00
01863              -2.00     2400.00
01864              -6.00     2200.00
01865              -2.00     2400.00
01866              -2.00     2200.00
01867              -6.00     2200.00
01868              -8.00     2000.00
01869               0.00     2200.00
01870               0.00     2200.00
01871              -6.00     2200.00
01872              -2.00     1800.00
01873              -2.00     1800.00
01874              -4.00     1800.00
01875              -2.00     1800.00
01876               0.00     1600.00
01877               0.00     1600.00
01878              -4.00     1600.00
01879              -6.00     1400.00
01880              -2.00     1400.00
01881               0.00     1400.00
01882              -4.00     1200.00
01883              -2.00     1400.00
01884               0.00     1200.00
01885              -2.00     1200.00
01886              -6.00     1000.00
01887              -6.00     1000.00
01888              -2.00     1000.00
01889              -2.00      800.00
01890              -2.00      800.00
01891              -6.00      800.00
01892              -2.00      600.00
01893              -2.00      600.00
01894              -6.00      600.00
01895              -4.00      400.00
01896               0.00      200.00
01897              -2.00      200.00
01898               0.00      200.00
01899              -2.00      200.00
01900               0.00        0.00
01901               2.00        0.00
01902               6.00     -200.00
01903               0.00        0.00
01904              -8.00     -200.00
01905             -10.00        0.00
01906               0.00     -200.00
01907              12.00     -400.00
01908              76.00     -200.00
01909             152.00     -600.00
01910             -42.00     -800.00
01911            -254.00     -800.00
01912            -250.00     -400.00
01913             246.00     -600.00
01914             246.00     -800.00
01915            -254.00    -1000.00
01916            -254.00     -600.00
01917              56.00    -1000.00
01918             246.00    -1000.00
01919              54.00    -1000.00
01920            -254.00    -1000.00
01921             -82.00    -1200.00
01922             246.00    -1400.00
01923              48.00    -1200.00
01924            -218.00    -1600.00
01925               8.00    -1600.00
01926              22.00    -1400.00
01927              10.00    -1400.00
01928              80.00    -1600.00
01929               0.00    -1600.00
01930            -206.00    -1800.00
01931              58.00    -1800.00
01932             226.00    -2200.00
01933             -72.00    -1800.00
01934            -224.00    -2000.00
01935              56.00    -2200.00
01936             168.00    -2200.00
01937             -22.00    -2200.00
01938            -102.00    -2400.00
01939             -38.00    -2200.00
01940              50.00    -2200.00
01941              54.00    -2600.00
01942             -10.00    -2400.00
01943             -58.00    -2400.00
01944              14.00    -2600.00
01945              22.00    -2600.00
01946             -18.00    -2600.00
01947             -10.00    -2600.00
01948              14.00    -2600.00
01949              -2.00    -2800.00
01950               6.00    -2800.00
01951               0.00    -2800.00
01952             -38.00    -3000.00
01953               6.00    -3000.00
01954              46.00    -3000.00
01955              -8.00    -3000.00
01956             -48.00    -3000.00
01957               0.00    -3200.00
01958              26.00    -3200.00
01959              -6.00    -3200.00
01960             -18.00    -3200.00
01961              -6.00    -3400.00
01962               6.00    -3200.00
01963               2.00    -3200.00
01964              -6.00    -3400.00
01965             -16.00    -3400.00
01966              -6.00    -3400.00
01967               6.00    -3400.00
01968               4.00    -3400.00
01969              -6.00    -3400.00
01970             -12.00    -3600.00
01971              -4.00    -3400.00
01972               6.00    -3400.00
01973              -2.00    -3400.00
01974             -10.00    -3400.00
01975              -2.00    -3600.00
01976               2.00    -3800.00
01977              -2.00    -3800.00
01978             -10.00    -3800.00
01979              -6.00    -3600.00
01980              -2.00    -3800.00
01981               2.00    -3600.00
01982               2.00    -3800.00
01983              -6.00    -3800.00
01984              -8.00    -3800.00
01985              -6.00    -3800.00
01986               0.00    -3800.00
01987               0.00    -3800.00
01988              -4.00    -3800.00
01989              -6.00    -3800.00
01990               0.00    -3800.00
01991              -2.00    -3800.00
01992              -6.00    -3800.00
01993              -2.00    -3800.00
01994               0.00    -3800.00
01995               2.00    -3800.00
01996               0.00    -3800.00
01997              -2.00    -3800.00
01998              -6.00    -3800.00
01999              -6.00    -3800.00
02000               0.00    -3800.00
02001               6.00    -3600.00
02002               2.00    -4000.00
02003              -2.00    -3600.00
02004              -6.00    -3800.00
02005             -10.00    -3800.00
02006               0.00    -3800.00
02007               6.00    -3800.00
02008               2.00    -3800.00
02009              -4.00    -3600.00
02010              -6.00    -3600.00
02011              -2.00    -3800.00
02012              -2.00    -3600.00
02013              -2.00    -3400.00
02014              -2.00    -3600.00
02015               2.00    -3400.00
02016              -2.00    -3600.00
02017              -6.00    -3400.00
02018              -2.00    -3400.00
02019              -2.00    -3400.00
02020              -4.00    -3400.00
02021              -2.00    -3400.00
02022              -2.00    -3200.00
02023              -2.00    -3400.00
02024              -4.00    -3400.00
02025              -4.00    -3200.00
02026              -6.00    -3200.00
02027              -6.00    -3200.00
02028              -2.00    -3200.00
02029               0.00    -3000.00
02030              -6.00    -3200.00
02031              -8.00    -3000.00
02032              -8.00    -3200.00
02033              -2.00    -3000.00
02034              -2.00    -3000.00
02035               0.00    -2800.00
02036              -2.00    -3000.00
02037              -4.00    -2600.00
02038              -6.00    -2600.00
02039              -4.00    -2600.00
02040               0.00    -2600.00
02041               0.00    -2600.00
02042               0.00    -2600.00
02043              -6.00    -2600.00
02044              -4.00    -2600.00
02045              -6.00    -2400.00
02046              -2.00    -2400.00
02047              -2.00    -2200.00
02048              -2.00    -2400.00
02049              -2.00    -2200.00
02050              -4.00    -2200.00
02051              -2.00    -2200.00
02052              -2.00    -2200.00
02053              -2.00    -2200.00
02054              -2.00    -1800.00
02055              -6.00    -2000.00
02056              -2.00    -1800.00
02057               0.00    -1800.00
02058              -2.00    -1600.00
02059              -6.00    -1600.00
02060              -6.00    -1600.00
02061              -2.00    -1600.00
02062               4.00    -1400.00
02063              -2.00    -1400.00
02064              -6.00    -1400.00
02065              -4.00    -1400.00
02066              -2.00    -1200.00
02067              -2.00    -1400.00
02068               0.00    -1000.00
02069               0.00    -1000.00
02070              -4.00    -1000.00
02071              -2.00    -1000.00
02072              -2.00     -800.00
02073               0.00     -800.00
02074              -2.00     -800.00
02075               0.00     -600.00
02076               0.00     -600.00
02077               0.00     -600.00
02078              -2.00     -600.00
02079              -6.00     -600.00
02080              -4.00     -600.00
02081               0.00     -200.00
02082               0.00     -200.00
02083               0.00     -200.00
02084              -6.00     -200.00
02085              -8.00     -200.00
02086              -8.00        0.00
02087               0.00        0.00
02088               0.00      200.00
02089              -2.00      200.00
02090              -2.00      200.00
02091              -2.00      200.00
02092               0.00      200.00
02093               6.00      400.00
02094               2.00      600.00
02095              -8.00      600.00
02096             -10.00      600.00
02097              -6.00      600.00
02098              16.00      800.00
02099             116.00     1000.00
02100             166.00     1200.00
02101            -208.00     1000.00
02102            -254.00      800.00
02103              34.00     1200.00
02104             246.00     1400.00
02105             246.00     1400.00
02106            -254.00      800.00
02107            -254.00     1400.00
02108             246.00     1600.00
02109             246.00     1800.00
02110            -254.00     1000.00
02111            -254.00     1600.00
02112             246.00     1800.00
02113             246.00     1800.00
02114            -254.00     1400.00
02115             -98.00     2000.00
02116             246.00     2200.00
02117             -66.00     1800.00
02118            -254.00     1800.00
02119             162.00     2200.00
02120             136.00     2200.00
02121            -234.00     2000.00
02122              22.00     2400.00
02123             226.00     2400.00
02124            -142.00     2200.00
02125            -192.00     2400.00
02126             174.00     2600.00
02127             102.00     2400.00
02128            -120.00     2600.00
02129             -54.00     2800.00
02130              30.00     2600.00
02131              22.00     2600.00
02132              28.00     3000.00
02133             -42.00     2800.00
02134             -24.00     3000.00
02135              56.00     3000.00
02136             -32.00     3000.00
02137             -60.00     3000.00
02138              74.00     3200.00
02139               2.00     3200.00
02140             -74.00     3000.00
02141              48.00     3400.00
02142              24.00     3200.00
02143             -90.00     3200.00
02144              26.00     3400.00
02145              64.00     3400.00
02146             -56.00     3200.00
02147             -28.00     3400.00
02148              30.00     3600.00
02149              -8.00     3400.00
02150             -10.00     3400.00
02151               0.00     3600.00
02152             -14.00     3600.00
02153              10.00     3800.00
02154              -8.00     3800.00
02155             -26.00     3800.00
02156              16.00     3800.00
02157               2.00     3800.00
02158             -32.00     3800.00
02159              16.00     4000.00
02160              10.00     3800.00
02161             -34.00     3800.00
02162               4.00     3800.00
02163              14.00     4000.00
02164             -26.00     3800.00
02165              -6.00     4000.00
02166              10.00     4200.00
02167             -10.00     3800.00
02168              -8.00     4000.00
02169              -6.00     4200.00
02170              -8.00     4000.00
02171               0.00     4000.00
02172              -6.00     4200.00
02173             -10.00     4000.00
02174               6.00     4000.00
02175              -8.00     4200.00
02176             -16.00     4200.00
02177               8.00     4200.00
02178               0.00     4200.00
02179             -16.00     4200.00
02180               0.00     4200.00
02181               0.00     4200.00
02182             -10.00     4200.00
02183              -4.00     4200.00
02184               0.00     4200.00
02185              -6.00     4200.00
02186               0.00     4200.00
02187              -2.00     4200.00
02188              -8.00     4200.00
02189              -8.00     4000.00
02190              -6.00     4200.00
02191              -2.00     4000.00
02192               6.00     4200.00
02193              -6.00     4200.00
02194              -8.00     4000.00
02195              -2.00     4000.00
02196              -8.00     4200.00
02197             -10.00     4200.00
02198               4.00     4200.00
02199               0.00     4000.00
02200              -8.00     4000.00
02201              -4.00     4000.00
02202              -8.00     4200.00
02203             -10.00     4000.00
02204               0.00     4000.00
02205               2.00     3800.00
02206              -2.00     4000.00
02207             -10.00     4000.00
02208              -6.00     4000.00
02209              -4.00     3800.00
02210              -2.00     3800.00
02211              -4.00     3800.00
02212              -2.00     3800.00
02213               0.00     3800.00
02214             -10.00     3800.00
02215              -8.00     3800.00
02216              -2.00     3800.00
02217              -6.00     3600.00
02218              -6.00     3600.00
02219               0.00     3800.00
02220               0.00     3400.00
02221             -10.00     3400.00
02222              -8.00     3400.00
02223              -6.00     3400.00
02224              -2.00     3400.00
02225              -2.00     3400.00
02226              -6.00     3400.00
02227              -4.00     3200.00
02228              -8.00     3200.00
02229              -8.00     3200.00
02230              -2.00     3000.00
02231              -2.00     3000.00
02232              -6.00     3200.00
02233              -2.00     3000.00
02234              -2.00     3000.00
02235              -6.00     3000.00
02236              -8.00     3000.00
02237              -6.00     2800.00
02238             -10.00     2800.00
02239              -6.00     2800.00
02240               0.00     2800.00
02241               0.00     2600.00
02242             -12.00     2600.00
02243             -12.00     2400.00
02244               0.00     2600.00
02245              14.00     2600.00
02246               2.00     2400.00
02247             -14.00     2400.00
02248             -20.00     2200.00
02249              -2.00     2400.00
02250               8.00     2200.00
02251               6.00     2200.00
02252              -6.00     2200.00
02253             -16.00     1800.00
02254             -10.00     2000.00
02255               4.00     1800.00
02256               6.00     1800.00
02257              -8.00     1800.00
02258              -8.00     1800.00
02259               2.00     1600.00
02260               0.00     1600.00
02261             -10.00     1600.00
02262             -14.00     1600.00
02263               0.00     1400.00
02264              10.00     1400.00
02265               6.00     1200.00
02266             -10.00     1200.00
02267             -14.00     1200.00
02268              -8.00     1000.00
02269               4.00     1200.00
02270               8.00     1000.00
02271              -4.00      800.00
02272             -14.00      800.00
02273              -8.00      800.00
02274               4.00      600.00
02275               6.00      600.00
02276              -6.00      600.00
02277             -10.00      600.00
02278              -8.00      200.00
02279               0.00      200.00
02280               2.00      200.00
02281               0.00      200.00
02282              -2.00      200.00
02283               0.00      200.00
02284               2.00        0.00
02285               6.00        0.00
02286              -2.00     -200.00
02287              -8.00     -200.00
02288              -8.00     -200.00
02289               2.00     -200.00
02290              32.00     -200.00
02291             128.00     -400.00
02292             102.00     -600.00
02293            -254.00     -800.00
02294            -254.00     -400.00
02295             134.00     -600.00
02296             246.00     -600.00
02297             246.00    -1000.00
02298            -254.00    -1000.00
02299            -254.00     -800.00
02300             246.00    -1000.00
02301             246.00     -800.00
02302            -254.00    -1200.00
02303            -254.00    -1200.00
02304             246.00    -1400.00
02305             246.00    -1400.00
02306            -150.00    -1400.00
02307            -130.00    -1600.00
02308              58.00    -1400.00
02309             -16.00    -1400.00
02310              46.00    -1600.00
02311              88.00    -1800.00
02312            -150.00    -1600.00
02313            -112.00    -1600.00
02314             194.00    -2000.00
02315             118.00    -1800.00
02316            -224.00    -1800.00
02317             -94.00    -2000.00
02318             160.00    -2000.00
02319              86.00    -2200.00
02320             -98.00    -2200.00
02321             -66.00    -2200.00
02322               6.00    -2200.00
02323              58.00    -2400.00
02324              28.00    -2400.00
02325             -46.00    -2400.00
02326             -30.00    -2600.00
02327              26.00    -2600.00
02328               8.00    -2600.00
02329             -26.00    -2600.00
02330               8.00    -2600.00
02331               2.00    -2600.00
02332               0.00    -2600.00
02333               2.00    -2800.00
02334             -24.00    -2800.00
02335             -24.00    -2800.00
02336              34.00    -3000.00
02337              30.00    -3000.00
02338             -38.00    -3000.00
02339             -28.00    -3000.00
02340              22.00    -3000.00
02341              18.00    -3000.00
02342             -16.00    -3200.00
02343             -14.00    -3200.00
02344               0.00    -3400.00
02345               6.00    -3200.00
02346               0.00    -3200.00
02347             -10.00    -3200.00
02348             -14.00    -3400.00
02349               0.00    -3400.00
02350               8.00    -3400.00
02351               0.00    -3600.00
02352             -14.00    -3600.00
02353             -10.00    -3400.00
02354               2.00    -3600.00
02355               6.00    -3600.00
02356             -10.00    -3400.00
02357             -10.00    -3600.00
02358               2.00    -3800.00
02359               2.00    -3400.00
02360             -10.00    -3600.00
02361              -8.00    -3400.00
02362               0.00    -3800.00
02363              -2.00    -3600.00
02364              -2.00    -3800.00
02365              -2.00    -3800.00
02366              -2.00    -3800.00
02367              -6.00    -3800.00
02368              -6.00    -3800.00
02369              -4.00    -4000.00
02370              -2.00    -3800.00
02371               0.00    -3800.00
02372               0.00    -3800.00
02373              -2.00    -3800.00
02374             -10.00    -3800.00
02375              -6.00    -3800.00
02376               2.00    -3800.00
02377               4.00    -3800.00
02378              -2.00    -3800.00
02379              -4.00    -3800.00
02380              -6.00    -3800.00
02381             -10.00    -3800.00
02382              -2.00    -3800.00
02383               6.00    -3800.00
02384               0.00    -3600.00
02385              -6.00    -3800.00
02386              -2.00    -3800.00
02387              -6.00    -3800.00
02388              -2.00    -3600.00
02389               0.00    -3800.00
02390               2.00    -3800.00
02391               0.00    -3600.00
02392              -2.00    -3800.00
02393              -2.00    -3400.00
02394               0.00    -3600.00
02395              -2.00    -3600.00
02396              -2.00    -3400.00
02397               0.00    -3600.00
02398               0.00    -3400.00
02399              -2.00    -3400.00
02400              -2.00    -3400.00
02401              -6.00    -3400.00
02402              -2.00    -3400.00
02403               2.00    -3400.00
02404               2.00    -3200.00
02405              -2.00    -3400.00
02406              -6.00    -3400.00
02407              -2.00    -3200.00
02408               0.00    -3200.00
02409               0.00    -3200.00
02410              -2.00    -3000.00
02411              -2.00    -3200.00
02412              -2.00    -3000.00
02413              -2.00    -3000.00
02414              -6.00    -3200.00
02415              -8.00    -3000.00
02416              -2.00    -3000.00
02417               0.00    -3000.00
02418               0.00    -2800.00
02419               0.00    -2800.00
02420              -8.00    -3000.00
02421              -8.00    -2600.00
02422              -4.00    -3000.00
02423               0.00    -2600.00
02424               0.00    -2600.00
02425               0.00    -2600.00
02426              -2.00    -2600.00
02427              -6.00    -2400.00
02428              -8.00    -2400.00
02429              -8.00    -2400.00
02430               2.00    -2200.00
02431               8.00    -2400.00
02432               2.00    -2200.00
02433             -12.00    -2200.00
02434             -14.00    -2200.00
02435              -6.00    -2000.00
02436               8.00    -1800.00
02437               6.00    -2000.00
02438              -6.00    -1800.00
02439             -10.00    -1800.00
02440              -6.00    -1600.00
02441               2.00    -1800.00
02442               0.00    -1600.00
02443              -6.00    -1400.00
02444              -8.00    -1600.00
02445               0.00    -1400.00
02446               6.00    -1400.00
02447              -2.00    -1400.00
02448             -14.00    -1400.00
02449             -10.00    -1400.00
02450               6.00    -1200.00
02451               8.00    -1000.00
02452               0.00    -1000.00
02453             -14.00     -800.00
02454             -10.00    -1000.00
02455               0.00     -800.00
02456               6.00     -800.00
02457               0.00     -800.00
02458              -6.00     -600.00
02459              -6.00     -800.00
02460               0.00     -600.00
02461               0.00     -600.00
02462              -2.00     -600.00
02463              -2.00     -400.00
02464              -2.00     -200.00
02465               0.00     -200.00
02466               0.00     -200.00
02467              -2.00        0.00
02468              -6.00        0.00
02469              -2.00        0.00
02470              -2.00        0.00
02471               0.00      200.00
02472               0.00      200.00
02473              -2.00      200.00
02474              -2.00      400.00
02475               2.00      400.00
02476               6.00      600.00
02477              -2.00      600.00
02478             -10.00      600.00
02479              -6.00      600.00
02480               0.00      600.00
02481              52.00      800.00
02482             176.00     1200.00
02483              38.00     1200.00
02484            -254.00      800.00
02485            -254.00     1000.00
02486             246.00     1400.00
02487             246.00     1400.00
02488            -210.00     1200.00
02489            -254.00      800.00
02490             -26.00     1600.00
02491             246.00     1800.00
02492              86.00     1400.00
02493            -254.00     1200.00
02494             -16.00     1800.00
02495             246.00     1800.00
02496            -144.00     1600.00
02497            -254.00     1800.00
02498             238.00     2200.00
02499             234.00     1800.00
02500            -254.00     1800.00
02501             -64.00     2200.00
02502             246.00     2400.00
02503            -104.00     2200.00
02504            -184.00     2200.00
02505             226.00     2400.00
02506              64.00     2200.00
02507            -254.00     2400.00
02508               8.00     2600.00
02509             224.00     2600.00
02510             -50.00     2600.00
02511            -136.00     2600.00
02512              24.00     2800.00
02513              30.00     2600.00
02514              14.00     2600.00
02515               0.00     3000.00
02516             -40.00     3000.00
02517              14.00     3000.00
02518              22.00     3000.00
02519             -60.00     3000.00
02520              14.00     3000.00
02521              50.00     3200.00
02522             -48.00     3000.00
02523             -16.00     3400.00
02524              54.00     3400.00
02525             -50.00     3400.00
02526             -32.00     3200.00
02527              66.00     3400.00
02528               0.00     3400.00
02529             -56.00     3200.00
02530              12.00     3600.00
02531               8.00     3400.00
02532             -10.00     3400.00
02533               0.00     3600.00
02534             -14.00     3800.00
02535               0.00     3600.00
02536              10.00     3800.00
02537             -24.00     3800.00
02538              -2.00     3800.00
02539              20.00     3800.00
02540             -28.00     3800.00
02541             -10.00     3800.00
02542              26.00     3800.00
02543             -22.00     3800.00
02544             -18.00     3800.00
02545              18.00     3800.00
02546             -10.00     4000.00
02547             -20.00     3800.00
02548              10.00     4000.00
02549               0.00     4000.00
02550             -10.00     4000.00
02551              -6.00     4200.00
02552             -10.00     4000.00
02553               0.00     4200.00
02554               0.00     4000.00
02555             -12.00     4000.00
02556               0.00     4000.00
02557               2.00     4000.00
02558             -16.00     4000.00
02559              -2.00     4200.00
02560               6.00     4200.00
02561             -14.00     4200.00
02562              -6.00     4000.00
02563               6.00     4200.00
02564             -10.00     4000.00
02565             -14.00     4200.00
02566              -2.00     4200.00
02567              -2.00     4200.00
02568               0.00     4000.00
02569              -2.00     4200.00
02570              -8.00     4200.00
02571              -6.00     4200.00
02572              -6.00     4200.00
02573              -6.00     4200.00
02574               2.00     4200.00
02575               0.00     4200.00
02576             -10.00     4000.00
02577              -6.00     4000.00
02578              -2.00     4200.00
02579              -6.00     4000.00
02580               0.00     4200.00
02581               2.00     4000.00
02582              -6.00     4200.00
02583              -8.00     4000.00
02584               0.00     4000.00
02585              -6.00     4000.00
02586              -6.00     4000.00
02587              -2.00     3800.00
02588              -2.00     4000.00
02589               0.00     4000.00
02590              -4.00     4000.00
02591              -6.00     3800.00
02592              -2.00     4000.00
02593              -6.00     3800.00
02594              -2.00     3800.00
02595               2.00     3800.00
02596              -2.00     3800.00
02597             -10.00     3800.00
02598              -2.00     3800.00
02599              -2.00     3800.00
02600              -6.00     3600.00
02601              -2.00     3600.00
02602               0.00     3600.00
02603              -2.00     3400.00
02604              -8.00     3400.00
02605              -6.00     3400.00
02606              -6.00     3400.00
02607              -2.00     3400.00
02608              -2.00     3200.00
02609               2.00     3400.00
02610              -6.00     3200.00
02611             -10.00     3200.00
02612              -8.00     3200.00
02613              -2.00     3200.00
02614              -2.00     3200.00
02615              -6.00     3200.00
02616              -4.00     3000.00
02617              -6.00     3000.00
02618              -8.00     3000.00
02619              -2.00     3000.00
02620              -2.00     2800.00
02621              -6.00     2800.00
02622              -8.00     2600.00
02623              -6.00     2600.00
02624              -2.00     2600.00
02625              -8.00     2600.00
02626              -6.00     2600.00
02627              -6.00     2400.00
02628              -2.00     2400.00
02629              -6.00     2400.00
02630              -2.00     2400.00
02631              -6.00     2200.00
02632              -8.00     2200.00
02633              -8.00     2200.00
02634              -2.00     2200.00
02635               0.00     2200.00
02636              -2.00     2200.00
02637              -6.00     1800.00
02638              -6.00     1800.00
02639              -6.00     1800.00
02640              -2.00     1800.00
02641              -2.00     1600.00
02642               0.00     1600.00
02643              -8.00     1600.00
02644              -8.00     1400.00
02645              -2.00     1600.00
02646               0.00     1400.00
02647              -2.00     1400.00
02648              -2.00     1200.00
02649               0.00     1000.00
02650              -4.00     1200.00
02651              -8.00     1000.00
02652              -6.00     1000.00
02653              -2.00      800.00
02654               0.00      800.00
02655              -6.00      800.00
02656              -6.00      800.00
02657               0.00      600.00
02658              -2.00      600.00
02659              -8.00      600.00
02660              -4.00      400.00
02661              -2.00      200.00
02662              -2.00      200.00
02663              -2.00      200.00
02664               0.00      200.00
02665               0.00      200.00
02666               2.00        0.00
02667               6.00        0.00
02668               0.00     -200.00
02669              -8.00        0.00
02670              -8.00     -200.00
02671              -2.00     -200.00
02672              14.00     -200.00
02673              74.00     -200.00
02674             150.00     -400.00
02675             -50.00    -1000.00
02676            -254.00     -800.00
02677            -236.00     -600.00
02678             246.00     -800.00
02679             246.00     -800.00
02680            -254.00    -1200.00
02681            -254.00     -800.00
02682              82.00    -1000.00
02683             246.00    -1000.00
02684              24.00    -1000.00
02685            -254.00    -1000.00
02686             -60.00    -1200.00
02687             246.00    -1400.00
02688              26.00    -1200.00
02689            -218.00    -1400.00
02690              16.00    -1600.00
02691              14.00    -1400.00
02692               4.00    -1600.00
02693              86.00    -1800.00
02694              -6.00    -1600.00
02695            -216.00    -1600.00
02696              64.00    -1800.00
02697             234.00    -2000.00
02698             -88.00    -1800.00
02699            -226.00    -2000.00
02700              70.00    -2200.00
02701             166.00    -2200.00
02702             -38.00    -2200.00
02703             -96.00    -2400.00
02704             -28.00    -2200.00
02705              42.00    -2200.00
02706              44.00    -2400.00
02707              -6.00    -2400.00
02708             -58.00    -2400.00
02709               6.00    -2600.00
02710              26.00    -2600.00
02711             -18.00    -2600.00
02712             -16.00    -2600.00
02713              12.00    -2800.00
02714               6.00    -2600.00
02715               0.00    -2800.00
02716              -8.00    -3000.00
02717             -32.00    -3000.00
02718               8.00    -2800.00
02719              42.00    -3000.00
02720              -8.00    -3000.00
02721             -48.00    -3000.00
02722               0.00    -3000.00
02723              26.00    -3200.00
02724               0.00    -3200.00
02725             -18.00    -3200.00
02726              -2.00    -3200.00
02727               8.00    -3200.00
02728               6.00    -3400.00
02729              -2.00    -3200.00
02730             -10.00    -3200.00
02731              -2.00    -3400.00
02732               6.00    -3400.00
02733               6.00    -3400.00
02734              -6.00    -3600.00
02735             -12.00    -3400.00
02736              -4.00    -3400.00
02737               4.00    -3400.00
02738              -2.00    -3400.00
02739             -10.00    -3400.00
02740               0.00    -3800.00
02741               6.00    -3800.00
02742              -6.00    -3600.00
02743              -8.00    -3800.00
02744              -4.00    -3800.00
02745              -2.00    -3800.00
02746               0.00    -3800.00
02747               0.00    -3800.00
02748              -2.00    -3800.00
02749              -6.00    -3800.00
02750              -8.00    -3800.00
02751              -2.00    -3800.00
02752              -2.00    -3800.00
02753               0.00    -3800.00
02754              -2.00    -3800.00
02755               0.00    -3800.00
02756              -6.00    -3800.00
02757             -10.00    -3600.00
02758              -2.00    -3800.00
02759               2.00    -3800.00
02760               0.00    -4000.00
02761              -2.00    -3800.00
02762              -2.00    -3800.00
02763              -6.00    -3800.00
02764              -2.00    -3800.00
02765               0.00    -3600.00
02766               0.00    -3800.00
02767               0.00    -3800.00
02768              -2.00    -3800.00
02769              -6.00    -3800.00
02770              -6.00    -3600.00
02771              -6.00    -3800.00
02772               0.00    -3600.00
02773               0.00    -3400.00
02774              -2.00    -3600.00
02775              -2.00    -3800.00
02776              -2.00    -3600.00
02777              -2.00    -3600.00
02778              -2.00    -3400.00
02779               0.00    -3400.00
02780               2.00    -3600.00
02781              -2.00    -3400.00
02782              -2.00    -3400.00
02783              -2.00    -3400.00
02784              -2.00    -3400.00
02785              -2.00    -3400.00
02786               0.00    -3400.00
02787               0.00    -3400.00
02788              -2.00    -3200.00
02789              -6.00    -3400.00
02790              -2.00    -3200.00
02791              -2.00    -3400.00
02792              -2.00    -3200.00
02793               0.00    -3200.00
02794               2.00    -3200.00
02795              -2.00    -3000.00
02796              -6.00    -3000.00
02797              -2.00    -3000.00
02798               0.00    -3000.00
02799               0.00    -2800.00
02800              -2.00    -3000.00
02801              -2.00    -3000.00
02802              -4.00    -2800.00
02803              -4.00    -2600.00
02804              -6.00    -2600.00
02805               0.00    -2600.00
02806               0.00    -2600.00
02807              -2.00    -2600.00
02808              -6.00    -2600.00
02809              -4.00    -2400.00
02810              -6.00    -2600.00
02811              -2.00    -2400.00
02812              -2.00    -2400.00
02813               0.00    -2400.00
02814              -6.00    -2400.00
02815              -2.00    -2200.00
02816              -2.00    -2200.00
02817              -6.00    -2200.00
02818              -8.00    -2200.00
02819              -2.00    -2200.00
02820              -2.00    -2000.00
02821              -2.00    -1800.00
02822              -2.00    -1800.00
02823              -6.00    -1800.00
02824              -6.00    -1600.00
02825              -2.00    -1600.00
02826              -2.00    -1600.00
02827               0.00    -1600.00
02828              -4.00    -1600.00
02829              -8.00    -1400.00
02830              -6.00    -1400.00
02831              -2.00    -1200.00
02832              -2.00    -1400.00
02833               0.00    -1200.00
02834               0.00    -1000.00
02835              -6.00    -1200.00
02836              -8.00    -1000.00
02837              -2.00    -1000.00
02838               0.00    -1000.00
02839              -4.00     -800.00
02840              -2.00     -600.00
02841              -2.00     -600.00
02842              -2.00     -600.00
02843              -4.00     -600.00
02844              -2.00     -600.00
02845              -2.00     -600.00
02846              -2.00     -400.00
02847              -2.00     -400.00
02848              -2.00     -200.00
02849              -2.00     -200.00
02850              -2.00     -200.00
02851              -6.00        0.00
02852              -6.00        0.00
02853              -2.00        0.00
02854               0.00      200.00
02855               0.00      200.00
02856               0.00      200.00
02857               0.00      200.00
02858               6.00      400.00
02859               2.00      600.00
02860              -6.00      600.00
02861              -8.00      600.00
02862              -4.00      800.00
02863              16.00      800.00
02864             118.00     1000.00
02865             160.00     1400.00
02866            -218.00     1000.00
02867            -254.00      800.00
02868              48.00     1200.00
02869             246.00     1400.00
02870             246.00     1400.00
02871            -254.00      800.00
02872            -254.00     1400.00
02873             246.00     1400.00
02874             246.00     1600.00
02875            -254.00     1000.00
02876            -254.00     1400.00
02877             246.00     2000.00
02878             246.00     1800.00
02879            -254.00     1600.00
02880             -86.00     2000.00
02881             246.00     2200.00
02882             -86.00     1800.00
02883            -254.00     1800.00
02884             176.00     2200.00
02885             126.00     2200.00
02886            -246.00     2200.00
02887              40.00     2400.00
02888             230.00     2200.00
02889            -160.00     2200.00
02890            -190.00     2200.00
02891             190.00     2800.00
02892              98.00     2400.00
02893            -132.00     2600.00
02894             -48.00     2600.00
02895              38.00     2600.00
02896              14.00     2600.00
02897              22.00     2800.00
02898             -34.00     2600.00
02899             -26.00     3000.00
02900              42.00     3000.00
02901             -30.00     3000.00
02902             -54.00     3000.00
02903              66.00     3200.00
02904               8.00     3200.00
02905             -66.00     3000.00
02906              38.00     3200.00
02907              16.00     3200.00
02908             -78.00     3200.00
02909              30.00     3400.00
02910              58.00     3400.00
02911             -50.00     3400.00
02912             -30.00     3400.00
02913              28.00     3400.00
02914              -2.00     3400.00
02915              -6.00     3600.00
02916               0.00     3800.00
02917             -10.00     3600.00
02918              10.00     3600.00
02919              -6.00     3800.00
02920             -20.00     3800.00
02921              18.00     3800.00
02922              -2.00     3800.00
02923             -32.00     3800.00
02924              18.00     3800.00
02925              10.00     3800.00
02926             -30.00     3800.00
02927               6.00     4000.00
02928              10.00     4000.00
02929             -18.00     3800.00
02930              -2.00     4000.00
02931              12.00     4000.00
02932              -8.00     4000.00
02933             -10.00     4000.00
02934              -8.00     4200.00
02935              -6.00     3800.00
02936               2.00     4200.00
02937              -6.00     4000.00
02938              -8.00     4000.00
02939               6.00     4000.00
02940             -10.00     4000.00
02941             -16.00     4200.00
02942               6.00     4200.00
02943              -2.00     4000.00
02944             -10.00     4200.00
02945               2.00     4200.00
02946              -2.00     4200.00
02947             -16.00     4200.00
02948              -8.00     4200.00
02949               2.00     4200.00
02950              -2.00     4200.00
02951               0.00     4200.00
02952              -6.00     4200.00
02953              -8.00     4200.00
02954              -6.00     4200.00
02955              -8.00     4200.00
02956              -2.00     4200.00
02957               2.00     4200.00
02958              -4.00     4200.00
02959              -8.00     4200.00
02960              -2.00     4000.00
02961              -8.00     4200.00
02962              -6.00     4000.00
02963               0.00     4000.00
02964              -2.00     4200.00
02965             -10.00     4000.00
02966              -6.00     4000.00
02967              -2.00     4000.00
02968             -10.00     4000.00
02969              -2.00     4000.00
02970               0.00     4000.00
02971               0.00     4000.00
02972              -8.00     4000.00
02973              -6.00     4000.00
02974              -4.00     4000.00
02975              -2.00     3800.00
02976              -6.00     3800.00
02977              -2.00     3800.00
02978               0.00     3800.00
02979              -8.00     3800.00
02980              -2.00     3800.00
02981              -2.00     3800.00
02982              -4.00     3600.00
02983              -6.00     3600.00
02984               0.00     3600.00
02985               0.00     3400.00
02986              -2.00     3600.00
02987              -6.00     3400.00
02988              -4.00     3400.00
02989              -2.00     3400.00
02990              -2.00     3400.00
02991              -2.00     3200.00
02992               0.00     3400.00
02993              -6.00     3200.00
02994              -8.00     3200.00
02995              -6.00     3200.00
02996              -2.00     3200.00
02997              -2.00     3200.00
02998              -2.00     3200.00
02999              -2.00     3000.00
03000              -8.00     3000.00
03001              -6.00     2800.00
03002               0.00     3000.00
03003               0.00     2600.00
03004              -6.00     2600.00
03005             -10.00     2600.00
03006              -4.00     2600.00
03007              -2.00     2400.00
03008              -6.00     2600.00
03009              -2.00     2400.00
03010              -2.00     2400.00
03011              -6.00     2200.00
03012              -2.00     2200.00
03013              -6.00     2200.00
03014              -6.00     2400.00
03015             -10.00     2200.00
03016              -8.00     2200.00
03017               0.00     2200.00
03018              -2.00     1800.00
03019              -6.00     2000.00
03020              -6.00     1800.00
03021              -6.00     1800.00
03022              -8.00     1600.00
03023              -2.00     1600.00
03024               0.00     1600.00
03025              -2.00     1600.00
03026              -6.00     1600.00
03027              -8.00     1400.00
03028              -2.00     1400.00
03029              -2.00     1400.00
03030              -6.00     1200.00
03031              -2.00     1200.00
03032              -2.00     1000.00
03033              -6.00     1000.00
03034              -6.00     1200.00
03035              -2.00     1000.00
03036               0.00      800.00
03037              -2.00      800.00
03038              -2.00      800.00
03039              -2.00      600.00
03040              -2.00      600.00
03041              -6.00      600.00
03042              -4.00      200.00
03043              -4.00      200.00
03044              -2.00      200.00
03045              -2.00      200.00
03046               0.00      200.00
03047               0.00      200.00
03048               0.00      200.00
03049               6.00        0.00
03050               8.00        0.00
03051              -2.00        0.00
03052              -6.00     -200.00
03053              -2.00     -200.00
03054               2.00     -200.00
03055              38.00     -400.00
03056             132.00     -400.00
03057             102.00     -800.00
03058            -254.00     -800.00
03059            -254.00     -600.00
03060             146.00     -400.00
03061             246.00     -600.00
03062             246.00    -1000.00
03063            -254.00    -1000.00
03064            -254.00     -800.00
03065             246.00    -1000.00
03066             246.00    -1000.00
03067            -254.00    -1000.00
03068            -254.00    -1200.00
03069             246.00    -1400.00
03070             246.00    -1400.00
03071            -162.00    -1400.00
03072            -120.00    -1600.00
03073              64.00    -1400.00
03074             -22.00    -1600.00
03075              46.00    -1600.00
03076              88.00    -1800.00
03077            -154.00    -1600.00
03078            -112.00    -1600.00
03079             208.00    -2000.00
03080             112.00    -1800.00
03081            -238.00    -1800.00
03082             -88.00    -2200.00
03083             168.00    -2200.00
03084              78.00    -2200.00
03085            -104.00    -2400.00
03086             -60.00    -2200.00
03087               6.00    -2200.00
03088              52.00    -2400.00
03089              26.00    -2400.00
03090             -46.00    -2400.00
03091             -32.00    -2400.00
03092              24.00    -2600.00
03093               8.00    -2600.00
03094             -28.00    -2400.00
03095               6.00    -2600.00
03096               8.00    -2800.00
03097               2.00    -2800.00
03098              -4.00    -3000.00
03099             -24.00    -3000.00
03100             -18.00    -2600.00
03101              36.00    -3000.00
03102              26.00    -3000.00
03103             -40.00    -3000.00
03104             -26.00    -3000.00
03105              24.00    -3200.00
03106              18.00    -3000.00
03107             -16.00    -3200.00
03108             -10.00    -3000.00
03109               6.00    -3200.00
03110               8.00    -3200.00
03111               0.00    -3400.00
03112             -10.00    -3400.00
03113             -10.00    -3400.00
03114               0.00    -3400.00
03115               6.00    -3200.00
03116               0.00    -3400.00
03117              -8.00    -3400.00
03118             -10.00    -3400.00
03119               0.00    -3600.00
03120               6.00    -3400.00
03121              -6.00    -3400.00
03122              -6.00    -3600.00
03123               6.00    -3400.00
03124               2.00    -3600.00
03125             -10.00    -3600.00
03126              -8.00    -3400.00
03127               0.00    -3800.00
03128               2.00    -3800.00
03129               0.00    -3800.00
03130              -2.00    -3800.00
03131              -6.00    -3800.00
03132              -6.00    -3800.00
03133              -2.00    -3800.00
03134               0.00    -3800.00
03135               0.00    -3800.00
03136              -2.00    -3800.00
03137              -4.00    -3800.00
03138              -2.00    -3800.00
03139              -6.00    -4000.00
03140              -6.00    -3800.00
03141               0.00    -4000.00
03142               2.00    -3800.00
03143              -2.00    -3800.00
03144              -2.00    -3600.00
03145              -4.00    -3800.00
03146              -8.00    -3800.00
03147              -4.00    -3800.00
03148               2.00    -3800.00
03149               0.00    -3800.00
03150              -2.00    -3800.00
03151              -6.00    -3800.00
03152              -6.00    -3800.00
03153              -4.00    -3800.00
03154               0.00    -3600.00
03155               2.00    -3800.00
03156               0.00    -3400.00
03157              -4.00    -3800.00
03158              -4.00    -3800.00
03159              -2.00    -3400.00
03160              -6.00    -3600.00
03161              -2.00    -3600.00
03162               0.00    -3600.00
03163              -2.00    -3400.00
03164              -2.00    -3400.00
03165              -2.00    -3400.00
03166              -4.00    -3400.00
03167              -2.00    -3400.00
03168              -2.00    -3400.00
03169               0.00    -3400.00
03170               0.00    -3400.00
03171              -4.00    -3400.00
03172              -2.00    -3200.00
03173              -2.00    -3200.00
03174              -2.00    -3200.00
03175              -2.00    -3200.00
03176               0.00    -3000.00
03177               0.00    -3200.00
03178              -6.00    -3000.00
03179              -6.00    -3000.00
03180              -2.00    -3000.00
03181              -2.00    -3000.00
03182               0.00    -3000.00
03183              -2.00    -3000.00
03184              -2.00    -2800.00
03185              -6.00    -2800.00
03186              -6.00    -2600.00
03187              -2.00    -2600.00
03188               0.00    -2600.00
03189               0.00    -2600.00
03190              -2.00    -2400.00
03191              -6.00    -2600.00
03192              -6.00    -2400.00
03193              -6.00    -2400.00
03194               0.00    -2400.00
03195              -2.00    -2200.00
03196              -2.00    -2400.00
03197              -2.00    -2200.00
03198              -2.00    -2200.00
03199              -6.00    -2200.00
03200              -4.00    -1800.00
03201               0.00    -2000.00
03202               0.00    -1800.00
03203              -2.00    -1800.00
03204              -6.00    -1800.00
03205              -6.00    -1600.00
03206              -6.00    -1600.00
03207              -2.00    -1600.00
03208              -2.00    -1600.00
03209              -2.00    -1600.00
03210              -2.00    -1600.00
03211              -4.00    -1400.00
03212              -6.00    -1400.00
03213              -6.00    -1400.00
03214              -4.00    -1400.00
03215              -2.00    -1200.00
03216              -2.00    -1000.00
03217              -6.00    -1000.00
03218              -8.00    -1200.00
03219              -4.00    -1000.00
03220              -4.00     -800.00
03221              -2.00     -800.00
03222              -2.00     -800.00
03223               0.00     -800.00
03224              -2.00     -600.00
03225              -2.00     -600.00
03226              -6.00     -600.00
03227              -4.00     -400.00
03228              -2.00     -200.00
03229              -2.00     -200.00
03230              -2.00     -200.00
03231              -2.00     -200.00
03232              -2.00     -200.00
03233              -6.00        0.00
03234              -4.00      200.00
03235               0.00      200.00
03236               0.00      200.00
03237               2.00      200.00
03238               0.00      400.00
03239               0.00      600.00
03240               6.00      600.00
03241               6.00      600.00
03242               0.00      600.00
03243              -8.00      600.00
03244              -6.00      600.00
03245               2.00      800.00
03246              58.00      800.00
03247             176.00     1200.00
03248              30.00     1200.00
03249            -254.00      800.00
03250            -254.00     1000.00
03251             246.00     1400.00
03252             246.00     1400.00
03253            -238.00     1000.00
03254            -254.00     1000.00
03255               2.00     1600.00
03256             246.00     1600.00
03257              62.00     1400.00
03258            -254.00     1000.00
03259               0.00     1800.00
03260             246.00     1800.00
03261            -160.00     1600.00
03262            -254.00     1600.00
03263             246.00     2200.00
03264             222.00     1800.00
03265            -254.00     1800.00
03266             -54.00     2200.00
03267             246.00     2200.00
03268            -112.00     2200.00
03269            -174.00     2200.00
03270             230.00     2400.00
03271              48.00     2400.00
03272            -254.00     2400.00
03273              18.00     2600.00
03274             216.00     2400.00
03275             -54.00     2400.00
03276            -122.00     2600.00
03277              22.00     2600.00
03278              24.00     2600.00
03279              18.00     2600.00
03280               0.00     2800.00
03281             -48.00     2600.00
03282              18.00     3000.00
03283              26.00     3000.00
03284             -68.00     3000.00
03285              14.00     3200.00
03286              58.00     3200.00
03287             -50.00     3200.00
03288             -22.00     3200.00
03289              56.00     3400.00
03290             -50.00     3200.00
03291             -38.00     3200.00
03292              70.00     3400.00
03293               2.00     3400.00
03294             -62.00     3400.00
03295              14.00     3400.00
03296              16.00     3400.00
03297             -10.00     3400.00
03298               0.00     3800.00
03299             -10.00     3800.00
03300               0.00     3600.00
03301              10.00     3600.00
03302             -22.00     3800.00
03303               0.00     3800.00
03304              16.00     3800.00
03305             -26.00     3800.00
03306              -6.00     3800.00
03307              28.00     4000.00
03308             -18.00     4000.00
03309             -18.00     3800.00
03310              18.00     4000.00
03311              -8.00     3800.00
03312             -16.00     4000.00
03313              14.00     4200.00
03314               2.00     4000.00
03315             -10.00     4000.00
03316              -6.00     4000.00
03317              -8.00     4000.00
03318               0.00     4000.00
03319               0.00     4000.00
03320             -10.00     4200.00
03321               0.00     4200.00
03322               0.00     4200.00
03323             -16.00     4200.00
03324              -2.00     4200.00
03325               6.00     4200.00
03326             -10.00     4000.00
03327              -4.00     4200.00
03328               6.00     4200.00
03329              -8.00     4200.00
03330             -10.00     4200.00
03331              -2.00     4000.00
03332              -2.00     4000.00
03333               0.00     4200.00
03334              -2.00     4200.00
03335              -8.00     4200.00
03336             -10.00     4200.00
03337              -6.00     4000.00
03338              -8.00     4200.00
03339               0.00     4200.00
03340               0.00     4000.00
03341              -8.00     4000.00
03342              -6.00     4000.00
03343              -2.00     4000.00
03344              -8.00     4200.00
03345              -2.00     4000.00
03346               2.00     4200.00
03347              -8.00     4000.00
03348              -6.00     4000.00
03349               0.00     4000.00
03350             -10.00     4000.00
03351              -8.00     4200.00
03352              -2.00     4000.00
03353               0.00     3800.00
03354              -2.00     4000.00
03355              -6.00     4000.00
03356              -6.00     3800.00
03357              -6.00     3800.00
03358              -6.00     3800.00
03359              -2.00     3800.00
03360               2.00     4000.00
03361              -2.00     3800.00
03362              -8.00     3800.00
03363              -6.00     3600.00
03364              -2.00     3800.00
03365              -4.00     3600.00
03366              -2.00     3800.00
03367               0.00     3800.00
03368              -6.00     3400.00
03369              -6.00     3400.00
03370              -6.00     3400.00
03371              -2.00     3400.00
03372               0.00     3400.00
03373              -2.00     3400.00
03374               0.00     3200.00
03375              -2.00     3400.00
03376             -10.00     3200.00
03377              -6.00     3200.00
03378              -2.00     3200.00
03379              -2.00     3000.00
03380              -2.00     3200.00
03381               0.00     3000.00
03382              -6.00     3000.00
03383              -6.00     3000.00
03384              -2.00     2800.00
03385               0.00     2800.00
03386              -6.00     2600.00
03387              -6.00     2600.00
03388              -6.00     2600.00
03389              -6.00     2600.00
03390              -4.00     2600.00
03391              -2.00     2600.00
03392              -2.00     2400.00
03393              -2.00     2400.00
03394              -6.00     2400.00
03395              -6.00     2200.00
03396              -2.00     2400.00
03397              -8.00     2200.00
03398              -8.00     2200.00
03399              -2.00     2000.00
03400               0.00     1800.00
03401              -6.00     1800.00
03402              -6.00     2000.00
03403              -2.00     1800.00
03404              -6.00     1800.00
03405              -6.00     1800.00
03406               0.00     1600.00
03407               0.00     1600.00
03408              -6.00     1600.00
03409              -8.00     1400.00
03410              -6.00     1400.00
03411              -2.00     1400.00
03412              -6.00     1400.00
03413              -2.00     1400.00
03414               0.00     1000.00
03415              -2.00     1200.00
03416              -8.00     1200.00
03417              -6.00     1000.00
03418              -2.00      800.00
03419               0.00      800.00
03420              -6.00      600.00
03421              -2.00      600.00
03422               0.00      600.00
03423              -4.00      600.00
03424              -6.00      400.00
03425              -2.00      400.00
03426              -2.00      200.00
03427               0.00      200.00
03428              -2.00      200.00
03429               0.00      200.00
03430              -2.00        0.00
03431               2.00      200.00
03432               6.00        0.00
03433               0.00        0.00
03434              -6.00     -200.00
03435              -8.00     -200.00
03436               0.00     -200.00
03437              16.00     -200.00
03438              82.00     -400.00
03439             154.00     -400.00
03440             -58.00     -800.00
03441            -254.00     -600.00
03442            -224.00     -400.00
03443             246.00     -600.00
03444             246.00     -800.00
03445            -254.00    -1200.00
03446            -254.00     -600.00
03447             106.00    -1000.00
03448             246.00     -800.00
03449               6.00    -1200.00
03450            -254.00    -1200.00
03451             -46.00    -1400.00
03452             246.00    -1400.00
03453              18.00    -1200.00
03454            -216.00    -1600.00
03455              22.00    -1400.00
03456              16.00    -1600.00
03457               2.00    -1400.00
03458              86.00    -1800.00
03459             -10.00    -1600.00
03460            -214.00    -1800.00
03461              72.00    -1800.00
03462             232.00    -2000.00
03463             -96.00    -1800.00
03464            -224.00    -2000.00
03465              78.00    -2000.00
03466             168.00    -2000.00
03467             -44.00    -2200.00
03468             -96.00    -2400.00
03469             -26.00    -2200.00
03470              42.00    -2200.00
03471              46.00    -2600.00
03472              -4.00    -2400.00
03473             -58.00    -2600.00
03474               6.00    -2400.00
03475              26.00    -2600.00
03476             -16.00    -2600.00
03477             -16.00    -2800.00
03478              10.00    -2600.00
03479               8.00    -2600.00
03480               0.00    -3000.00
03481              -8.00    -3000.00
03482             -32.00    -3000.00
03483              10.00    -2800.00
03484              42.00    -3000.00
03485              -8.00    -3000.00
03486             -46.00    -3000.00
03487               2.00    -3200.00
03488              30.00    -3000.00
03489              -4.00    -3000.00
03490             -18.00    -3000.00
03491              -2.00    -3200.00
03492               8.00    -3400.00
03493               6.00    -3200.00
03494              -6.00    -3200.00
03495             -14.00    -3400.00
03496              -4.00    -3400.00
03497               8.00    -3400.00
03498               6.00    -3400.00
03499              -2.00    -3400.00
03500             -10.00    -3400.00
03501              -2.00    -3400.00
03502               8.00    -3400.00
03503              -2.00    -3600.00
03504             -10.00    -3400.00
03505               0.00    -3400.00
03506               6.00    -3600.00
03507              -2.00    -3800.00
03508             -10.00    -3800.00
03509              -4.00    -3600.00
03510               0.00    -3800.00
03511               0.00    -3800.00
03512               0.00    -3800.00
03513              -2.00    -3800.00
03514              -6.00    -3800.00
03515              -6.00    -3800.00
03516              -6.00    -3800.00
03517               0.00    -3800.00
03518              -2.00    -3800.00
03519              -2.00    -3800.00
03520              -2.00    -3800.00
03521              -6.00    -3800.00
03522              -8.00    -3800.00
03523               0.00    -3800.00
03524               6.00    -3800.00
03525              -2.00    -3800.00
03526              -4.00    -3800.00
03527              -2.00    -3800.00
03528              -6.00    -3800.00
03529              -4.00    -3800.00
03530               0.00    -3800.00
03531               0.00    -3800.00
03532              -2.00    -3800.00
03533              -6.00    -3800.00
03534              -6.00    -3800.00
03535              -4.00    -3800.00
03536              -4.00    -3800.00
03537              -2.00    -3800.00
03538               0.00    -3800.00
03539              -6.00    -3800.00
03540              -8.00    -3600.00
03541              -2.00    -3800.00
03542              -4.00    -3600.00
03543              -2.00    -3800.00
03544               0.00    -3600.00
03545               2.00    -3800.00
03546              -4.00    -3400.00
03547              -2.00    -3400.00
03548              -2.00    -3400.00
03549               0.00    -3400.00
03550              -2.00    -3400.00
03551               0.00    -3400.00
03552              -2.00    -3400.00
03553              -2.00    -3200.00
03554              -6.00    -3400.00
03555              -2.00    -3200.00
03556              -2.00    -3200.00
03557               0.00    -3200.00
03558               0.00    -3200.00
03559               2.00    -3000.00
03560              -2.00    -3200.00
03561              -4.00    -3000.00
03562              -6.00    -3000.00
03563               0.00    -3000.00
03564               0.00    -3000.00
03565               0.00    -3000.00
03566              -2.00    -2800.00
03567              -2.00    -2800.00
03568              -6.00    -2800.00
03569              -2.00    -2600.00
03570               0.00    -2600.00
03571               0.00    -2600.00
03572               0.00    -2600.00
03573              -6.00    -2600.00
03574              -4.00    -2600.00
03575              -2.00    -2400.00
03576              -2.00    -2400.00
03577               0.00    -2400.00
03578               0.00    -2200.00
03579              -2.00    -2400.00
03580              -4.00    -2200.00
03581              -2.00    -2200.00
03582              -6.00    -2200.00
03583              -6.00    -2200.00
03584              -2.00    -1800.00
03585               0.00    -2000.00
03586              -2.00    -1800.00
03587              -2.00    -1800.00
03588              -6.00    -1800.00
03589              -6.00    -1600.00
03590              -2.00    -1600.00
03591              -2.00    -1600.00
03592               0.00    -1400.00
03593              -4.00    -1400.00
03594              -6.00    -1400.00
03595              -6.00    -1200.00
03596              -2.00    -1400.00
03597              -2.00    -1200.00
03598               0.00    -1000.00
03599               0.00    -1000.00
03600              -6.00    -1200.00
03601              -6.00    -1000.00
03602              -2.00     -800.00
03603              -4.00     -800.00
03604              -2.00     -800.00
03605              -2.00     -600.00
03606              -2.00     -600.00
03607              -2.00     -600.00
03608              -6.00     -600.00
03609              -8.00     -600.00
03610              -2.00     -400.00
03611               0.00     -400.00
03612              -2.00     -200.00
03613              -6.00     -200.00
03614              -4.00     -200.00
03615              -2.00     -200.00
03616              -2.00        0.00
03617              -2.00        0.00
03618              -2.00      200.00
03619               0.00        0.00
03620               0.00      200.00
03621              -2.00      400.00
03622               0.00      400.00
03623               8.00      400.00
03624               8.00      600.00
03625              -6.00      600.00
03626             -10.00      800.00
03627              -6.00      600.00
03628              18.00      800.00
03629             126.00     1000.00
03630             160.00     1200.00
03631            -230.00     1000.00
03632            -254.00      800.00
03633              62.00     1200.00
03634             246.00     1400.00
03635             246.00     1400.00
03636            -254.00      800.00
03637            -254.00     1400.00
03638             246.00     1600.00
03639             246.00     1800.00
03640            -254.00     1200.00
03641            -254.00     1600.00
03642             246.00     1800.00
03643             246.00     1800.00
03644            -254.00     1400.00
03645             -64.00     2000.00
03646             246.00     2200.00
03647            -100.00     1800.00
03648            -254.00     1600.00
03649             186.00     2200.00
03650             118.00     2200.00
03651            -244.00     2000.00
03652              52.00     2200.00
03653             224.00     2400.00
03654            -174.00     2200.00
03655            -184.00     2400.00
03656             198.00     2600.00
03657              96.00     2400.00
03658            -138.00     2400.00
03659             -46.00     2800.00
03660              38.00     2600.00
03661              14.00     2600.00
03662              22.00     2800.00
03663             -32.00     2800.00
03664             -26.00     3000.00
03665              40.00     3000.00
03666             -26.00     3000.00
03667             -48.00     3000.00
03668              62.00     3200.00
03669               2.00     3000.00
03670             -64.00     3000.00
03671              38.00     3400.00
03672              14.00     3200.00
03673             -74.00     3200.00
03674              26.00     3200.00
03675              54.00     3400.00
03676             -50.00     3400.00
03677             -26.00     3400.00
03678              24.00     3600.00
03679              -6.00     3400.00
03680              -6.00     3400.00
03681              -2.00     3400.00
03682             -14.00     3600.00
03683              10.00     3600.00
03684             -10.00     3800.00
03685             -16.00     3600.00
03686              18.00     3800.00
03687              -6.00     3800.00
03688             -32.00     3800.00
03689              20.00     3800.00
03690              14.00     3800.00
03691             -28.00     3800.00
03692               4.00     3800.00
03693               6.00     4000.00
03694             -22.00     3800.00
03695              -2.00     4000.00
03696              14.00     4000.00
03697              -8.00     4000.00
03698             -10.00     4000.00
03699              -8.00     4000.00
03700              -2.00     4000.00
03701               4.00     4200.00
03702              -6.00     4200.00
03703              -8.00     4200.00
03704               8.00     4000.00
03705             -10.00     4200.00
03706             -14.00     4200.00
03707               6.00     4200.00
03708              -2.00     4200.00
03709             -10.00     4000.00
03710               6.00     4200.00
03711               0.00     4000.00
03712             -16.00     4200.00
03713             -10.00     4200.00
03714              -2.00     4200.00
03715               0.00     4000.00
03716               2.00     4200.00
03717              -8.00     4200.00
03718             -10.00     4000.00
03719              -8.00     4000.00
03720              -8.00     4200.00
03721               2.00     4000.00
03722               6.00     4000.00
03723             -10.00     4000.00
03724             -14.00     4000.00
03725              -2.00     4200.00
03726              -6.00     4000.00
03727              -6.00     4000.00
03728               0.00     4000.00
03729              -6.00     4000.00
03730             -10.00     4000.00
03731              -2.00     4000.00
03732              -6.00     4000.00
03733             -10.00     4000.00
03734              -6.00     4000.00
03735               0.00     4000.00
03736               0.00     3800.00
03737              -2.00     4000.00
03738             -10.00     3800.00
03739              -6.00     3800.00
03740              -6.00     3800.00
03741              -2.00     3800.00
03742               0.00     3800.00
03743               0.00     3800.00
03744              -8.00     3800.00
03745              -6.00     3800.00
03746               0.00     3800.00
03747              -6.00     3800.00
03748              -8.00     3600.00
03749               0.00     3600.00
03750              -2.00     3400.00
03751              -6.00     3400.00
03752              -2.00     3400.00
03753              -4.00     3400.00
03754              -8.00     3400.00
03755              -6.00     3400.00
03756              -2.00     3200.00
03757               2.00     3200.00
03758              -6.00     3400.00
03759             -10.00     3200.00
03760              -6.00     3000.00
03761              -2.00     3000.00
03762               0.00     3000.00
03763              -2.00     3000.00
03764              -6.00     3000.00
03765              -6.00     3000.00
03766              -8.00     3000.00
03767              -2.00     3000.00
03768               0.00     3000.00
03769              -2.00     2600.00
03770              -4.00     2600.00
03771              -2.00     2600.00
03772              -8.00     2600.00
03773              -2.00     2600.00
03774               0.00     2600.00
03775               0.00     2400.00
03776              -2.00     2400.00
03777              -8.00     2200.00
03778              -4.00     2200.00
03779              -6.00     2200.00
03780              -8.00     2200.00
03781              -6.00     2000.00
03782               0.00     1800.00
03783              -4.00     2000.00
03784              -6.00     2200.00
03785               0.00     1800.00
03786              -2.00     1800.00
03787              -8.00     1600.00
03788              -8.00     1600.00
03789              -2.00     1600.00
03790               0.00     1400.00
03791              -2.00     1600.00
03792              -6.00     1400.00
03793              -6.00     1400.00
03794              -6.00     1400.00
03795              -8.00     1400.00
03796              -2.00     1200.00
03797              -2.00     1000.00
03798              -6.00     1000.00
03799              -8.00      800.00
03800              -6.00      800.00
03801              -2.00      800.00
03802              -2.00      800.00
03803              -4.00      800.00
03804              -2.00      600.00
03805              -2.00      600.00
03806              -6.00      600.00
03807              -2.00      600.00
03808              -2.00      400.00
03809              -2.00      200.00
03810               0.00      200.00
03811               0.00      200.00
03812              -2.00        0.00
03813              -2.00        0.00
03814               0.00        0.00
03815               8.00        0.00
03816               0.00     -200.00
03817              -8.00        0.00
03818              -6.00     -200.00
03819               6.00     -200.00
03820              38.00     -200.00
03821             136.00     -600.00
03822              96.00     -800.00
03823            -254.00    -1000.00
03824            -254.00     -600.00
03825             160.00     -400.00
03826             246.00     -600.00
03827             246.00    -1000.00
03828            -254.00    -1000.00
03829            -254.00     -800.00
03830             246.00    -1000.00
03831             246.00    -1000.00
03832            -254.00    -1000.00
03833            -254.00    -1200.00
03834             246.00    -1400.00
03835             238.00    -1000.00
03836            -164.00    -1400.00
03837            -110.00    -1600.00
03838              66.00    -1400.00
03839             -18.00    -1400.00
03840              46.00    -1600.00
03841              86.00    -1800.00
03842            -154.00    -1800.00
03843             -98.00    -1600.00
03844             208.00    -2000.00
03845             102.00    -1800.00
03846            -238.00    -2000.00
03847             -76.00    -2200.00
03848             174.00    -2200.00
03849              72.00    -2200.00
03850            -110.00    -2200.00
03851             -62.00    -2400.00
03852              14.00    -2400.00
03853              58.00    -2400.00
03854              24.00    -2600.00
03855             -48.00    -2400.00
03856             -32.00    -2400.00
03857              26.00    -2600.00
03858              10.00    -2400.00
03859             -32.00    -2800.00
03860               0.00    -2600.00
03861               6.00    -2600.00
03862               2.00    -2800.00
03863              -2.00    -3000.00
03864             -24.00    -2800.00
03865             -22.00    -2800.00
03866              32.00    -3000.00
03867              22.00    -3000.00
03868             -38.00    -3000.00
03869             -24.00    -3000.00
03870              20.00    -3200.00
03871               8.00    -3000.00
03872             -22.00    -3200.00
03873             -10.00    -3200.00
03874              10.00    -3200.00
03875               6.00    -3200.00
03876             -10.00    -3400.00
03877             -10.00    -3200.00
03878               2.00    -3400.00
03879              14.00    -3400.00
03880               0.00    -3200.00
03881             -18.00    -3400.00
03882             -12.00    -3400.00
03883               4.00    -3400.00
03884              16.00    -3400.00
03885               6.00    -3400.00
03886             -22.00    -3600.00
03887             -16.00    -3600.00
03888              14.00    -3600.00
03889              16.00    -3600.00
03890             -10.00    -3800.00
03891             -14.00    -3800.00
03892               0.00    -3800.00
03893               6.00    -3800.00
03894               0.00    -3800.00
03895              -6.00    -3800.00
03896             -10.00    -3800.00
03897               4.00    -3800.00
03898              10.00    -3800.00
03899              -2.00    -3800.00
03900             -12.00    -3600.00
03901             -10.00    -3800.00
03902               2.00    -3800.00
03903              10.00    -3800.00
03904              -6.00    -3800.00
03905             -16.00    -3800.00
03906              -6.00    -3800.00
03907               6.00    -3600.00
03908               4.00    -3800.00
03909               0.00    -3800.00
03910              -6.00    -3800.00
03911             -12.00    -3800.00
03912              -6.00    -3800.00
03913               6.00    -3800.00
03914               2.00    -3800.00
03915              -2.00    -3800.00
03916              -6.00    -3800.00
03917              -8.00    -3800.00
03918              -6.00    -3800.00
03919               0.00    -3800.00
03920               2.00    -3800.00
03921              -2.00    -3600.00
03922              -8.00    -3800.00
03923              -6.00    -3800.00
03924              -2.00    -3600.00
03925              -2.00    -3800.00
03926              -2.00    -3400.00
03927               2.00    -3400.00
03928              -2.00    -3600.00
03929              -6.00    -3400.00
03930              -2.00    -3400.00
03931              -6.00    -3400.00
03932              -6.00    -3400.00
03933               0.00    -3400.00
03934               0.00    -3400.00
03935              -2.00    -3200.00
03936              -8.00    -3400.00
03937              -2.00    -3200.00
03938              -2.00    -3200.00
03939              -2.00    -3200.00
03940              -2.00    -3200.00
03941               0.00    -3200.00
03942               0.00    -3000.00
03943              -2.00    -3000.00
03944              -6.00    -3000.00
03945              -6.00    -3000.00
03946               0.00    -3000.00
03947               0.00    -3000.00
03948               0.00    -3000.00
03949              -2.00    -2600.00
03950              -2.00    -3000.00
03951              -6.00    -2600.00
03952              -2.00    -2600.00
03953               0.00    -2600.00
03954               0.00    -2600.00
03955              -2.00    -2600.00
03956              -2.00    -2600.00
03957              -6.00    -2400.00
03958              -2.00    -2200.00
03959               2.00    -2400.00
03960               0.00    -2200.00
03961               0.00    -2400.00
03962              -2.00    -2200.00
03963               0.00    -2200.00
03964              -6.00    -2200.00
03965              -6.00    -2200.00
03966              -2.00    -1800.00
03967               2.00    -2000.00
03968              -2.00    -1800.00
03969              -2.00    -1800.00
03970              -2.00    -1800.00
03971              -2.00    -1600.00
03972              -2.00    -1600.00
03973              -2.00    -1600.00
03974               0.00    -1600.00
03975               0.00    -1400.00
03976              -2.00    -1400.00
03977              -6.00    -1400.00
03978              -2.00    -1400.00
03979              -4.00    -1200.00
03980              -2.00    -1000.00
03981              -2.00    -1000.00
03982              -4.00    -1000.00
03983              -6.00    -1000.00
03984              -2.00     -800.00
03985              -2.00    -1000.00
03986              -6.00    -1000.00
03987              -2.00     -800.00
03988               0.00     -800.00
03989               0.00     -600.00
03990              -6.00     -600.00
03991              -8.00     -600.00
03992              -2.00     -600.00
03993               0.00     -600.00
03994               0.00     -400.00
03995              -4.00     -200.00
03996              -4.00     -200.00
03997              -6.00     -200.00
03998              -8.00        0.00
03999              -2.00        0.00
04000              -2.00      200.00
04001              -2.00      200.00
04002              -2.00      200.00
04003               0.00      200.00
04004               0.00      200.00
04005               6.00      400.00
04006               6.00      600.00
04007               0.00      600.00
04008              -8.00      400.00
04009              -6.00      600.00
04010               0.00      800.00
04011              62.00      600.00
04012             182.00      800.00
04013              22.00     1200.00
04014            -254.00      800.00
04015            -254.00      800.00
04016             246.00     1400.00
04017             246.00     1400.00
04018            -254.00     1000.00
04019            -254.00     1200.00
04020              24.00     1600.00
04021             246.00     1800.00
04022              40.00     1400.00
04023            -254.00     1200.00
04024              18.00     1800.00
04025             246.00     1800.00
04026            -174.00     1400.00
04027            -254.00     1800.00
04028             246.00     2200.00
04029             210.00     2200.00
04030            -254.00     1600.00
04031             -42.00     2200.00
04032             246.00     2200.00
04033            -120.00     2000.00
04034            -168.00     2200.00
04035             234.00     2600.00
04036              40.00     2200.00
04037            -254.00     2400.00
04038              26.00     2400.00
04039             214.00     2600.00
04040             -64.00     2400.00
04041            -124.00     2600.00
04042              30.00     2600.00
04043              22.00     2600.00
04044              16.00     2600.00
04045               0.00     2800.00
04046             -48.00     3000.00
04047              18.00     3000.00
04048              24.00     3000.00
04049             -70.00     3000.00
04050              14.00     3000.00
04051              54.00     3000.00
04052             -50.00     3000.00
04053             -16.00     3000.00
04054              56.00     3200.00
04055             -56.00     3200.00
04056             -38.00     3000.00
04057              70.00     3400.00
04058               0.00     3200.00
04059             -58.00     3400.00
04060              10.00     3400.00
04061               8.00     3400.00
04062             -10.00     3400.00
04063               0.00     3600.00
04064             -10.00     3600.00
04065               0.00     3600.00
04066               8.00     3800.00
04067             -24.00     3600.00
04068               0.00     3800.00
04069              18.00     3800.00
04070             -30.00     3800.00
04071              -8.00     3800.00
04072              24.00     3800.00
04073             -18.00     3800.00
04074             -18.00     3800.00
04075              18.00     3800.00
04076             -10.00     4000.00
04077             -16.00     3800.00
04078              14.00     4000.00
04079               2.00     4000.00
04080             -10.00     3800.00
04081              -8.00     4000.00
04082              -8.00     4000.00
04083               2.00     4000.00
04084               2.00     4000.00
04085             -10.00     4200.00
04086               0.00     4000.00
04087               2.00     4000.00
04088             -16.00     4000.00
04089              -2.00     4000.00
04090               6.00     4200.00
04091              -8.00     4000.00
04092              -2.00     4200.00
04093               8.00     4200.00
04094             -10.00     4000.00
04095             -10.00     4000.00
04096              -2.00     4200.00
04097               0.00     4200.00
04098               0.00     4200.00
04099               0.00     4200.00
04100              -8.00     4200.00
04101              -6.00     4200.00
04102              -4.00     4200.00
04103              -6.00     4200.00
04104               2.00     4200.00
04105               0.00     4200.00
04106             -10.00     4000.00
04107              -6.00     4200.00
04108              -2.00     4200.00
04109              -8.00     4000.00
04110               0.00     4000.00
04111               0.00     4200.00
04112              -6.00     4000.00
04113              -8.00     4000.00
04114              -2.00     3800.00
04115             -10.00     4000.00
04116              -6.00     4000.00
04117               0.00     4000.00
04118              -2.00     3800.00
04119              -8.00     4000.00
04120              -8.00     4000.00
04121              -6.00     3800.00
04122              -2.00     3800.00
04123              -6.00     3800.00
04124              -6.00     4000.00
04125               0.00     3800.00
04126              -2.00     3800.00
04127              -8.00     3800.00
04128              -2.00     3800.00
04129              -2.00     3600.00
04130              -8.00     3400.00
04131               0.00     3800.00
04132               0.00     3400.00
04133              -2.00     3600.00
04134              -6.00     3600.00
04135              -6.00     3400.00
04136              -2.00     3400.00
04137              -2.00     3400.00
04138              -2.00     3400.00
04139               0.00     3400.00
04140              -2.00     3200.00
04141             -10.00     3400.00
04142              -6.00     3200.00
04143               0.00     3000.00
04144               0.00     3000.00
04145               0.00     3000.00
04146               0.00     3000.00
04147              -2.00     2800.00
04148              -8.00     3000.00
04149              -2.00     3000.00
04150               2.00     2800.00
04151              -2.00     2800.00
04152              -6.00     2600.00
04153              -2.00     2600.00
04154               0.00     2600.00
04155              -2.00     2600.00
04156              -6.00     2600.00
04157              -2.00     2400.00
04158               0.00     2400.00
04159              -2.00     2200.00
04160              -2.00     2200.00
04161              -2.00     2200.00
04162              -8.00     2200.00
04163              -2.00     2400.00
04164               0.00     2200.00
04165              -2.00     1800.00
04166              -2.00     2000.00
04167              -2.00     1800.00
04168              -4.00     2000.00
04169              -4.00     1600.00
04170              -6.00     1800.00
04171               0.00     1800.00
04172              -2.00     1400.00
04173              -6.00     1600.00
04174              -8.00     1400.00
04175              -2.00     1400.00
04176              -2.00     1200.00
04177              -6.00     1400.00
04178              -6.00     1400.00
04179               0.00     1000.00
04180              -2.00     1200.00
04181              -8.00     1000.00
04182              -8.00     1200.00
04183              -2.00      800.00
04184              -2.00      800.00
04185              -6.00      800.00
04186              -6.00      800.00
04187               0.00      600.00
04188              -6.00      600.00
04189              -8.00      600.00
04190              -8.00      400.00
04191              -2.00      200.00
04192              -2.00      400.00
04193              -2.00      200.00
04194               0.00      200.00
04195              -2.00        0.00
04196               4.00        0.00
04197               6.00        0.00
04198               0.00     -200.00
04199             -10.00     -200.00
04200              -8.00     -200.00
04201              -2.00     -200.00
04202              16.00     -200.00
04203              80.00     -400.00
04204             152.00     -600.00
04205             -64.00     -800.00
04206            -254.00     -800.00
04207            -214.00     -600.00
04208             246.00     -600.00
04209             246.00     -800.00
04210            -254.00    -1000.00
04211            -254.00     -800.00
04212             122.00    -1000.00
04213             246.00    -1000.00
04214              -8.00    -1000.00
04215            -254.00    -1000.00
04216             -34.00    -1200.00
04217             246.00    -1400.00
04218              14.00    -1000.00
04219            -210.00    -1600.00
04220              24.00    -1400.00
04221               8.00    -1400.00
04222               6.00    -1600.00
04223              90.00    -1800.00
04224             -10.00    -1600.00
04225            -208.00    -1400.00
04226              76.00    -1800.00
04227             230.00    -1800.00
04228             -96.00    -1800.00
04229            -216.00    -2000.00
04230              80.00    -1800.00
04231             166.00    -2200.00
04232             -48.00    -2200.00
04233             -96.00    -2400.00
04234             -22.00    -2200.00
04235              42.00    -2200.00
04236              44.00    -2400.00
04237              -2.00    -2400.00
04238             -58.00    -2600.00
04239               4.00    -2600.00
04240              24.00    -2600.00
04241             -16.00    -2600.00
04242             -16.00    -2600.00
04243              10.00    -2600.00
04244               6.00    -2600.00
04245              -2.00    -3000.00
04246             -10.00    -2800.00
04247             -34.00    -3000.00
04248               8.00    -3000.00
04249              38.00    -3000.00
04250              -8.00    -3000.00
04251             -46.00    -3000.00
04252               0.00    -3000.00
04253              26.00    -3200.00
04254              -4.00    -3200.00
04255             -22.00    -3200.00
04256              -8.00    -3000.00
04257               6.00    -3400.00
04258               6.00    -3400.00
04259              -6.00    -3200.00
04260             -14.00    -3400.00
04261              -8.00    -3400.00
04262               6.00    -3200.00
04263               6.00    -3400.00
04264              -6.00    -3600.00
04265             -10.00    -3400.00
04266              -4.00    -3400.00
04267               6.00    -3400.00
04268               0.00    -3400.00
04269             -10.00    -3400.00
04270               0.00    -3800.00
04271               6.00    -3400.00
04272              -2.00    -3600.00
04273              -8.00    -3600.00
04274              -4.00    -3800.00
04275              -2.00    -3600.00
04276               2.00    -3800.00
04277               0.00    -3800.00
04278               0.00    -3800.00
04279              -6.00    -3600.00
04280              -8.00    -3800.00
04281              -4.00    -4000.00
04282               2.00    -3800.00
04283               2.00    -3800.00
04284               0.00    -3800.00
04285              -2.00    -3800.00
04286              -6.00    -3800.00
04287              -6.00    -3800.00
04288               0.00    -3800.00
04289               6.00    -3800.00
04290              -2.00    -3800.00
04291              -2.00    -3800.00
04292               0.00    -3800.00
04293              -6.00    -3800.00
04294              -6.00    -3800.00
04295               0.00    -3800.00
04296               4.00    -3600.00
04297              -2.00    -3800.00
04298              -2.00    -3600.00
04299              -6.00    -3800.00
04300              -2.00    -3800.00
04301              -2.00    -3800.00
04302               0.00    -3800.00
04303               0.00    -3800.00
04304              -2.00    -3800.00
04305              -6.00    -3800.00
04306              -6.00    -3800.00
04307              -6.00    -3400.00
04308              -2.00    -3400.00
04309               0.00    -3600.00
04310               0.00    -3400.00
04311              -6.00    -3400.00
04312              -4.00    -3400.00
04313              -2.00    -3400.00
04314              -2.00    -3400.00
04315              -6.00    -3400.00
04316               2.00    -3400.00
04317              -2.00    -3400.00
04318              -2.00    -3400.00
04319              -6.00    -3400.00
04320              -2.00    -3200.00
04321              -4.00    -3200.00
04322              -2.00    -3200.00
04323              -2.00    -3200.00
04324               0.00    -3200.00
04325              -2.00    -3200.00
04326              -6.00    -3000.00
04327              -8.00    -3000.00
04328               0.00    -3000.00
04329               0.00    -3000.00
04330               0.00    -3000.00
04331               0.00    -3000.00
04332              -6.00    -3000.00
04333              -6.00    -2800.00
04334              -2.00    -2600.00
04335              -2.00    -2800.00
04336              -2.00    -2600.00
04337               0.00    -2400.00
04338               0.00    -2600.00
04339              -2.00    -2600.00
04340              -6.00    -2400.00
04341              -2.00    -2400.00
04342               0.00    -2200.00
04343               0.00    -2200.00
04344               0.00    -2200.00
04345              -2.00    -2200.00
04346              -6.00    -2200.00
04347              -6.00    -2200.00
04348              -2.00    -2000.00
04349               0.00    -2000.00
04350               2.00    -1800.00
04351              -2.00    -1800.00
04352              -6.00    -1800.00
04353              -2.00    -1800.00
04354               0.00    -1800.00
04355              -2.00    -1600.00
04356              -2.00    -1600.00
04357               0.00    -1600.00
04358               0.00    -1400.00
04359              -2.00    -1400.00
04360              -6.00    -1400.00
04361              -2.00    -1400.00
04362              -2.00    -1200.00
04363               2.00    -1000.00
04364               0.00    -1000.00
04365              -6.00    -1000.00
04366              -2.00    -1000.00
04367              -2.00    -1000.00
04368              -6.00     -800.00
04369              -4.00     -800.00
04370              -2.00     -800.00
04371               0.00     -800.00
04372              -6.00     -600.00
04373              -8.00     -600.00
04374              -6.00     -600.00
04375               0.00     -400.00
04376              -2.00     -600.00
04377              -6.00     -200.00
04378              -2.00     -200.00
04379              -2.00     -200.00
04380              -8.00     -200.00
04381              -8.00        0.00
04382              -2.00     -200.00
04383               0.00        0.00
04384              -2.00        0.00
04385               0.00      200.00
04386              -2.00      200.00
04387               0.00      200.00
04388               8.00      400.00
04389               0.00      400.00
04390              -8.00      600.00
04391              -8.00      600.00
04392              -2.00      800.00
04393              16.00      600.00
04394             126.00     1000.00
04395             158.00     1200.00
04396            -234.00     1000.00
04397            -254.00      600.00
04398              74.00     1200.00
04399             246.00     1400.00
04400             246.00     1400.00
04401            -254.00      800.00
04402            -254.00     1400.00
04403             246.00     1600.00
04404             246.00     1800.00
04405            -254.00     1000.00
04406            -254.00     1600.00
04407             246.00     2000.00
04408             246.00     1800.00
04409            -254.00     1400.00
04410             -58.00     2200.00
04411             246.00     2200.00
04412            -110.00     1800.00
04413            -254.00     1800.00
04414             198.00     2400.00
04415             112.00     2200.00
04416            -250.00     2000.00
04417              56.00     2400.00
04418             230.00     2200.00
04419            -174.00     2200.00
04420            -176.00     2400.00
04421             200.00     2600.00
04422              86.00     2400.00
04423            -142.00     2600.00
04424             -38.00     2600.00
04425              46.00     2600.00
04426              10.00     2600.00
04427              16.00     2600.00
04428             -30.00     3000.00
04429             -22.00     2800.00
04430              40.00     3000.00
04431             -30.00     3000.00
04432             -50.00     3000.00
04433              62.00     3000.00
04434               2.00     3000.00
04435             -60.00     3000.00
04436              40.00     3400.00
04437               8.00     3200.00
04438             -72.00     3200.00
04439              32.00     3400.00
04440              54.00     3400.00
04441             -54.00     3200.00
04442             -24.00     3400.00
04443              22.00     3400.00
04444              -8.00     3400.00
04445              -6.00     3400.00
04446              -2.00     3600.00
04447             -14.00     3600.00
04448              10.00     3400.00
04449             -10.00     3600.00
04450             -18.00     3400.00
04451              16.00     3800.00
04452              -8.00     3800.00
04453             -30.00     3800.00
04454              22.00     3800.00
04455               4.00     3800.00
04456             -32.00     3800.00
04457               6.00     3800.00
04458              10.00     4000.00
04459             -20.00     4000.00
04460               0.00     4000.00
04461              10.00     4000.00
04462              -6.00     4000.00
04463              -8.00     4200.00
04464             -10.00     4000.00
04465              -8.00     4000.00
04466               6.00     4000.00
04467              -6.00     4200.00
04468              -2.00     4000.00
04469               6.00     4000.00
04470             -10.00     4200.00
04471             -12.00     4000.00
04472               8.00     4200.00
04473               0.00     4200.00
04474              -8.00     4200.00
04475               6.00     4200.00
04476              -2.00     4200.00
04477             -16.00     4200.00
04478              -6.00     4200.00
04479               2.00     4200.00
04480               2.00     4200.00
04481               0.00     4200.00
04482              -8.00     4200.00
04483              -8.00     4200.00
04484              -2.00     4000.00
04485              -6.00     4200.00
04486               0.00     4200.00
04487               6.00     4200.00
04488              -6.00     4000.00
04489             -10.00     4200.00
04490               0.00     4200.00
04491              -2.00     4000.00
04492              -2.00     4000.00
04493               2.00     4200.00
04494              -6.00     4000.00
04495              -8.00     4000.00
04496               0.00     4200.00
04497              -6.00     3800.00
04498             -10.00     4000.00
04499              -2.00     4000.00
04500               2.00     3800.00
04501              -2.00     3800.00
04502              -8.00     4000.00
04503              -6.00     3800.00
04504              -2.00     3800.00
04505              -6.00     3800.00
04506              -6.00     3800.00
04507              -2.00     3800.00
04508               0.00     3600.00
04509              -8.00     3800.00
04510              -8.00     3800.00
04511              -2.00     3600.00
04512              -6.00     3600.00
04513              -8.00     3600.00
04514              -2.00     3800.00
04515              -2.00     3600.00
04516              -2.00     3400.00
04517              -8.00     3400.00
04518              -6.00     3200.00
04519              -6.00     3400.00
04520              -2.00     3200.00
04521              -2.00     3400.00
04522              -2.00     3200.00
04523              -8.00     3200.00
04524              -8.00     3200.00
04525              -2.00     3200.00
04526               0.00     3200.00
04527              -2.00     3000.00
04528               0.00     3000.00
04529               0.00     3000.00
04530              -8.00     3000.00
04531              -8.00     3000.00
04532               0.00     3000.00
04533               0.00     2800.00
04534              -2.00     2800.00
04535              -6.00     2600.00
04536              -2.00     2600.00
04537              -4.00     2600.00
04538              -2.00     2600.00
04539              -6.00     2600.00
04540              -2.00     2400.00
04541              -2.00     2400.00
04542              -2.00     2400.00
04543              -2.00     2400.00
04544              -6.00     2200.00
04545              -8.00     2200.00
04546              -2.00     2000.00
04547               2.00     2000.00
04548              -2.00     2000.00
04549              -6.00     2000.00
04550              -6.00     1800.00
04551              -6.00     1800.00
04552              -2.00     1800.00
04553               0.00     1600.00
04554               0.00     1600.00
04555              -6.00     1600.00
04556              -8.00     1600.00
04557              -6.00     1400.00
04558               2.00     1400.00
04559              -2.00     1400.00
04560              -6.00     1200.00
04561              -4.00     1200.00
04562               0.00     1000.00
04563              -4.00     1200.00
04564              -8.00     1200.00
04565              -6.00     1000.00
04566              -2.00      800.00
04567              -2.00      800.00
04568              -2.00      800.00
04569              -2.00      600.00
04570              -2.00      600.00
04571              -8.00      600.00
04572             -10.00      400.00
04573              -2.00      200.00
04574              -2.00      200.00
04575               0.00      200.00
04576              -6.00      200.00
04577              -2.00        0.00
04578               0.00        0.00
04579               6.00        0.00
04580               4.00        0.00
04581              -6.00     -200.00
04582             -10.00     -200.00
04583              -4.00     -200.00
04584               6.00     -200.00
04585              38.00     -400.00
04586             134.00     -400.00
04587              94.00     -600.00
04588            -254.00     -800.00
04589            -254.00     -400.00
04590             170.00     -600.00
04591             246.00     -600.00
04592             234.00    -1000.00
04593            -254.00     -800.00
04594            -254.00     -800.00
04595             246.00    -1000.00
04596             246.00    -1000.00
04597            -254.00    -1000.00
04598            -254.00    -1200.00
04599             246.00    -1400.00
04600             240.00    -1200.00
04601            -162.00    -1400.00
04602            -110.00    -1600.00
04603              56.00    -1400.00
04604             -22.00    -1400.00
04605              54.00    -1600.00
04606              90.00    -1800.00
04607            -162.00    -1600.00
04608            -102.00    -1600.00
04609             214.00    -2000.00
04610             102.00    -1800.00
04611            -234.00    -2000.00
04612             -74.00    -1800.00
04613             170.00    -2200.00
04614              70.00    -2000.00
04615            -106.00    -2400.00
04616             -56.00    -2200.00
04617              16.00    -2200.00
04618              54.00    -2200.00
04619              24.00    -2400.00
04620             -48.00    -2400.00
04621             -26.00    -2600.00
04622              26.00    -2600.00
04623              10.00    -2600.00
04624             -30.00    -2600.00
04625               6.00    -2800.00
04626               8.00    -2800.00
04627               6.00    -2800.00
04628              -4.00    -3000.00
04629             -24.00    -3000.00
04630             -18.00    -2800.00
04631              32.00    -3000.00
04632              22.00    -3000.00
04633             -40.00    -3000.00
04634             -26.00    -3200.00
04635              22.00    -3200.00
04636              14.00    -3200.00
04637             -18.00    -3200.00
04638             -10.00    -3200.00
04639               2.00    -3200.00
04640               6.00    -3200.00
04641               0.00    -3400.00
04642             -10.00    -3400.00
04643             -10.00    -3400.00
04644               0.00    -3400.00
04645               8.00    -3400.00
04646               0.00    -3600.00
04647             -10.00    -3400.00
04648             -10.00    -3400.00
04649               6.00    -3400.00
04650               6.00    -3600.00
04651             -10.00    -3800.00
04652              -8.00    -3400.00
04653               8.00    -3600.00
04654               2.00    -3800.00
04655             -12.00    -3800.00
04656             -10.00    -3800.00
04657               0.00    -3800.00
04658               4.00    -3800.00
04659               6.00    -3800.00
04660              -4.00    -3600.00
04661              -6.00    -3800.00
04662              -6.00    -3800.00
04663               0.00    -3800.00
04664               0.00    -3800.00
04665               0.00    -3800.00
04666               0.00    -3600.00
04667               0.00    -3800.00
04668              -2.00    -3800.00
04669              -8.00    -3800.00
04670              -8.00    -3800.00
04671               6.00    -3800.00
04672               6.00    -3800.00
04673              -2.00    -3800.00
04674              -2.00    -3800.00
04675              -4.00    -3800.00
04676              -6.00    -3800.00
04677               0.00    -3800.00
04678               4.00    -3800.00
04679               0.00    -3800.00
04680               0.00    -3800.00
04681              -2.00    -3600.00
04682              -4.00    -3800.00
04683              -2.00    -3800.00
04684               0.00    -3400.00
04685               0.00    -3800.00
04686               2.00    -3600.00
04687              -4.00    -3600.00
04688              -4.00    -3800.00
04689              -2.00    -3600.00
04690              -2.00    -3600.00
04691               0.00    -3400.00
04692               2.00    -3400.00
04693              -6.00    -3400.00
04694              -6.00    -3400.00
04695              -2.00    -3400.00
04696              -2.00    -3400.00
04697              -2.00    -3400.00
04698              -2.00    -3600.00
04699               0.00    -3400.00
04700               0.00    -3400.00
04701              -2.00    -3400.00
04702              -6.00    -3400.00
04703              -2.00    -3000.00
04704              -2.00    -3200.00
04705              -4.00    -3200.00
04706               0.00    -3200.00
04707              -2.00    -3200.00
04708              -2.00    -3000.00
04709              -6.00    -3000.00
04710              -6.00    -3000.00
04711               0.00    -3000.00
04712               0.00    -3000.00
04713               0.00    -2800.00
04714              -6.00    -2800.00
04715              -8.00    -2800.00
04716              -2.00    -2600.00
04717               0.00    -2600.00
04718               0.00    -2600.00
04719              -2.00    -2600.00
04720               0.00    -2600.00
04721              -2.00    -2600.00
04722              -2.00    -2400.00
04723              -2.00    -2400.00
04724               0.00    -2400.00
04725               0.00    -2400.00
04726              -6.00    -2400.00
04727              -4.00    -2200.00
04728              -2.00    -2200.00
04729              -2.00    -2200.00
04730              -2.00    -2000.00
04731              -2.00    -2000.00
04732              -2.00    -1800.00
04733               0.00    -1800.00
04734               0.00    -1800.00
04735              -6.00    -1800.00
04736              -8.00    -1800.00
04737              -2.00    -1600.00
04738               0.00    -1600.00
04739               2.00    -1600.00
04740              -2.00    -1400.00
04741              -6.00    -1400.00
04742              -2.00    -1400.00
04743              -2.00    -1400.00
04744              -2.00    -1200.00
04745               0.00    -1400.00
04746               0.00    -1200.00
04747              -2.00    -1000.00
04748              -6.00    -1000.00
04749              -2.00    -1000.00
04750              -2.00    -1000.00
04751              -2.00     -800.00
04752              -2.00     -800.00
04753               0.00     -600.00
04754              -2.00     -600.00
04755              -2.00     -600.00
04756              -8.00     -400.00
04757              -2.00     -600.00
04758              -2.00     -400.00
04759              -2.00     -200.00
04760              -4.00     -200.00
04761              -2.00     -200.00
04762              -4.00        0.00
04763              -8.00     -200.00
04764              -6.00        0.00
04765              -2.00        0.00
04766              -2.00      200.00
04767               0.00      200.00
04768               0.00      200.00
04769               0.00      200.00
04770               4.00      400.00
04771               6.00      600.00
04772              -2.00      600.00
04773              -8.00      600.00
04774              -8.00      800.00
04775               2.00      600.00
04776              60.00     1000.00
04777             176.00     1200.00
04778              16.00     1000.00
04779            -254.00      800.00
04780            -254.00      800.00
04781             246.00     1400.00
04782             246.00     1600.00
04783            -254.00     1000.00
04784            -254.00     1000.00
04785              40.00     1600.00
04786             246.00     1800.00
04787              22.00     1400.00
04788            -254.00     1200.00
04789              32.00     1800.00
04790             246.00     1800.00
04791            -184.00     1400.00
04792            -254.00     1800.00
04793             246.00     2200.00
04794             200.00     2000.00
04795            -254.00     1800.00
04796             -28.00     2200.00
04797             246.00     2200.00
04798            -128.00     2200.00
04799            -166.00     2200.00
04800             238.00     2400.00
04801              38.00     2200.00
04802            -254.00     2400.00
04803              34.00     2600.00
04804             214.00     2600.00
04805             -64.00     2400.00
04806            -120.00     2600.00
04807              32.00     2600.00
04808              22.00     2600.00
04809              16.00     2600.00
04810               0.00     2800.00
04811             -40.00     2800.00
04812              18.00     3000.00
04813              22.00     3000.00
04814             -64.00     3000.00
04815              16.00     3000.00
04816              54.00     3200.00
04817             -48.00     3000.00
04818             -14.00     3000.00
04819              50.00     3400.00
04820             -54.00     3000.00
04821             -30.00     3200.00
04822              70.00     3400.00
04823              -8.00     3400.00
04824             -58.00     3200.00
04825              14.00     3600.00
04826              10.00     3400.00
04827             -10.00     3400.00
04828               0.00     3800.00
04829             -14.00     3600.00
04830               2.00     3800.00
04831               8.00     3800.00
04832             -22.00     3600.00
04833               0.00     3600.00
04834              16.00     3800.00
04835             -30.00     3800.00
04836              -2.00     3800.00
04837              26.00     4000.00
04838             -22.00     4000.00
04839             -16.00     3800.00
04840              16.00     4000.00
04841             -14.00     4000.00
04842             -16.00     4000.00
04843              10.00     4000.00
04844               0.00     4000.00
04845             -10.00     4000.00
04846              -8.00     4000.00
04847              -8.00     4000.00
04848               2.00     4000.00
04849               2.00     4200.00
04850             -12.00     4200.00
04851               0.00     4000.00
04852               0.00     4200.00
04853             -16.00     4200.00
04854              -2.00     4200.00
04855               6.00     4200.00
04856             -10.00     4200.00
04857              -6.00     4000.00
04858               6.00     4200.00
04859             -10.00     4200.00
04860             -10.00     4200.00
04861               0.00     4200.00
04862               0.00     4200.00
04863               0.00     4200.00
04864              -2.00     4400.00
04865              -6.00     4200.00
04866              -2.00     4200.00
04867              -6.00     4200.00
04868              -6.00     4200.00
04869               4.00     4200.00
04870               2.00     4000.00
04871             -10.00     4200.00
04872              -2.00     4200.00
04873              -2.00     4000.00
04874              -6.00     4000.00
04875               0.00     4200.00
04876               2.00     4000.00
04877              -8.00     4000.00
04878              -2.00     4000.00
04879               0.00     4000.00
04880              -6.00     4200.00
04881              -6.00     4000.00
04882               0.00     4000.00
04883               2.00     4000.00
04884              -2.00     4000.00
04885              -4.00     4000.00
04886              -6.00     4000.00
04887              -6.00     3800.00
04888              -8.00     3800.00
04889              -2.00     3800.00
04890               0.00     3800.00
04891              -2.00     3800.00
04892              -8.00     3800.00
04893              -6.00     3800.00
04894               0.00     3800.00
04895              -2.00     3600.00
04896              -4.00     3600.00
04897              -2.00     3600.00
04898              -8.00     3600.00
04899              -6.00     3400.00
04900              -6.00     3400.00
04901              -8.00     3400.00
04902              -2.00     3400.00
04903              -2.00     3400.00
04904              -2.00     3200.00
04905              -2.00     3200.00
04906             -10.00     3200.00
04907              -8.00     3200.00
04908               0.00     3200.00
04909              -2.00     3000.00
04910              -6.00     3000.00
04911              -2.00     3000.00
04912              -6.00     3000.00
04913              -8.00     3000.00
04914              -6.00     3000.00
04915              -2.00     2800.00
04916              -2.00     2800.00
04917              -2.00     2800.00
04918              -6.00     2600.00
04919              -4.00     2600.00
04920              -6.00     2600.00
04921              -2.00     2600.00
04922               0.00     2400.00
04923              -2.00     2400.00
04924              -2.00     2200.00
04925              -2.00     2400.00
04926              -6.00     2400.00
04927              -8.00     2400.00
04928              -2.00     2200.00
04929              -2.00     2200.00
04930               0.00     2200.00
04931              -6.00     2000.00
04932              -6.00     1800.00
04933              -2.00     1800.00
04934              -2.00     1800.00
04935              -6.00     1800.00
04936               0.00     1600.00
04937               0.00     1600.00
04938              -6.00     1600.00
04939              -8.00     1600.00
04940              -2.00     1400.00
04941               0.00     1400.00
04942              -4.00     1400.00
04943              -4.00     1400.00
04944               0.00     1000.00
04945               0.00     1200.00
04946              -4.00     1200.00
04947              -8.00     1000.00
04948              -2.00     1200.00
04949              -2.00      800.00
04950              -2.00      800.00
04951              -6.00      600.00
04952              -4.00      600.00
04953              -6.00      600.00
04954              -2.00      400.00
04955              -6.00      400.00
04956              -2.00      200.00
04957              -2.00      200.00
04958              -2.00      200.00
04959              -2.00      200.00
04960              -2.00      200.00
04961               2.00        0.00
04962               6.00        0.00
04963               0.00        0.00
04964             -10.00     -200.00
04965              -8.00     -200.00
04966               0.00     -200.00
04967              16.00     -200.00
04968              82.00     -400.00
04969             150.00     -600.00
04970             -70.00     -800.00
04971            -254.00     -800.00
04972            -202.00     -200.00
04973             246.00     -600.00
04974             246.00     -800.00
04975            -254.00    -1200.00
04976            -254.00     -800.00
04977             138.00    -1000.00
04978             246.00    -1000.00
04979             -26.00    -1200.00
04980            -254.00    -1000.00
04981             -22.00    -1200.00
04982             246.00    -1400.00
04983               8.00    -1200.00
04984            -208.00    -1600.00
04985              26.00    -1400.00
04986               6.00    -1400.00
04987               8.00    -1400.00
04988              94.00    -1800.00
04989             -18.00    -1600.00
04990            -208.00    -1600.00
04991              86.00    -1800.00
04992             226.00    -2000.00
04993            -106.00    -1800.00
04994            -216.00    -1800.00
04995              86.00    -2200.00
04996             166.00    -2000.00
04997             -48.00    -2200.00
04998             -96.00    -2400.00
04999             -22.00    -2200.00
05000              48.00    -2200.00
