Unit:(mV)
                     CH1         CH2
Frequency              ? 261.448 kHz
00001             246.00     -600.00
00002             246.00     -800.00
00003            -254.00    -1200.00
00004            -254.00     -800.00
00005             246.00    -1000.00
00006             246.00    -1000.00
00007            -178.00    -1400.00
00008            -254.00    -1200.00
00009             110.00    -1400.00
00010             246.00    -1200.00
00011             -78.00    -1400.00
00012            -222.00    -1600.00
00013              78.00    -1400.00
00014               6.00    -1600.00
00015               0.00    -1400.00
00016             114.00    -1800.00
00017             -46.00    -1800.00
00018            -218.00    -1600.00
00019             130.00    -1800.00
00020             246.00    -1800.00
00021            -164.00    -1800.00
00022            -230.00    -2000.00
00023             142.00    -2000.00
00024             186.00    -2000.00
00025             -90.00    -2200.00
00026            -104.00    -2200.00
00027              14.00    -2200.00
00028              56.00    -2400.00
00029              22.00    -2600.00
00030               0.00    -2400.00
00031             -32.00    -2600.00
00032              -2.00    -2600.00
00033              24.00    -2400.00
00034               2.00    -2600.00
00035             -10.00    -2600.00
00036               2.00    -2600.00
00037              32.00    -2600.00
00038               8.00    -3000.00
00039             -28.00    -2800.00
00040             -18.00    -2800.00
00041              42.00    -3000.00
00042              38.00    -3000.00
00043             -22.00    -3000.00
00044             -26.00    -3000.00
00045              18.00    -3200.00
00046              30.00    -3000.00
00047               2.00    -3200.00
00048             -10.00    -3200.00
00049               2.00    -3200.00
00050              18.00    -3400.00
00051              14.00    -3200.00
00052              -2.00    -3400.00
00053              -6.00    -3600.00
00054               6.00    -3400.00
00055              16.00    -3400.00
00056              12.00    -3400.00
00057               6.00    -3400.00
00058               0.00    -3400.00
00059               6.00    -3600.00
00060              14.00    -3400.00
00061               8.00    -3600.00
00062               0.00    -3600.00
00063              10.00    -3400.00
00064              16.00    -3800.00
00065               2.00    -3800.00
00066               0.00    -3800.00
00067              10.00    -3600.00
00068              12.00    -3800.00
00069              10.00    -3600.00
00070              10.00    -3800.00
00071               8.00    -3800.00
00072               6.00    -3800.00
00073               8.00    -4000.00
00074               8.00    -3800.00
00075              14.00    -3800.00
00076              12.00    -3800.00
00077              14.00    -3800.00
00078              14.00    -3800.00
00079               6.00    -3800.00
00080               2.00    -4000.00
00081              14.00    -3800.00
00082              24.00    -3800.00
00083              14.00    -3800.00
00084              12.00    -3800.00
00085              14.00    -3800.00
00086              10.00    -4000.00
00087              14.00    -3800.00
00088              20.00    -3800.00
00089              16.00    -3800.00
00090              14.00    -3800.00
00091              16.00    -3800.00
00092              14.00    -3800.00
00093              16.00    -3800.00
00094              18.00    -3600.00
00095              18.00    -3800.00
00096              18.00    -3800.00
00097              16.00    -3600.00
00098              18.00    -3600.00
00099              18.00    -3800.00
00100              14.00    -3600.00
00101              14.00    -3600.00
00102              22.00    -3400.00
00103              22.00    -3400.00
00104              16.00    -3400.00
00105              14.00    -3400.00
00106              16.00    -3400.00
00107              16.00    -3400.00
00108              18.00    -3400.00
00109              18.00    -3400.00
00110              16.00    -3400.00
00111              16.00    -3200.00
00112              14.00    -3400.00
00113              14.00    -3400.00
00114              16.00    -3200.00
00115              16.00    -3200.00
00116              20.00    -3200.00
00117              16.00    -3200.00
00118              14.00    -3000.00
00119              10.00    -3000.00
00120              16.00    -3000.00
00121              14.00    -3000.00
00122              16.00    -2800.00
00123              14.00    -3000.00
00124              16.00    -3000.00
00125              10.00    -2800.00
00126               8.00    -2800.00
00127              10.00    -2800.00
00128              16.00    -2800.00
00129              14.00    -2600.00
00130              12.00    -2400.00
00131               8.00    -2600.00
00132              10.00    -2400.00
00133               8.00    -2400.00
00134              10.00    -2400.00
00135              10.00    -2400.00
00136              10.00    -2200.00
00137               8.00    -2200.00
00138               8.00    -2200.00
00139               8.00    -2200.00
00140               8.00    -2200.00
00141              10.00    -2000.00
00142               6.00    -2000.00
00143               6.00    -2000.00
00144               8.00    -1800.00
00145               6.00    -1800.00
00146               6.00    -1800.00
00147               2.00    -1800.00
00148               6.00    -1600.00
00149               8.00    -1600.00
00150              10.00    -1400.00
00151               6.00    -1400.00
00152               2.00    -1400.00
00153               2.00    -1400.00
00154               2.00    -1400.00
00155               6.00    -1200.00
00156               8.00    -1000.00
00157               2.00    -1000.00
00158              -2.00    -1000.00
00159               0.00    -1000.00
00160               2.00    -1000.00
00161               0.00     -800.00
00162               2.00     -800.00
00163               0.00     -600.00
00164               4.00     -600.00
00165               0.00     -600.00
00166              -2.00     -400.00
00167              -2.00     -600.00
00168               0.00     -600.00
00169               2.00     -400.00
00170               2.00     -200.00
00171               0.00     -200.00
00172              -2.00     -200.00
00173              -6.00        0.00
00174              -2.00        0.00
00175               0.00        0.00
00176               0.00      200.00
00177              -2.00        0.00
00178               0.00      200.00
00179               0.00      200.00
00180               6.00      200.00
00181               8.00      600.00
00182               0.00      600.00
00183             -10.00      600.00
00184              -8.00      600.00
00185              -2.00      600.00
00186              30.00      800.00
00187             160.00      800.00
00188             136.00     1200.00
00189            -254.00      800.00
00190            -254.00      800.00
00191             224.00     1200.00
00192             246.00     1400.00
00193             208.00     1400.00
00194            -254.00      800.00
00195            -254.00     1400.00
00196             246.00     1600.00
00197             246.00     1600.00
00198            -254.00     1000.00
00199            -254.00     1600.00
00200             246.00     2000.00
00201             124.00     1600.00
00202            -254.00     1400.00
00203              62.00     2000.00
00204             246.00     2200.00
00205            -224.00     1800.00
00206            -240.00     2000.00
00207             246.00     2400.00
00208              40.00     2200.00
00209            -254.00     2200.00
00210             130.00     2400.00
00211             214.00     2400.00
00212            -250.00     2200.00
00213            -156.00     2400.00
00214             246.00     2600.00
00215              56.00     2400.00
00216            -186.00     2600.00
00217             -28.00     2600.00
00218              62.00     2600.00
00219               6.00     2600.00
00220             -16.00     2800.00
00221             -30.00     2800.00
00222               0.00     3000.00
00223              10.00     3200.00
00224             -58.00     3000.00
00225             -10.00     3000.00
00226              56.00     3200.00
00227             -46.00     3200.00
00228             -42.00     3200.00
00229              54.00     3400.00
00230             -42.00     3400.00
00231             -68.00     3200.00
00232              58.00     3400.00
00233              22.00     3200.00
00234             -78.00     3400.00
00235             -10.00     3600.00
00236              12.00     3400.00
00237             -22.00     3400.00
00238              -8.00     3600.00
00239             -16.00     3800.00
00240             -18.00     3400.00
00241               8.00     3800.00
00242             -26.00     3800.00
00243             -26.00     3800.00
00244              14.00     3800.00
00245             -28.00     3800.00
00246             -32.00     3800.00
00247              18.00     4000.00
00248             -16.00     3800.00
00249             -42.00     3800.00
00250               6.00     4000.00
00251             -10.00     4000.00
00252             -36.00     4000.00
00253              -8.00     4000.00
00254              -6.00     4000.00
00255             -22.00     3800.00
00256             -18.00     4200.00
00257             -24.00     4200.00
00258             -14.00     4000.00
00259              -6.00     4200.00
00260             -24.00     4000.00
00261             -16.00     4000.00
00262              -6.00     4200.00
00263             -30.00     4200.00
00264             -26.00     4000.00
00265              -2.00     4200.00
00266             -18.00     4200.00
00267             -24.00     4200.00
00268              -8.00     4200.00
00269             -18.00     4200.00
00270             -32.00     4200.00
00271             -18.00     4200.00
00272             -14.00     4200.00
00273             -14.00     4200.00
00274             -14.00     4200.00
00275             -26.00     4200.00
00276             -26.00     4200.00
00277             -18.00     4200.00
00278             -22.00     4000.00
00279             -16.00     4200.00
00280             -12.00     4200.00
00281             -22.00     4200.00
00282             -24.00     4000.00
00283             -18.00     4200.00
00284             -30.00     4200.00
00285             -24.00     4000.00
00286             -14.00     4200.00
00287             -24.00     4000.00
00288             -26.00     4000.00
00289             -24.00     4000.00
00290             -24.00     4000.00
00291             -26.00     4000.00
00292             -24.00     4000.00
00293             -22.00     4000.00
00294             -22.00     4000.00
00295             -24.00     4000.00
00296             -26.00     3800.00
00297             -24.00     4000.00
00298             -24.00     3800.00
00299             -24.00     4000.00
00300             -16.00     3800.00
00301             -22.00     3800.00
00302             -26.00     3800.00
00303             -24.00     3800.00
00304             -20.00     3800.00
00305             -26.00     3800.00
00306             -22.00     3600.00
00307             -18.00     3600.00
00308             -18.00     3400.00
00309             -26.00     3400.00
00310             -26.00     3400.00
00311             -24.00     3400.00
00312             -22.00     3400.00
00313             -18.00     3400.00
00314             -20.00     3200.00
00315             -18.00     3200.00
00316             -26.00     3200.00
00317             -26.00     3200.00
00318             -18.00     3200.00
00319             -16.00     3000.00
00320             -18.00     3000.00
00321             -18.00     3000.00
00322             -18.00     3000.00
00323             -22.00     3000.00
00324             -22.00     3000.00
00325             -16.00     3000.00
00326             -16.00     2800.00
00327             -18.00     2600.00
00328             -18.00     2600.00
00329             -16.00     2600.00
00330             -16.00     2600.00
00331             -16.00     2600.00
00332             -14.00     2400.00
00333             -14.00     2400.00
00334             -16.00     2400.00
00335             -16.00     2200.00
00336             -10.00     2400.00
00337             -14.00     2200.00
00338             -18.00     2200.00
00339             -14.00     2200.00
00340             -10.00     2200.00
00341             -10.00     2000.00
00342             -14.00     1800.00
00343             -12.00     1800.00
00344             -14.00     1800.00
00345             -14.00     1800.00
00346              -8.00     1600.00
00347              -6.00     1600.00
00348             -10.00     1600.00
00349             -16.00     1400.00
00350             -10.00     1400.00
00351              -6.00     1400.00
00352              -8.00     1400.00
00353              -8.00     1200.00
00354              -6.00     1400.00
00355              -6.00     1200.00
00356             -10.00     1200.00
00357             -10.00     1000.00
00358              -6.00      800.00
00359              -4.00      800.00
00360             -10.00      600.00
00361              -8.00      800.00
00362              -6.00      600.00
00363              -4.00      600.00
00364              -8.00      600.00
00365              -8.00      600.00
00366              -6.00      400.00
00367              -2.00      200.00
00368              -6.00      200.00
00369              -2.00      200.00
00370              -2.00        0.00
00371              -2.00        0.00
00372               6.00        0.00
00373               2.00        0.00
00374              -6.00     -200.00
00375             -10.00     -200.00
00376              -6.00     -200.00
00377               8.00     -400.00
00378              54.00     -400.00
00379             160.00     -400.00
00380              60.00     -800.00
00381            -254.00     -800.00
00382            -254.00     -600.00
00383             246.00     -600.00
00384             246.00     -800.00
00385              64.00    -1000.00
00386            -254.00    -1000.00
00387            -254.00     -800.00
00388             246.00    -1000.00
00389             246.00    -1000.00
00390            -254.00    -1000.00
00391            -254.00    -1200.00
00392             246.00    -1400.00
00393             184.00    -1400.00
00394            -240.00    -1400.00
00395             -56.00    -1600.00
00396              76.00    -1400.00
00397             -28.00    -1400.00
00398              56.00    -1600.00
00399              96.00    -1600.00
00400            -208.00    -1600.00
00401             -72.00    -1800.00
00402             246.00    -2000.00
00403              74.00    -1800.00
00404            -254.00    -2000.00
00405             -38.00    -1800.00
00406             226.00    -2200.00
00407              38.00    -2200.00
00408            -146.00    -2200.00
00409             -30.00    -2200.00
00410              62.00    -2200.00
00411              38.00    -2400.00
00412               6.00    -2600.00
00413             -32.00    -2400.00
00414             -14.00    -2600.00
00415              22.00    -2600.00
00416              26.00    -2400.00
00417             -18.00    -2600.00
00418             -14.00    -2600.00
00419              22.00    -2600.00
00420              32.00    -2600.00
00421             -10.00    -3000.00
00422             -42.00    -2800.00
00423              14.00    -3000.00
00424              62.00    -3000.00
00425              12.00    -3000.00
00426             -46.00    -3000.00
00427             -14.00    -3000.00
00428              32.00    -3000.00
00429              30.00    -3200.00
00430              -2.00    -3200.00
00431             -14.00    -3200.00
00432               2.00    -3000.00
00433              22.00    -3400.00
00434              18.00    -3200.00
00435              -2.00    -3200.00
00436              -2.00    -3400.00
00437               6.00    -3400.00
00438              14.00    -3400.00
00439              12.00    -3400.00
00440               0.00    -3400.00
00441               2.00    -3400.00
00442               8.00    -3400.00
00443              10.00    -3600.00
00444               2.00    -3600.00
00445               8.00    -3400.00
00446              18.00    -3800.00
00447              10.00    -3600.00
00448              -2.00    -3800.00
00449               2.00    -3600.00
00450              10.00    -3800.00
00451              14.00    -3800.00
00452              14.00    -3800.00
00453              10.00    -3800.00
00454               6.00    -3800.00
00455               4.00    -3800.00
00456              10.00    -3800.00
00457              12.00    -3800.00
00458              14.00    -3800.00
00459              10.00    -3800.00
00460              10.00    -4000.00
00461              10.00    -3800.00
00462               2.00    -3800.00
00463               8.00    -3800.00
00464              20.00    -3800.00
00465              16.00    -3800.00
00466              10.00    -3800.00
00467              14.00    -3600.00
00468              10.00    -3800.00
00469              10.00    -3600.00
00470              16.00    -3800.00
00471              18.00    -3800.00
00472              18.00    -3800.00
00473              14.00    -3800.00
00474              10.00    -3800.00
00475              16.00    -3800.00
00476              16.00    -3600.00
00477              18.00    -3800.00
00478              18.00    -3800.00
00479              16.00    -3800.00
00480              16.00    -3400.00
00481              18.00    -3600.00
00482              16.00    -3800.00
00483              14.00    -3400.00
00484              18.00    -3400.00
00485              24.00    -3400.00
00486              18.00    -3400.00
00487              14.00    -3400.00
00488              16.00    -3400.00
00489              18.00    -3400.00
00490              18.00    -3400.00
00491              18.00    -3400.00
00492              18.00    -3400.00
00493              16.00    -3400.00
00494              16.00    -3200.00
00495              18.00    -3400.00
00496              16.00    -3200.00
00497              18.00    -3200.00
00498              16.00    -3200.00
00499              18.00    -3200.00
00500              16.00    -3200.00
00501              14.00    -3000.00
00502              10.00    -3000.00
00503              10.00    -3000.00
00504              12.00    -2800.00
00505              18.00    -3000.00
00506              18.00    -2800.00
00507              14.00    -2800.00
00508               6.00    -2800.00
00509               8.00    -2600.00
00510              12.00    -2600.00
00511              16.00    -2600.00
00512              14.00    -2600.00
00513               8.00    -2600.00
00514               8.00    -2400.00
00515               8.00    -2400.00
00516               8.00    -2400.00
00517              14.00    -2400.00
00518              14.00    -2400.00
00519               6.00    -2400.00
00520               2.00    -2200.00
00521               6.00    -2200.00
00522               8.00    -2200.00
00523               8.00    -2000.00
00524               6.00    -2000.00
00525               2.00    -1800.00
00526               6.00    -1800.00
00527               6.00    -1800.00
00528               6.00    -1600.00
00529               2.00    -1600.00
00530               4.00    -1600.00
00531               8.00    -1600.00
00532               8.00    -1600.00
00533               4.00    -1400.00
00534               2.00    -1400.00
00535               0.00    -1200.00
00536               2.00    -1200.00
00537               2.00    -1200.00
00538               4.00    -1200.00
00539               6.00    -1000.00
00540               2.00    -1000.00
00541               2.00    -1000.00
00542               2.00    -1000.00
00543               2.00     -800.00
00544               0.00     -800.00
00545              -2.00     -800.00
00546               2.00     -800.00
00547               2.00     -600.00
00548               0.00     -400.00
00549              -2.00     -600.00
00550              -2.00     -400.00
00551               0.00     -400.00
00552               2.00     -400.00
00553               4.00     -200.00
00554               0.00     -200.00
00555              -2.00     -200.00
00556              -4.00        0.00
00557              -2.00        0.00
00558               0.00      200.00
00559               0.00        0.00
00560               2.00      200.00
00561               0.00      200.00
00562               0.00      200.00
00563               6.00      600.00
00564               8.00      600.00
00565              -2.00      400.00
00566             -10.00      800.00
00567              -6.00      800.00
00568               8.00      600.00
00569              88.00      800.00
00570             196.00     1200.00
00571             -66.00     1000.00
00572            -254.00      800.00
00573            -212.00     1000.00
00574             246.00     1200.00
00575             246.00     1600.00
00576            -254.00     1000.00
00577            -254.00     1200.00
00578             246.00     1600.00
00579             246.00     1800.00
00580            -216.00     1200.00
00581            -254.00     1400.00
00582             202.00     1800.00
00583             246.00     1800.00
00584            -254.00     1400.00
00585            -254.00     1800.00
00586             246.00     2200.00
00587             114.00     1800.00
00588            -254.00     1600.00
00589              48.00     2200.00
00590             246.00     2200.00
00591            -206.00     2200.00
00592            -128.00     2200.00
00593             246.00     2400.00
00594             -32.00     2200.00
00595            -254.00     2200.00
00596              90.00     2600.00
00597             200.00     2400.00
00598            -120.00     2400.00
00599            -122.00     2600.00
00600              86.00     2800.00
00601              40.00     2600.00
00602             -16.00     2600.00
00603             -34.00     2800.00
00604             -32.00     2800.00
00605               6.00     3000.00
00606             -22.00     3000.00
00607             -56.00     3000.00
00608              42.00     3200.00
00609               8.00     3200.00
00610             -56.00     3200.00
00611              34.00     3200.00
00612              28.00     3400.00
00613            -102.00     3200.00
00614             -14.00     3200.00
00615              72.00     3400.00
00616             -36.00     3400.00
00617             -54.00     3400.00
00618               8.00     3400.00
00619             -22.00     3400.00
00620             -10.00     3600.00
00621              12.00     3800.00
00622             -10.00     3800.00
00623               0.00     3600.00
00624              -8.00     3800.00
00625             -42.00     3800.00
00626             -10.00     3800.00
00627             -12.00     3800.00
00628             -46.00     3800.00
00629              14.00     3800.00
00630              26.00     4000.00
00631             -42.00     3800.00
00632             -26.00     4000.00
00633               8.00     4000.00
00634             -22.00     3800.00
00635             -16.00     4000.00
00636              -4.00     3800.00
00637             -30.00     4000.00
00638             -26.00     4000.00
00639             -14.00     4000.00
00640             -10.00     4000.00
00641              -2.00     4000.00
00642             -14.00     4200.00
00643             -30.00     4200.00
00644              -8.00     4200.00
00645             -16.00     4000.00
00646             -34.00     4200.00
00647             -10.00     4000.00
00648              -8.00     4200.00
00649             -26.00     4000.00
00650             -14.00     4200.00
00651              -8.00     4000.00
00652             -26.00     4200.00
00653             -26.00     4200.00
00654             -16.00     4200.00
00655             -18.00     4200.00
00656             -12.00     4200.00
00657             -18.00     4200.00
00658             -26.00     4000.00
00659             -18.00     4200.00
00660             -22.00     4200.00
00661             -24.00     4200.00
00662             -16.00     4200.00
00663             -18.00     4200.00
00664             -26.00     4200.00
00665             -22.00     4000.00
00666             -24.00     4200.00
00667             -26.00     4200.00
00668             -16.00     4200.00
00669             -18.00     4200.00
00670             -30.00     4000.00
00671             -24.00     4200.00
00672             -22.00     4000.00
00673             -30.00     4000.00
00674             -24.00     4000.00
00675             -18.00     4000.00
00676             -18.00     3800.00
00677             -24.00     3800.00
00678             -26.00     4000.00
00679             -24.00     4000.00
00680             -24.00     3800.00
00681             -26.00     3800.00
00682             -24.00     4000.00
00683             -16.00     3800.00
00684             -26.00     3800.00
00685             -32.00     3600.00
00686             -22.00     3800.00
00687             -22.00     3600.00
00688             -24.00     3600.00
00689             -16.00     3600.00
00690             -18.00     3600.00
00691             -26.00     3600.00
00692             -26.00     3400.00
00693             -24.00     3400.00
00694             -22.00     3400.00
00695             -20.00     3400.00
00696             -18.00     3400.00
00697             -18.00     3200.00
00698             -18.00     3200.00
00699             -26.00     3200.00
00700             -24.00     3200.00
00701             -18.00     3200.00
00702             -22.00     3000.00
00703             -22.00     3000.00
00704             -16.00     3000.00
00705             -18.00     3000.00
00706             -22.00     3000.00
00707             -18.00     3000.00
00708             -16.00     2800.00
00709             -18.00     2800.00
00710             -18.00     2800.00
00711             -16.00     2600.00
00712             -18.00     2400.00
00713             -16.00     2600.00
00714             -14.00     2400.00
00715             -14.00     2400.00
00716             -12.00     2400.00
00717             -16.00     2200.00
00718             -14.00     2400.00
00719             -16.00     2200.00
00720             -18.00     2200.00
00721             -16.00     2200.00
00722             -10.00     2200.00
00723             -10.00     2000.00
00724             -14.00     1800.00
00725             -14.00     1800.00
00726             -10.00     1800.00
00727             -12.00     1800.00
00728             -10.00     1800.00
00729              -8.00     1600.00
00730              -8.00     1600.00
00731             -12.00     1400.00
00732             -10.00     1600.00
00733             -10.00     1400.00
00734              -8.00     1400.00
00735              -8.00     1400.00
00736              -8.00     1000.00
00737              -6.00     1200.00
00738              -6.00     1000.00
00739             -14.00     1000.00
00740              -8.00     1200.00
00741              -6.00      800.00
00742              -6.00      800.00
00743              -6.00      800.00
00744              -6.00      800.00
00745              -4.00      600.00
00746              -8.00      600.00
00747             -10.00      600.00
00748              -6.00      400.00
00749              -2.00      200.00
00750              -2.00      200.00
00751              -4.00      200.00
00752               0.00        0.00
00753               0.00        0.00
00754               4.00        0.00
00755               8.00        0.00
00756               0.00     -200.00
00757             -10.00        0.00
00758             -10.00     -200.00
00759               0.00     -200.00
00760              24.00     -200.00
00761             112.00     -200.00
00762             150.00     -600.00
00763            -150.00     -800.00
00764            -254.00     -600.00
00765             -98.00     -400.00
00766             246.00     -600.00
00767             246.00    -1000.00
00768            -254.00    -1000.00
00769            -254.00     -800.00
00770             246.00    -1000.00
00771             246.00    -1000.00
00772            -194.00    -1000.00
00773            -254.00    -1000.00
00774             126.00    -1200.00
00775             246.00    -1400.00
00776             -88.00    -1400.00
00777            -218.00    -1600.00
00778              82.00    -1400.00
00779               8.00    -1600.00
00780               2.00    -1600.00
00781             112.00    -1800.00
00782             -56.00    -1600.00
00783            -216.00    -1600.00
00784             136.00    -1800.00
00785             246.00    -2000.00
00786            -174.00    -1800.00
00787            -224.00    -2000.00
00788             150.00    -2200.00
00789             186.00    -2200.00
00790             -96.00    -2200.00
00791            -102.00    -2400.00
00792              16.00    -2200.00
00793              62.00    -2400.00
00794              24.00    -2400.00
00795               0.00    -2400.00
00796             -32.00    -2400.00
00797              -2.00    -2600.00
00798              26.00    -2400.00
00799               6.00    -2600.00
00800             -10.00    -2600.00
00801               2.00    -2600.00
00802              32.00    -2600.00
00803              10.00    -2800.00
00804             -26.00    -2800.00
00805             -18.00    -3000.00
00806              46.00    -3000.00
00807              34.00    -3000.00
00808             -22.00    -3000.00
00809             -26.00    -3000.00
00810              18.00    -3200.00
00811              32.00    -3000.00
00812               6.00    -3200.00
00813              -8.00    -3200.00
00814               0.00    -3200.00
00815              22.00    -3200.00
00816              16.00    -3200.00
00817               0.00    -3400.00
00818              -6.00    -3400.00
00819               8.00    -3200.00
00820              18.00    -3400.00
00821              14.00    -3400.00
00822               4.00    -3400.00
00823               0.00    -3400.00
00824              10.00    -3800.00
00825              16.00    -3600.00
00826               8.00    -3400.00
00827               2.00    -3600.00
00828              14.00    -3400.00
00829              16.00    -3800.00
00830               4.00    -3800.00
00831              -2.00    -3600.00
00832              10.00    -3800.00
00833              14.00    -3800.00
00834              10.00    -3800.00
00835              14.00    -3800.00
00836               8.00    -3800.00
00837               6.00    -3800.00
00838               8.00    -3600.00
00839              10.00    -3800.00
00840              16.00    -3800.00
00841              12.00    -3800.00
00842              10.00    -3800.00
00843              14.00    -3800.00
00844               6.00    -4000.00
00845               4.00    -3800.00
00846              14.00    -3800.00
00847              20.00    -3600.00
00848              14.00    -3800.00
00849              10.00    -3800.00
00850              12.00    -3800.00
00851               8.00    -3800.00
00852              10.00    -3800.00
00853              18.00    -3800.00
00854              16.00    -3800.00
00855              14.00    -3800.00
00856              14.00    -3800.00
00857              14.00    -3800.00
00858              12.00    -3800.00
00859              16.00    -3800.00
00860              18.00    -3600.00
00861              20.00    -3600.00
00862              16.00    -3600.00
00863              14.00    -3600.00
00864              16.00    -3800.00
00865              16.00    -3400.00
00866              16.00    -3600.00
00867              22.00    -3800.00
00868              20.00    -3400.00
00869              14.00    -3400.00
00870              14.00    -3400.00
00871              16.00    -3400.00
00872              16.00    -3400.00
00873              22.00    -3400.00
00874              20.00    -3400.00
00875              18.00    -3400.00
00876              16.00    -3400.00
00877              16.00    -3200.00
00878              16.00    -3200.00
00879              18.00    -3200.00
00880              14.00    -3200.00
00881              18.00    -3000.00
00882              18.00    -3200.00
00883              16.00    -3200.00
00884              10.00    -3200.00
00885              14.00    -3000.00
00886              16.00    -2800.00
00887              18.00    -3000.00
00888              16.00    -3000.00
00889              14.00    -3000.00
00890               8.00    -2600.00
00891              10.00    -2600.00
00892              14.00    -2800.00
00893              16.00    -2600.00
00894              14.00    -2600.00
00895              10.00    -2600.00
00896              10.00    -2600.00
00897               8.00    -2600.00
00898               8.00    -2400.00
00899               8.00    -2400.00
00900              10.00    -2400.00
00901              10.00    -2400.00
00902               6.00    -2200.00
00903               8.00    -2400.00
00904               6.00    -2200.00
00905               4.00    -2000.00
00906               8.00    -1800.00
00907               8.00    -1800.00
00908               8.00    -1800.00
00909               6.00    -1800.00
00910               6.00    -1800.00
00911               4.00    -1800.00
00912               2.00    -1800.00
00913               6.00    -1600.00
00914               8.00    -1600.00
00915               6.00    -1400.00
00916               2.00    -1400.00
00917               0.00    -1600.00
00918               2.00    -1400.00
00919               2.00    -1400.00
00920               2.00    -1200.00
00921               6.00    -1200.00
00922               2.00    -1000.00
00923               0.00     -800.00
00924               0.00    -1000.00
00925               0.00    -1000.00
00926               0.00     -800.00
00927               0.00     -800.00
00928               2.00     -600.00
00929               4.00     -600.00
00930               0.00     -600.00
00931              -2.00     -600.00
00932              -2.00     -600.00
00933               0.00     -400.00
00934               2.00     -200.00
00935               2.00     -200.00
00936               0.00     -200.00
00937              -4.00     -200.00
00938              -2.00        0.00
00939               0.00        0.00
00940               0.00        0.00
00941              -2.00      200.00
00942              -2.00      200.00
00943               2.00      200.00
00944               6.00      200.00
00945               2.00      600.00
00946               2.00      400.00
00947               2.00      600.00
00948              -2.00      600.00
00949              -2.00      600.00
00950              -6.00      800.00
00951              30.00      800.00
00952             166.00     1200.00
00953             138.00     1200.00
00954            -254.00     1000.00
00955            -254.00      600.00
00956             240.00     1200.00
00957             246.00     1600.00
00958             184.00     1400.00
00959            -254.00      800.00
00960            -254.00     1600.00
00961             246.00     1600.00
00962             246.00     1600.00
00963            -254.00     1000.00
00964            -254.00     1800.00
00965             246.00     1800.00
00966             102.00     1800.00
00967            -254.00     1600.00
00968              76.00     2200.00
00969             246.00     2200.00
00970            -228.00     1600.00
00971            -234.00     2000.00
00972             246.00     2200.00
00973              32.00     2200.00
00974            -254.00     2200.00
00975             142.00     2400.00
00976             204.00     2400.00
00977            -254.00     2200.00
00978            -146.00     2600.00
00979             246.00     2600.00
00980              50.00     2600.00
00981            -186.00     2600.00
00982             -30.00     2600.00
00983              58.00     2600.00
00984               6.00     2600.00
00985             -16.00     2800.00
00986             -28.00     2800.00
00987               2.00     3000.00
00988               8.00     3000.00
00989             -58.00     3000.00
00990              -8.00     3000.00
00991              58.00     3200.00
00992             -48.00     3200.00
00993             -42.00     3000.00
00994              52.00     3200.00
00995             -42.00     3200.00
00996             -66.00     3200.00
00997              62.00     3400.00
00998              18.00     3400.00
00999             -78.00     3400.00
01000              -6.00     3400.00
01001              16.00     3600.00
01002             -22.00     3400.00
01003              -6.00     3600.00
01004             -16.00     3600.00
01005             -18.00     3600.00
01006              10.00     3800.00
01007             -24.00     3800.00
01008             -24.00     3600.00
01009              14.00     3800.00
01010             -32.00     3800.00
01011             -30.00     3800.00
01012              22.00     3800.00
01013             -16.00     4000.00
01014             -40.00     3800.00
01015               8.00     4000.00
01016              -8.00     4000.00
01017             -34.00     3800.00
01018              -2.00     4000.00
01019              -2.00     4000.00
01020             -22.00     4000.00
01021             -16.00     4000.00
01022             -18.00     4000.00
01023             -16.00     4000.00
01024              -4.00     4000.00
01025             -24.00     4000.00
01026             -16.00     4000.00
01027              -4.00     4000.00
01028             -30.00     4200.00
01029             -26.00     4000.00
01030              -4.00     4200.00
01031             -18.00     4000.00
01032             -24.00     4200.00
01033              -8.00     4200.00
01034             -20.00     4000.00
01035             -32.00     4200.00
01036             -16.00     4200.00
01037             -16.00     4200.00
01038             -16.00     4000.00
01039             -14.00     4200.00
01040             -24.00     4200.00
01041             -26.00     4000.00
01042             -22.00     4200.00
01043             -26.00     4000.00
01044             -18.00     4000.00
01045             -14.00     4200.00
01046             -26.00     4200.00
01047             -26.00     4200.00
01048             -22.00     4000.00
01049             -30.00     4200.00
01050             -22.00     4000.00
01051             -16.00     4000.00
01052             -26.00     4000.00
01053             -26.00     4000.00
01054             -22.00     4200.00
01055             -26.00     4000.00
01056             -32.00     4000.00
01057             -24.00     4000.00
01058             -18.00     4000.00
01059             -24.00     4000.00
01060             -26.00     3800.00
01061             -26.00     4000.00
01062             -24.00     3800.00
01063             -24.00     4000.00
01064             -26.00     4000.00
01065             -18.00     3800.00
01066             -22.00     3800.00
01067             -28.00     3800.00
01068             -26.00     3800.00
01069             -22.00     3800.00
01070             -24.00     3800.00
01071             -22.00     3600.00
01072             -16.00     3600.00
01073             -20.00     3400.00
01074             -24.00     3600.00
01075             -26.00     3400.00
01076             -22.00     3400.00
01077             -22.00     3400.00
01078             -18.00     3400.00
01079             -16.00     3400.00
01080             -18.00     3200.00
01081             -24.00     3200.00
01082             -22.00     3200.00
01083             -18.00     3200.00
01084             -16.00     3000.00
01085             -18.00     3200.00
01086             -16.00     3200.00
01087             -16.00     3000.00
01088             -20.00     3000.00
01089             -18.00     3000.00
01090             -14.00     3000.00
01091             -18.00     2600.00
01092             -16.00     2800.00
01093             -18.00     2600.00
01094             -16.00     2600.00
01095             -16.00     2600.00
01096             -16.00     2600.00
01097             -16.00     2600.00
01098             -10.00     2400.00
01099             -14.00     2400.00
01100             -16.00     2200.00
01101             -14.00     2200.00
01102             -16.00     2200.00
01103             -18.00     2200.00
01104             -10.00     2200.00
01105              -8.00     2000.00
01106             -14.00     2200.00
01107             -14.00     1800.00
01108             -14.00     1800.00
01109             -10.00     1800.00
01110             -14.00     1600.00
01111              -8.00     1600.00
01112              -8.00     1600.00
01113             -12.00     1600.00
01114             -14.00     1400.00
01115             -10.00     1600.00
01116              -8.00     1400.00
01117             -10.00     1400.00
01118             -10.00     1400.00
01119              -6.00     1200.00
01120              -6.00     1000.00
01121             -10.00     1000.00
01122             -14.00     1200.00
01123              -8.00      800.00
01124              -2.00      800.00
01125              -6.00      800.00
01126              -6.00      800.00
01127              -2.00      800.00
01128              -6.00      600.00
01129              -8.00      600.00
01130              -8.00      600.00
01131              -2.00      400.00
01132              -2.00      200.00
01133              -2.00      200.00
01134               0.00      200.00
01135               0.00      200.00
01136               0.00        0.00
01137               8.00        0.00
01138               6.00     -200.00
01139              -4.00        0.00
01140             -10.00     -200.00
01141              -2.00     -200.00
01142              10.00     -400.00
01143              56.00     -600.00
01144             162.00     -400.00
01145              54.00     -800.00
01146            -254.00    -1000.00
01147            -254.00     -400.00
01148             246.00     -600.00
01149             246.00     -600.00
01150              36.00    -1200.00
01151            -254.00    -1000.00
01152            -254.00    -1000.00
01153             246.00    -1000.00
01154             246.00    -1000.00
01155            -254.00    -1200.00
01156            -254.00    -1000.00
01157             246.00    -1400.00
01158             172.00    -1400.00
01159            -246.00    -1400.00
01160             -50.00    -1600.00
01161              78.00    -1400.00
01162             -24.00    -1600.00
01163              58.00    -1800.00
01164              88.00    -1800.00
01165            -210.00    -1600.00
01166             -58.00    -1600.00
01167             246.00    -2000.00
01168              60.00    -1800.00
01169            -254.00    -2000.00
01170             -32.00    -1800.00
01171             232.00    -2200.00
01172              40.00    -2200.00
01173            -144.00    -2400.00
01174             -34.00    -2200.00
01175              50.00    -2200.00
01176              40.00    -2400.00
01177              16.00    -2400.00
01178             -26.00    -2400.00
01179             -16.00    -2600.00
01180              12.00    -2600.00
01181              22.00    -2600.00
01182             -10.00    -2600.00
01183              -6.00    -2600.00
01184              18.00    -2800.00
01185              26.00    -2600.00
01186             -10.00    -3000.00
01187             -36.00    -2800.00
01188              16.00    -3000.00
01189              50.00    -3000.00
01190               8.00    -3000.00
01191             -38.00    -3000.00
01192              -2.00    -3200.00
01193              30.00    -3000.00
01194              18.00    -3200.00
01195              -8.00    -3200.00
01196              -6.00    -3200.00
01197              10.00    -3200.00
01198              22.00    -3200.00
01199               8.00    -3200.00
01200              -8.00    -3400.00
01201               0.00    -3400.00
01202              14.00    -3400.00
01203              18.00    -3400.00
01204               8.00    -3400.00
01205               0.00    -3400.00
01206               2.00    -3400.00
01207              14.00    -3600.00
01208              14.00    -3800.00
01209               2.00    -3400.00
01210               6.00    -3600.00
01211              16.00    -3800.00
01212              12.00    -3800.00
01213               0.00    -3800.00
01214               4.00    -3400.00
01215              14.00    -3800.00
01216              14.00    -3800.00
01217              14.00    -3800.00
01218              10.00    -3800.00
01219               6.00    -3800.00
01220               8.00    -3800.00
01221               8.00    -3800.00
01222              14.00    -3800.00
01223              10.00    -3800.00
01224              10.00    -3800.00
01225              14.00    -4000.00
01226              10.00    -3600.00
01227               2.00    -3800.00
01228               8.00    -3800.00
01229              18.00    -3800.00
01230              16.00    -3800.00
01231              10.00    -3800.00
01232              14.00    -3800.00
01233              10.00    -3800.00
01234               8.00    -3800.00
01235              14.00    -3800.00
01236              18.00    -3800.00
01237              16.00    -3800.00
01238              14.00    -3800.00
01239              12.00    -4000.00
01240              12.00    -3800.00
01241              14.00    -3800.00
01242              18.00    -3800.00
01243              18.00    -3600.00
01244              16.00    -3800.00
01245              14.00    -3800.00
01246              16.00    -3600.00
01247              18.00    -3600.00
01248              14.00    -3800.00
01249              16.00    -3600.00
01250              22.00    -3400.00
01251              16.00    -3600.00
01252              16.00    -3400.00
01253              16.00    -3600.00
01254              16.00    -3400.00
01255              16.00    -3200.00
01256              18.00    -3400.00
01257              18.00    -3400.00
01258              18.00    -3400.00
01259              14.00    -3200.00
01260              16.00    -3200.00
01261              16.00    -3200.00
01262              16.00    -3200.00
01263              18.00    -3000.00
01264              22.00    -3000.00
01265              16.00    -3000.00
01266              14.00    -3000.00
01267              14.00    -3000.00
01268              16.00    -3000.00
01269              16.00    -3000.00
01270              16.00    -3000.00
01271              16.00    -2800.00
01272              14.00    -3000.00
01273               8.00    -2600.00
01274              12.00    -2600.00
01275              16.00    -2600.00
01276              14.00    -2600.00
01277              14.00    -2600.00
01278              10.00    -2400.00
01279              10.00    -2400.00
01280               8.00    -2400.00
01281               8.00    -2400.00
01282              14.00    -2400.00
01283              10.00    -2400.00
01284               8.00    -2200.00
01285               6.00    -2200.00
01286               8.00    -2200.00
01287               4.00    -2200.00
01288               6.00    -2200.00
01289               8.00    -1800.00
01290               8.00    -1800.00
01291               6.00    -1800.00
01292               6.00    -1800.00
01293               6.00    -1800.00
01294               2.00    -1600.00
01295               4.00    -1600.00
01296               6.00    -1600.00
01297               8.00    -1400.00
01298               6.00    -1400.00
01299               0.00    -1400.00
01300               0.00    -1400.00
01301               2.00    -1400.00
01302               2.00    -1000.00
01303               6.00    -1200.00
01304               4.00    -1200.00
01305               0.00    -1200.00
01306              -2.00     -800.00
01307               0.00    -1000.00
01308               0.00     -800.00
01309               0.00     -800.00
01310               0.00     -800.00
01311               2.00     -600.00
01312               2.00     -600.00
01313               0.00     -400.00
01314              -2.00     -400.00
01315               0.00     -400.00
01316               0.00     -200.00
01317               0.00     -200.00
01318               0.00     -200.00
01319              -2.00     -200.00
01320              -2.00        0.00
01321              -2.00        0.00
01322               0.00        0.00
01323               0.00      200.00
01324               0.00      200.00
01325               0.00      200.00
01326               2.00      200.00
01327               2.00      200.00
01328               6.00      400.00
01329               6.00      600.00
01330              -2.00      600.00
01331              -8.00      800.00
01332              -6.00      600.00
01333               6.00      800.00
01334              94.00      800.00
01335             200.00     1200.00
01336             -78.00     1200.00
01337            -254.00      800.00
01338            -192.00     1000.00
01339             246.00     1400.00
01340             246.00     1400.00
01341            -254.00      800.00
01342            -254.00     1200.00
01343             246.00     1400.00
01344             246.00     1800.00
01345            -240.00     1400.00
01346            -254.00     1400.00
01347             226.00     1800.00
01348             246.00     1800.00
01349            -254.00     1400.00
01350            -254.00     1800.00
01351             246.00     2200.00
01352             106.00     2000.00
01353            -254.00     1600.00
01354              58.00     2200.00
01355             246.00     2200.00
01356            -220.00     2000.00
01357            -114.00     2200.00
01358             246.00     2400.00
01359             -42.00     2200.00
01360            -254.00     2400.00
01361             104.00     2600.00
01362             214.00     2600.00
01363            -120.00     2600.00
01364            -136.00     2600.00
01365              54.00     2800.00
01366              30.00     2600.00
01367             -10.00     2600.00
01368             -24.00     3000.00
01369             -18.00     2800.00
01370              18.00     3000.00
01371             -26.00     3000.00
01372             -58.00     3000.00
01373              46.00     3200.00
01374              10.00     3200.00
01375             -70.00     3000.00
01376              18.00     3200.00
01377              24.00     3400.00
01378             -92.00     3000.00
01379               2.00     3200.00
01380              66.00     3400.00
01381             -48.00     3400.00
01382             -54.00     3400.00
01383              18.00     3400.00
01384             -10.00     3400.00
01385             -18.00     3400.00
01386              -6.00     3400.00
01387             -26.00     3400.00
01388               0.00     3800.00
01389              -8.00     3800.00
01390             -38.00     3800.00
01391               0.00     3800.00
01392               0.00     3800.00
01393             -46.00     3800.00
01394               0.00     3800.00
01395              14.00     4000.00
01396             -42.00     3800.00
01397             -16.00     4000.00
01398               8.00     4000.00
01399             -30.00     3800.00
01400             -22.00     3800.00
01401               6.00     4000.00
01402             -14.00     4000.00
01403             -24.00     4000.00
01404             -18.00     4200.00
01405             -18.00     4000.00
01406              -6.00     4000.00
01407             -14.00     4000.00
01408             -26.00     4200.00
01409              -6.00     4000.00
01410             -14.00     4200.00
01411             -32.00     4000.00
01412             -10.00     4000.00
01413             -10.00     4000.00
01414             -26.00     4000.00
01415             -16.00     4200.00
01416             -10.00     4200.00
01417             -26.00     4200.00
01418             -26.00     4200.00
01419             -18.00     4200.00
01420             -18.00     4200.00
01421             -14.00     4200.00
01422             -18.00     4200.00
01423             -26.00     4200.00
01424             -24.00     4200.00
01425             -24.00     4200.00
01426             -24.00     4200.00
01427             -14.00     4200.00
01428             -16.00     4200.00
01429             -30.00     4200.00
01430             -24.00     4200.00
01431             -24.00     4200.00
01432             -26.00     4000.00
01433             -18.00     4200.00
01434             -18.00     4000.00
01435             -30.00     4200.00
01436             -26.00     4000.00
01437             -22.00     4000.00
01438             -32.00     4000.00
01439             -26.00     4000.00
01440             -18.00     4000.00
01441             -22.00     4000.00
01442             -26.00     3800.00
01443             -26.00     4000.00
01444             -26.00     3800.00
01445             -24.00     3800.00
01446             -26.00     3800.00
01447             -22.00     3800.00
01448             -16.00     3800.00
01449             -24.00     3800.00
01450             -30.00     3800.00
01451             -22.00     3800.00
01452             -24.00     3800.00
01453             -26.00     3400.00
01454             -18.00     3400.00
01455             -16.00     3600.00
01456             -24.00     3400.00
01457             -26.00     3600.00
01458             -24.00     3400.00
01459             -18.00     3400.00
01460             -18.00     3400.00
01461             -18.00     3200.00
01462             -18.00     3200.00
01463             -22.00     3400.00
01464             -26.00     3200.00
01465             -18.00     3200.00
01466             -16.00     3000.00
01467             -16.00     3000.00
01468             -16.00     3000.00
01469             -18.00     3000.00
01470             -18.00     3000.00
01471             -22.00     3000.00
01472             -16.00     3000.00
01473             -14.00     3000.00
01474             -16.00     2800.00
01475             -16.00     2800.00
01476             -16.00     2600.00
01477             -14.00     2600.00
01478             -18.00     2600.00
01479             -16.00     2400.00
01480             -10.00     2600.00
01481             -10.00     2400.00
01482             -16.00     2400.00
01483             -14.00     2200.00
01484             -14.00     2200.00
01485             -18.00     2000.00
01486             -16.00     2200.00
01487             -10.00     2200.00
01488              -8.00     2000.00
01489             -14.00     2000.00
01490             -14.00     1800.00
01491             -10.00     1800.00
01492             -14.00     1800.00
01493             -10.00     1600.00
01494              -6.00     1600.00
01495              -8.00     1600.00
01496             -14.00     1600.00
01497             -14.00     1400.00
01498             -10.00     1400.00
01499             -10.00     1200.00
01500             -10.00     1200.00
01501              -6.00     1200.00
01502              -6.00     1200.00
01503              -8.00     1200.00
01504             -14.00     1000.00
01505             -10.00      800.00
01506              -6.00     1000.00
01507              -4.00      800.00
01508              -8.00      800.00
01509              -8.00      800.00
01510              -6.00      600.00
01511              -8.00      600.00
01512              -8.00      600.00
01513              -6.00      400.00
01514              -4.00      200.00
01515              -6.00      200.00
01516              -2.00        0.00
01517              -2.00      200.00
01518               0.00        0.00
01519               4.00        0.00
01520               8.00        0.00
01521               0.00     -200.00
01522             -10.00     -200.00
01523              -6.00        0.00
01524               2.00     -200.00
01525              24.00     -200.00
01526             114.00     -600.00
01527             152.00     -600.00
01528            -160.00     -800.00
01529            -254.00     -600.00
01530             -80.00     -600.00
01531             246.00     -600.00
01532             246.00    -1000.00
01533            -254.00    -1000.00
01534            -254.00     -800.00
01535             246.00    -1000.00
01536             246.00    -1000.00
01537            -218.00    -1000.00
01538            -254.00    -1000.00
01539             142.00    -1200.00
01540             246.00    -1200.00
01541             -96.00    -1400.00
01542            -216.00    -1600.00
01543              86.00    -1400.00
01544               8.00    -1400.00
01545               6.00    -1600.00
01546             110.00    -1800.00
01547             -64.00    -1800.00
01548            -212.00    -1600.00
01549             150.00    -2000.00
01550             246.00    -2000.00
01551            -182.00    -1800.00
01552            -222.00    -1800.00
01553             150.00    -2000.00
01554             182.00    -2000.00
01555             -96.00    -2200.00
01556             -98.00    -2200.00
01557              16.00    -2400.00
01558              54.00    -2400.00
01559              22.00    -2400.00
01560              -2.00    -2400.00
01561             -32.00    -2600.00
01562              -2.00    -2400.00
01563              22.00    -2600.00
01564              -2.00    -2600.00
01565             -10.00    -2800.00
01566               2.00    -2600.00
01567              26.00    -2800.00
01568               2.00    -3000.00
01569             -32.00    -2800.00
01570             -10.00    -2800.00
01571              56.00    -3000.00
01572              46.00    -3200.00
01573             -22.00    -3000.00
01574             -36.00    -3000.00
01575               6.00    -3200.00
01576              18.00    -3000.00
01577               2.00    -3200.00
01578              -8.00    -3200.00
01579               2.00    -3200.00
01580              24.00    -3200.00
01581              24.00    -3200.00
01582               8.00    -3200.00
01583              -2.00    -3400.00
01584               0.00    -3200.00
01585               8.00    -3400.00
01586               4.00    -3400.00
01587               2.00    -3400.00
01588               6.00    -3400.00
01589              12.00    -3400.00
01590              16.00    -3400.00
01591               8.00    -3400.00
01592               6.00    -3600.00
01593              18.00    -3600.00
01594              20.00    -3800.00
01595               2.00    -3600.00
01596             -10.00    -3600.00
01597               2.00    -3400.00
01598               8.00    -3800.00
01599              16.00    -3800.00
01600              16.00    -3400.00
01601              14.00    -3800.00
01602              14.00    -3800.00
01603              14.00    -3600.00
01604              14.00    -3800.00
01605              10.00    -3800.00
01606               2.00    -3800.00
01607               2.00    -3800.00
01608               8.00    -3800.00
01609              10.00    -3800.00
01610              10.00    -3800.00
01611              20.00    -3800.00
01612              24.00    -3800.00
01613              14.00    -3800.00
01614              10.00    -4000.00
01615               8.00    -3800.00
01616               6.00    -3800.00
01617               6.00    -3800.00
01618              16.00    -3800.00
01619              20.00    -3800.00
01620              16.00    -3800.00
01621              16.00    -3800.00
01622              14.00    -3800.00
01623              14.00    -3800.00
01624              14.00    -3800.00
01625              16.00    -3800.00
01626              16.00    -3800.00
01627              14.00    -3800.00
01628              16.00    -3800.00
01629              16.00    -3600.00
01630              16.00    -3800.00
01631              18.00    -3600.00
01632              20.00    -3400.00
01633              22.00    -3400.00
01634              16.00    -3400.00
01635              14.00    -3400.00
01636              16.00    -3400.00
01637              14.00    -3600.00
01638              16.00    -3400.00
01639              18.00    -3400.00
01640              16.00    -3200.00
01641              16.00    -3200.00
01642              16.00    -3400.00
01643              16.00    -3200.00
01644              18.00    -3200.00
01645              16.00    -3200.00
01646              16.00    -3200.00
01647              18.00    -3000.00
01648              16.00    -3000.00
01649              14.00    -3000.00
01650              14.00    -3000.00
01651              18.00    -2800.00
01652              16.00    -3000.00
01653              16.00    -2800.00
01654              16.00    -2800.00
01655               8.00    -2600.00
01656              10.00    -2800.00
01657              14.00    -2600.00
01658              16.00    -2600.00
01659              16.00    -2600.00
01660              14.00    -2600.00
01661              14.00    -2400.00
01662              12.00    -2400.00
01663               8.00    -2400.00
01664               8.00    -2400.00
01665              14.00    -2200.00
01666              14.00    -2200.00
01667              10.00    -2400.00
01668               8.00    -2400.00
01669               8.00    -2200.00
01670               8.00    -2000.00
01671              10.00    -1800.00
01672              10.00    -2000.00
01673               6.00    -1800.00
01674               6.00    -1800.00
01675               8.00    -1800.00
01676               6.00    -1600.00
01677               6.00    -1600.00
01678               6.00    -1600.00
01679               8.00    -1400.00
01680               6.00    -1600.00
01681               4.00    -1400.00
01682               2.00    -1400.00
01683               2.00    -1400.00
01684               0.00    -1200.00
01685               2.00    -1200.00
01686               6.00    -1000.00
01687               6.00    -1200.00
01688               0.00    -1000.00
01689              -2.00    -1000.00
01690               2.00     -800.00
01691               4.00    -1000.00
01692               2.00     -800.00
01693               2.00     -800.00
01694               0.00     -600.00
01695              -2.00     -600.00
01696              -4.00     -600.00
01697               0.00     -600.00
01698               0.00     -400.00
01699               0.00     -600.00
01700               0.00     -200.00
01701              -2.00     -200.00
01702              -2.00        0.00
01703              -2.00        0.00
01704              -4.00        0.00
01705              -2.00        0.00
01706               0.00      200.00
01707               0.00        0.00
01708               2.00      200.00
01709               4.00      200.00
01710               0.00      400.00
01711               6.00      400.00
01712               0.00      600.00
01713              -8.00      600.00
01714              -8.00      600.00
01715               0.00      800.00
01716              34.00      800.00
01717             168.00     1000.00
01718             126.00     1200.00
01719            -254.00      800.00
01720            -254.00      800.00
01721             246.00     1200.00
01722             246.00     1400.00
01723             148.00     1400.00
01724            -254.00      800.00
01725            -254.00     1400.00
01726             246.00     1600.00
01727             246.00     1600.00
01728            -254.00     1000.00
01729            -254.00     1800.00
01730             246.00     1800.00
01731              80.00     1600.00
01732            -254.00     1400.00
01733              94.00     2200.00
01734             246.00     2200.00
01735            -240.00     1800.00
01736            -222.00     2000.00
01737             246.00     2200.00
01738              22.00     2200.00
01739            -254.00     2000.00
01740             154.00     2400.00
01741             194.00     2400.00
01742            -254.00     2200.00
01743            -138.00     2600.00
01744             246.00     2600.00
01745              40.00     2400.00
01746            -186.00     2400.00
01747             -22.00     2800.00
01748              56.00     2600.00
01749               6.00     2600.00
01750             -16.00     2800.00
01751             -30.00     3000.00
01752               2.00     3000.00
01753               8.00     3000.00
01754             -60.00     3000.00
01755             -10.00     3000.00
01756              56.00     3200.00
01757             -48.00     3000.00
01758             -42.00     3200.00
01759              54.00     3400.00
01760             -46.00     3400.00
01761             -64.00     3200.00
01762              60.00     3600.00
01763              16.00     3400.00
01764             -78.00     3200.00
01765              -8.00     3400.00
01766              10.00     3400.00
01767             -22.00     3400.00
01768              -8.00     3600.00
01769             -18.00     3600.00
01770             -16.00     3400.00
01771               8.00     3800.00
01772             -26.00     3800.00
01773             -22.00     3800.00
01774              14.00     3800.00
01775             -32.00     3800.00
01776             -32.00     3800.00
01777              22.00     3800.00
01778             -16.00     3800.00
01779             -42.00     3800.00
01780               6.00     4000.00
01781             -10.00     3800.00
01782             -34.00     3800.00
01783              -2.00     4000.00
01784              -6.00     4000.00
01785             -22.00     4000.00
01786             -18.00     4000.00
01787             -22.00     4200.00
01788             -14.00     4200.00
01789              -6.00     4200.00
01790             -22.00     4000.00
01791             -16.00     4000.00
01792              -6.00     4200.00
01793             -30.00     4200.00
01794             -24.00     4200.00
01795              -2.00     4200.00
01796             -18.00     4200.00
01797             -24.00     4200.00
01798              -6.00     4200.00
01799             -18.00     4200.00
01800             -30.00     4200.00
01801             -16.00     4200.00
01802             -16.00     4200.00
01803             -14.00     4200.00
01804             -16.00     4200.00
01805             -24.00     4200.00
01806             -26.00     4200.00
01807             -24.00     4200.00
01808             -24.00     4200.00
01809             -18.00     4200.00
01810             -14.00     4200.00
01811             -24.00     4200.00
01812             -26.00     4000.00
01813             -22.00     4200.00
01814             -26.00     4000.00
01815             -24.00     4200.00
01816             -16.00     4000.00
01817             -26.00     4000.00
01818             -26.00     4000.00
01819             -22.00     4200.00
01820             -28.00     4000.00
01821             -32.00     4000.00
01822             -22.00     4000.00
01823             -20.00     4000.00
01824             -24.00     3800.00
01825             -26.00     4000.00
01826             -28.00     4000.00
01827             -24.00     3800.00
01828             -24.00     3800.00
01829             -26.00     3800.00
01830             -18.00     3800.00
01831             -22.00     3800.00
01832             -28.00     3800.00
01833             -24.00     3600.00
01834             -18.00     3800.00
01835             -26.00     3800.00
01836             -24.00     3400.00
01837             -16.00     3800.00
01838             -22.00     3400.00
01839             -26.00     3600.00
01840             -24.00     3400.00
01841             -22.00     3400.00
01842             -18.00     3400.00
01843             -18.00     3400.00
01844             -18.00     3400.00
01845             -18.00     3400.00
01846             -24.00     3200.00
01847             -24.00     3200.00
01848             -18.00     3200.00
01849             -16.00     3000.00
01850             -18.00     3200.00
01851             -16.00     3200.00
01852             -16.00     3000.00
01853             -24.00     3000.00
01854             -18.00     3000.00
01855             -10.00     3000.00
01856             -12.00     3000.00
01857             -16.00     2600.00
01858             -18.00     2800.00
01859             -12.00     2600.00
01860             -14.00     2600.00
01861             -16.00     2600.00
01862             -14.00     2600.00
01863             -10.00     2400.00
01864             -10.00     2400.00
01865             -14.00     2400.00
01866             -14.00     2200.00
01867             -16.00     2200.00
01868             -16.00     2200.00
01869              -8.00     1800.00
01870              -6.00     2000.00
01871             -16.00     1800.00
01872             -14.00     2000.00
01873             -14.00     1800.00
01874             -14.00     1800.00
01875             -10.00     1800.00
01876              -8.00     1600.00
01877              -8.00     1600.00
01878             -10.00     1600.00
01879             -16.00     1400.00
01880             -10.00     1400.00
01881              -6.00     1400.00
01882             -10.00     1400.00
01883             -12.00     1200.00
01884              -8.00     1200.00
01885              -6.00     1000.00
01886             -10.00     1000.00
01887             -14.00     1200.00
01888              -8.00     1000.00
01889              -6.00      800.00
01890             -10.00      600.00
01891              -8.00      600.00
01892              -6.00      600.00
01893              -2.00      600.00
01894             -10.00      600.00
01895             -10.00      400.00
01896              -6.00      200.00
01897              -2.00      200.00
01898              -2.00      200.00
01899              -2.00      200.00
01900              -6.00      200.00
01901               2.00        0.00
01902               6.00        0.00
01903               6.00     -200.00
01904              -8.00        0.00
01905             -10.00     -200.00
01906              -2.00     -200.00
01907              10.00     -200.00
01908              58.00     -200.00
01909             160.00     -600.00
01910              46.00     -800.00
01911            -254.00     -800.00
01912            -254.00     -400.00
01913             246.00     -600.00
01914             246.00     -600.00
01915              -2.00    -1000.00
01916            -254.00     -800.00
01917            -232.00    -1000.00
01918             246.00    -1000.00
01919             246.00    -1000.00
01920            -254.00    -1200.00
01921            -254.00    -1200.00
01922             246.00    -1400.00
01923             154.00    -1200.00
01924            -250.00    -1600.00
01925             -32.00    -1400.00
01926              80.00    -1400.00
01927             -26.00    -1400.00
01928              54.00    -1800.00
01929              84.00    -1800.00
01930            -208.00    -1600.00
01931             -42.00    -1800.00
01932             246.00    -1800.00
01933              46.00    -1800.00
01934            -254.00    -1800.00
01935             -16.00    -2200.00
01936             234.00    -2200.00
01937              26.00    -2200.00
01938            -144.00    -2200.00
01939             -30.00    -2400.00
01940              54.00    -2200.00
01941              38.00    -2600.00
01942              14.00    -2600.00
01943             -30.00    -2400.00
01944             -16.00    -2600.00
01945              14.00    -2600.00
01946              22.00    -2600.00
01947             -14.00    -2600.00
01948              -8.00    -2600.00
01949              16.00    -2600.00
01950              26.00    -2800.00
01951             -10.00    -3000.00
01952             -34.00    -2800.00
01953              14.00    -3000.00
01954              46.00    -3000.00
01955               6.00    -3000.00
01956             -32.00    -3000.00
01957               0.00    -3000.00
01958              26.00    -3200.00
01959              14.00    -3000.00
01960             -10.00    -3200.00
01961              -2.00    -3200.00
01962              14.00    -3200.00
01963              18.00    -3400.00
01964               6.00    -3400.00
01965              -8.00    -3400.00
01966               2.00    -3400.00
01967              16.00    -3400.00
01968              16.00    -3400.00
01969               6.00    -3400.00
01970               0.00    -3600.00
01971               2.00    -3600.00
01972              14.00    -3400.00
01973              14.00    -3800.00
01974               0.00    -3400.00
01975               6.00    -3600.00
01976              22.00    -3600.00
01977              14.00    -3800.00
01978              -2.00    -3800.00
01979               2.00    -3600.00
01980              16.00    -3800.00
01981              16.00    -3600.00
01982              10.00    -3800.00
01983               8.00    -3600.00
01984               6.00    -3800.00
01985               8.00    -3800.00
01986              12.00    -4000.00
01987              14.00    -3600.00
01988              14.00    -3800.00
01989              10.00    -3800.00
01990              14.00    -3800.00
01991              16.00    -3800.00
01992               6.00    -3800.00
01993              10.00    -4000.00
01994              18.00    -3800.00
01995              14.00    -3800.00
01996              10.00    -3800.00
01997              18.00    -3800.00
01998              14.00    -3800.00
01999               8.00    -3800.00
02000              14.00    -3800.00
02001              20.00    -3800.00
02002              18.00    -3800.00
02003              16.00    -3800.00
02004              10.00    -3800.00
02005              10.00    -3600.00
02006              16.00    -3800.00
02007              16.00    -3800.00
02008              22.00    -3600.00
02009              18.00    -3600.00
02010              14.00    -3800.00
02011              14.00    -3600.00
02012              14.00    -3600.00
02013              16.00    -3600.00
02014              22.00    -3400.00
02015              22.00    -3400.00
02016              16.00    -3400.00
02017              14.00    -3400.00
02018              16.00    -3400.00
02019              16.00    -3400.00
02020              16.00    -3400.00
02021              16.00    -3400.00
02022              18.00    -3400.00
02023              16.00    -3400.00
02024              14.00    -3400.00
02025              18.00    -3200.00
02026              18.00    -3200.00
02027              18.00    -3200.00
02028              14.00    -3200.00
02029              16.00    -3200.00
02030              18.00    -3200.00
02031              16.00    -3000.00
02032              14.00    -3200.00
02033              12.00    -3000.00
02034              16.00    -3000.00
02035              18.00    -3000.00
02036              16.00    -3000.00
02037              14.00    -2800.00
02038               8.00    -2800.00
02039              12.00    -2800.00
02040              16.00    -3000.00
02041              16.00    -2600.00
02042              14.00    -2600.00
02043              14.00    -2600.00
02044              10.00    -2600.00
02045              10.00    -2400.00
02046              10.00    -2400.00
02047              10.00    -2400.00
02048              10.00    -2400.00
02049              10.00    -2200.00
02050              10.00    -2200.00
02051              10.00    -2200.00
02052               6.00    -2200.00
02053               6.00    -2000.00
02054               8.00    -1800.00
02055              14.00    -1800.00
02056              14.00    -1800.00
02057               6.00    -1800.00
02058               0.00    -1800.00
02059               2.00    -1600.00
02060               8.00    -1600.00
02061              10.00    -1400.00
02062               6.00    -1600.00
02063               2.00    -1400.00
02064               2.00    -1400.00
02065               2.00    -1400.00
02066               2.00    -1400.00
02067               4.00    -1200.00
02068               6.00    -1200.00
02069               2.00    -1000.00
02070               0.00    -1000.00
02071              -2.00    -1000.00
02072               2.00    -1000.00
02073               6.00     -800.00
02074               0.00     -800.00
02075              -2.00     -800.00
02076               0.00     -600.00
02077               2.00     -600.00
02078               0.00     -600.00
02079              -2.00     -600.00
02080              -2.00     -400.00
02081              -2.00     -600.00
02082               0.00     -200.00
02083               0.00     -200.00
02084               0.00     -200.00
02085              -4.00     -200.00
02086              -8.00     -200.00
02087              -2.00      200.00
02088              -2.00        0.00
02089               0.00      200.00
02090              -2.00      200.00
02091               0.00      200.00
02092               0.00      200.00
02093              12.00      600.00
02094               6.00      600.00
02095              -2.00      600.00
02096             -10.00      600.00
02097              -6.00      600.00
02098              10.00      800.00
02099              94.00      800.00
02100             196.00     1200.00
02101             -94.00     1200.00
02102            -254.00      800.00
02103            -170.00     1000.00
02104             246.00     1400.00
02105             246.00     1400.00
02106            -254.00      800.00
02107            -254.00     1200.00
02108             246.00     1600.00
02109             246.00     1800.00
02110            -254.00     1200.00
02111            -254.00     1400.00
02112             246.00     1800.00
02113             246.00     1800.00
02114            -254.00     1400.00
02115            -254.00     1800.00
02116             246.00     2400.00
02117              82.00     1800.00
02118            -254.00     1600.00
02119              86.00     2200.00
02120             246.00     2200.00
02121            -240.00     2000.00
02122            -112.00     2200.00
02123             246.00     2400.00
02124             -42.00     2200.00
02125            -254.00     2200.00
02126             110.00     2600.00
02127             200.00     2600.00
02128            -126.00     2400.00
02129            -122.00     2600.00
02130              62.00     2600.00
02131              24.00     2600.00
02132             -10.00     2800.00
02133             -16.00     2800.00
02134             -22.00     2600.00
02135              10.00     3000.00
02136             -38.00     3000.00
02137             -50.00     2800.00
02138              62.00     3000.00
02139              10.00     3200.00
02140             -82.00     3000.00
02141              10.00     3200.00
02142              24.00     3400.00
02143             -74.00     3200.00
02144              10.00     3200.00
02145              56.00     3400.00
02146             -62.00     3200.00
02147             -50.00     3400.00
02148              24.00     3600.00
02149              -6.00     3200.00
02150             -16.00     3400.00
02151             -14.00     3400.00
02152             -30.00     3600.00
02153               6.00     3800.00
02154              -2.00     3600.00
02155             -38.00     3800.00
02156               0.00     3800.00
02157              -6.00     3800.00
02158             -48.00     3800.00
02159               2.00     3800.00
02160              14.00     3800.00
02161             -42.00     3800.00
02162             -16.00     4000.00
02163               6.00     4000.00
02164             -32.00     3800.00
02165             -18.00     3800.00
02166               4.00     4000.00
02167             -16.00     3800.00
02168             -22.00     4000.00
02169             -18.00     4000.00
02170             -18.00     4000.00
02171              -6.00     4000.00
02172             -16.00     4200.00
02173             -26.00     4200.00
02174              -2.00     4200.00
02175             -14.00     4200.00
02176             -32.00     4000.00
02177             -10.00     4200.00
02178              -8.00     4200.00
02179             -24.00     4200.00
02180             -10.00     4200.00
02181             -10.00     4200.00
02182             -26.00     4200.00
02183             -24.00     4200.00
02184             -14.00     4000.00
02185             -14.00     4200.00
02186             -12.00     4200.00
02187             -18.00     4200.00
02188             -26.00     4000.00
02189             -20.00     4200.00
02190             -22.00     4200.00
02191             -20.00     4200.00
02192             -12.00     4200.00
02193             -22.00     4200.00
02194             -26.00     4000.00
02195             -18.00     4200.00
02196             -22.00     4200.00
02197             -30.00     4000.00
02198             -18.00     4000.00
02199             -16.00     4000.00
02200             -28.00     4000.00
02201             -24.00     4200.00
02202             -22.00     4000.00
02203             -28.00     4000.00
02204             -24.00     3800.00
02205             -20.00     4000.00
02206             -24.00     4000.00
02207             -26.00     4000.00
02208             -26.00     3800.00
02209             -26.00     3800.00
02210             -26.00     4000.00
02211             -26.00     3800.00
02212             -22.00     3800.00
02213             -18.00     3800.00
02214             -26.00     3800.00
02215             -30.00     3800.00
02216             -18.00     3600.00
02217             -26.00     3800.00
02218             -26.00     3600.00
02219             -18.00     3600.00
02220             -16.00     3600.00
02221             -26.00     3400.00
02222             -28.00     3600.00
02223             -24.00     3400.00
02224             -18.00     3400.00
02225             -16.00     3400.00
02226             -22.00     3400.00
02227             -20.00     3400.00
02228             -22.00     3200.00
02229             -24.00     3200.00
02230             -22.00     3200.00
02231             -16.00     3000.00
02232             -18.00     3200.00
02233             -18.00     3000.00
02234             -16.00     3000.00
02235             -18.00     3000.00
02236             -22.00     3000.00
02237             -16.00     2800.00
02238             -16.00     2800.00
02239             -18.00     3000.00
02240             -16.00     2600.00
02241             -14.00     2600.00
02242             -16.00     2600.00
02243             -18.00     2600.00
02244             -18.00     2600.00
02245             -10.00     2400.00
02246             -10.00     2600.00
02247             -14.00     2200.00
02248             -16.00     2400.00
02249             -14.00     2200.00
02250             -16.00     2200.00
02251             -10.00     2200.00
02252              -6.00     2000.00
02253              -8.00     2200.00
02254             -14.00     2200.00
02255             -14.00     1800.00
02256             -12.00     1800.00
02257             -10.00     1800.00
02258              -8.00     1600.00
02259              -8.00     1600.00
02260             -10.00     1600.00
02261             -14.00     1400.00
02262             -10.00     1400.00
02263              -6.00     1400.00
02264              -8.00     1400.00
02265             -14.00     1200.00
02266              -6.00     1400.00
02267              -6.00     1200.00
02268              -6.00     1000.00
02269             -14.00      800.00
02270             -10.00     1000.00
02271              -6.00      800.00
02272              -8.00      800.00
02273              -8.00      600.00
02274              -8.00      600.00
02275              -6.00      800.00
02276              -8.00      400.00
02277              -8.00      600.00
02278              -2.00      400.00
02279              -4.00      200.00
02280              -8.00      200.00
02281              -4.00      200.00
02282               0.00        0.00
02283               0.00        0.00
02284               0.00        0.00
02285               2.00        0.00
02286              -2.00     -200.00
02287             -10.00     -200.00
02288              -8.00     -200.00
02289               0.00     -200.00
02290              22.00     -200.00
02291             116.00     -200.00
02292             146.00     -600.00
02293            -174.00     -800.00
02294            -254.00     -600.00
02295             -58.00     -400.00
02296             246.00     -600.00
02297             246.00     -800.00
02298            -254.00    -1200.00
02299            -254.00     -800.00
02300             246.00    -1000.00
02301             246.00    -1000.00
02302            -248.00    -1200.00
02303            -254.00    -1200.00
02304             158.00    -1400.00
02305             246.00    -1400.00
02306             -98.00    -1200.00
02307            -202.00    -1400.00
02308              80.00    -1400.00
02309              -8.00    -1400.00
02310              10.00    -1600.00
02311             128.00    -1800.00
02312             -66.00    -1600.00
02313            -212.00    -1800.00
02314             150.00    -1800.00
02315             244.00    -2000.00
02316            -184.00    -1800.00
02317            -206.00    -2000.00
02318             152.00    -2000.00
02319             174.00    -2200.00
02320             -96.00    -2200.00
02321             -88.00    -2200.00
02322              14.00    -2200.00
02323              48.00    -2400.00
02324              22.00    -2400.00
02325               8.00    -2400.00
02326             -24.00    -2600.00
02327             -10.00    -2600.00
02328              16.00    -2600.00
02329               0.00    -2600.00
02330              -2.00    -2800.00
02331               8.00    -2600.00
02332              30.00    -2800.00
02333               0.00    -3000.00
02334             -32.00    -3000.00
02335             -14.00    -2800.00
02336              48.00    -3000.00
02337              34.00    -3000.00
02338             -28.00    -3000.00
02339             -26.00    -3000.00
02340              18.00    -3000.00
02341              32.00    -3200.00
02342               2.00    -3200.00
02343             -10.00    -3200.00
02344               2.00    -3200.00
02345              18.00    -3400.00
02346              14.00    -3200.00
02347              -2.00    -3400.00
02348              -8.00    -3400.00
02349               8.00    -3400.00
02350              16.00    -3400.00
02351              10.00    -3400.00
02352               2.00    -3400.00
02353               0.00    -3600.00
02354              10.00    -3400.00
02355              16.00    -3400.00
02356               6.00    -3400.00
02357               0.00    -3600.00
02358              14.00    -3800.00
02359              18.00    -3400.00
02360               2.00    -3800.00
02361               0.00    -3600.00
02362              10.00    -3800.00
02363              14.00    -3800.00
02364              16.00    -3800.00
02365              14.00    -3800.00
02366              10.00    -3800.00
02367               6.00    -3800.00
02368              10.00    -3800.00
02369              12.00    -3800.00
02370              16.00    -3800.00
02371              14.00    -3800.00
02372              14.00    -3800.00
02373              16.00    -3800.00
02374               8.00    -3800.00
02375               6.00    -3800.00
02376              16.00    -3800.00
02377              22.00    -3800.00
02378              14.00    -3800.00
02379              14.00    -3800.00
02380              14.00    -4000.00
02381              10.00    -3800.00
02382              10.00    -3800.00
02383              22.00    -3800.00
02384              18.00    -3800.00
02385              16.00    -3800.00
02386              14.00    -3800.00
02387              14.00    -3800.00
02388              16.00    -3800.00
02389              18.00    -3800.00
02390              20.00    -3600.00
02391              22.00    -3800.00
02392              16.00    -3600.00
02393              14.00    -3800.00
02394              16.00    -3800.00
02395              16.00    -3600.00
02396              16.00    -3400.00
02397              20.00    -3800.00
02398              20.00    -3600.00
02399              14.00    -3600.00
02400              16.00    -3400.00
02401              16.00    -3600.00
02402              16.00    -3400.00
02403              16.00    -3400.00
02404              18.00    -3400.00
02405              18.00    -3400.00
02406              14.00    -3400.00
02407              14.00    -3400.00
02408              16.00    -3400.00
02409              14.00    -3200.00
02410              14.00    -3200.00
02411              18.00    -3200.00
02412              18.00    -3200.00
02413              14.00    -3000.00
02414              10.00    -3000.00
02415              10.00    -3000.00
02416              14.00    -3000.00
02417              16.00    -2800.00
02418              16.00    -2800.00
02419              14.00    -3000.00
02420              10.00    -3000.00
02421              10.00    -2800.00
02422              14.00    -2800.00
02423              14.00    -2600.00
02424              14.00    -2600.00
02425              10.00    -2600.00
02426               8.00    -2600.00
02427               8.00    -2400.00
02428               8.00    -2400.00
02429               8.00    -2400.00
02430              14.00    -2200.00
02431               8.00    -2400.00
02432               6.00    -2200.00
02433               8.00    -2200.00
02434               8.00    -2200.00
02435               6.00    -2200.00
02436               8.00    -2200.00
02437              10.00    -1800.00
02438               8.00    -1800.00
02439               8.00    -1800.00
02440               6.00    -1800.00
02441               2.00    -1600.00
02442               6.00    -1600.00
02443               8.00    -1600.00
02444               8.00    -1600.00
02445               8.00    -1400.00
02446               2.00    -1400.00
02447               2.00    -1400.00
02448               4.00    -1200.00
02449               4.00    -1400.00
02450               6.00    -1200.00
02451               8.00    -1000.00
02452               6.00    -1000.00
02453               0.00    -1000.00
02454               0.00    -1000.00
02455               2.00    -1000.00
02456               0.00     -800.00
02457               0.00     -800.00
02458               2.00     -800.00
02459               2.00     -800.00
02460              -2.00     -600.00
02461              -2.00     -600.00
02462              -2.00     -600.00
02463               0.00     -400.00
02464               0.00     -200.00
02465               0.00     -400.00
02466               0.00     -200.00
02467               0.00     -200.00
02468              -6.00     -200.00
02469              -6.00        0.00
02470              -2.00      200.00
02471               0.00        0.00
02472               0.00        0.00
02473               0.00      200.00
02474               0.00      200.00
02475               2.00      200.00
02476               8.00      600.00
02477               0.00      400.00
02478              -6.00      600.00
02479              -8.00      600.00
02480              -2.00      800.00
02481              34.00      800.00
02482             170.00     1200.00
02483             118.00     1200.00
02484            -254.00      800.00
02485            -254.00      800.00
02486             246.00     1200.00
02487             246.00     1400.00
02488             104.00     1200.00
02489            -254.00     1000.00
02490            -254.00     1400.00
02491             246.00     1600.00
02492             246.00     1600.00
02493            -254.00     1000.00
02494            -246.00     1800.00
02495             246.00     1800.00
02496              54.00     1600.00
02497            -254.00     1400.00
02498             114.00     2200.00
02499             246.00     2200.00
02500            -254.00     1600.00
02501            -206.00     1800.00
02502             246.00     2200.00
02503               6.00     2200.00
02504            -254.00     2200.00
02505             166.00     2200.00
02506             190.00     2400.00
02507            -254.00     2200.00
02508            -126.00     2400.00
02509             246.00     2600.00
02510              32.00     2400.00
02511            -180.00     2600.00
02512             -14.00     2800.00
02513              54.00     2600.00
02514               0.00     2600.00
02515             -14.00     2800.00
02516             -24.00     3000.00
02517               6.00     3000.00
02518               6.00     3000.00
02519             -64.00     3000.00
02520              -2.00     3200.00
02521              56.00     3200.00
02522             -48.00     3000.00
02523             -40.00     3200.00
02524              50.00     3400.00
02525             -46.00     3200.00
02526             -60.00     3200.00
02527              62.00     3400.00
02528              10.00     3400.00
02529             -80.00     3200.00
02530              -2.00     3400.00
02531              14.00     3400.00
02532             -22.00     3400.00
02533             -10.00     3400.00
02534             -18.00     3600.00
02535             -16.00     3400.00
02536               8.00     3800.00
02537             -30.00     3600.00
02538             -24.00     3800.00
02539              14.00     3800.00
02540             -32.00     3800.00
02541             -26.00     3800.00
02542              20.00     4000.00
02543             -18.00     3800.00
02544             -40.00     3800.00
02545               8.00     4000.00
02546             -14.00     4000.00
02547             -34.00     3800.00
02548              -4.00     4000.00
02549              -2.00     4000.00
02550             -22.00     4000.00
02551             -18.00     4000.00
02552             -22.00     4200.00
02553             -12.00     4000.00
02554              -2.00     4000.00
02555             -24.00     4200.00
02556             -16.00     4000.00
02557              -6.00     4200.00
02558             -26.00     4000.00
02559             -24.00     4000.00
02560              -2.00     4200.00
02561             -22.00     4000.00
02562             -22.00     4200.00
02563              -2.00     4200.00
02564             -16.00     4200.00
02565             -30.00     4000.00
02566             -18.00     4200.00
02567             -16.00     4200.00
02568             -14.00     4200.00
02569             -10.00     4000.00
02570             -22.00     4200.00
02571             -24.00     4000.00
02572             -18.00     4200.00
02573             -24.00     4000.00
02574             -16.00     4200.00
02575             -10.00     4000.00
02576             -28.00     4200.00
02577             -26.00     4200.00
02578             -18.00     4000.00
02579             -26.00     4200.00
02580             -22.00     4200.00
02581             -16.00     4200.00
02582             -24.00     4000.00
02583             -26.00     4000.00
02584             -18.00     4000.00
02585             -26.00     4000.00
02586             -30.00     4000.00
02587             -24.00     4000.00
02588             -22.00     3800.00
02589             -24.00     4000.00
02590             -26.00     4000.00
02591             -28.00     3800.00
02592             -24.00     3800.00
02593             -26.00     3800.00
02594             -26.00     3800.00
02595             -18.00     3800.00
02596             -18.00     3800.00
02597             -32.00     3600.00
02598             -26.00     3600.00
02599             -24.00     3800.00
02600             -26.00     3600.00
02601             -24.00     3600.00
02602             -18.00     3400.00
02603             -22.00     3800.00
02604             -26.00     3400.00
02605             -24.00     3400.00
02606             -24.00     3400.00
02607             -20.00     3400.00
02608             -18.00     3200.00
02609             -22.00     3400.00
02610             -22.00     3200.00
02611             -26.00     3400.00
02612             -24.00     3000.00
02613             -18.00     3200.00
02614             -14.00     3000.00
02615             -18.00     3200.00
02616             -18.00     3200.00
02617             -16.00     3000.00
02618             -22.00     3000.00
02619             -18.00     2800.00
02620             -16.00     2800.00
02621             -16.00     2600.00
02622             -18.00     2800.00
02623             -18.00     2600.00
02624             -16.00     2600.00
02625             -16.00     2600.00
02626             -16.00     2600.00
02627             -10.00     2600.00
02628             -10.00     2400.00
02629             -10.00     2400.00
02630             -16.00     2400.00
02631             -14.00     2200.00
02632             -16.00     2200.00
02633             -16.00     2200.00
02634             -10.00     2200.00
02635              -8.00     2000.00
02636             -10.00     1800.00
02637             -14.00     1800.00
02638             -10.00     1800.00
02639             -10.00     1800.00
02640             -10.00     1800.00
02641              -8.00     1800.00
02642              -6.00     1600.00
02643             -10.00     1600.00
02644             -14.00     1400.00
02645             -10.00     1400.00
02646              -6.00     1400.00
02647              -8.00     1400.00
02648              -8.00     1200.00
02649              -6.00     1200.00
02650              -6.00     1200.00
02651             -10.00     1000.00
02652             -12.00     1000.00
02653              -6.00      800.00
02654              -2.00      800.00
02655              -6.00      800.00
02656              -6.00      800.00
02657              -6.00      600.00
02658              -6.00      600.00
02659             -10.00      600.00
02660              -6.00      400.00
02661              -6.00      200.00
02662              -6.00      200.00
02663              -4.00      200.00
02664              -2.00      200.00
02665               0.00        0.00
02666               0.00        0.00
02667               4.00     -200.00
02668               2.00        0.00
02669              -8.00     -200.00
02670             -10.00     -200.00
02671              -6.00     -200.00
02672               8.00     -400.00
02673              62.00     -200.00
02674             166.00     -600.00
02675              36.00     -800.00
02676            -254.00     -800.00
02677            -254.00     -600.00
02678             246.00     -600.00
02679             246.00     -600.00
02680             -40.00    -1000.00
02681            -254.00     -800.00
02682            -200.00    -1000.00
02683             246.00    -1000.00
02684             246.00    -1000.00
02685            -254.00    -1000.00
02686            -254.00    -1200.00
02687             246.00    -1400.00
02688             144.00    -1200.00
02689            -254.00    -1400.00
02690             -30.00    -1600.00
02691              72.00    -1400.00
02692             -22.00    -1400.00
02693              64.00    -1800.00
02694              78.00    -1800.00
02695            -218.00    -1800.00
02696             -34.00    -1600.00
02697             246.00    -1800.00
02698              40.00    -1800.00
02699            -254.00    -2000.00
02700             -10.00    -2200.00
02701             234.00    -2200.00
02702              24.00    -2200.00
02703            -138.00    -2200.00
02704             -30.00    -2200.00
02705              54.00    -2200.00
02706              38.00    -2400.00
02707              16.00    -2400.00
02708             -28.00    -2400.00
02709             -16.00    -2600.00
02710              14.00    -2600.00
02711              24.00    -2600.00
02712             -10.00    -2600.00
02713              -4.00    -2600.00
02714              18.00    -2600.00
02715              24.00    -2600.00
02716             -10.00    -2800.00
02717             -32.00    -3000.00
02718              18.00    -2800.00
02719              48.00    -3000.00
02720               4.00    -3000.00
02721             -38.00    -3000.00
02722               0.00    -3200.00
02723              30.00    -3000.00
02724              16.00    -3200.00
02725             -10.00    -3000.00
02726              -6.00    -3200.00
02727              14.00    -3200.00
02728              18.00    -3400.00
02729               6.00    -3400.00
02730             -10.00    -3400.00
02731               0.00    -3400.00
02732              16.00    -3400.00
02733              16.00    -3400.00
02734               6.00    -3400.00
02735              -2.00    -3600.00
02736               4.00    -3400.00
02737              14.00    -3600.00
02738              14.00    -3400.00
02739               0.00    -3600.00
02740               2.00    -3800.00
02741              16.00    -3400.00
02742               8.00    -3600.00
02743               2.00    -3800.00
02744               6.00    -3800.00
02745              14.00    -3600.00
02746              10.00    -3800.00
02747              14.00    -3600.00
02748              10.00    -4000.00
02749               8.00    -3800.00
02750               6.00    -4000.00
02751               8.00    -3800.00
02752              12.00    -3800.00
02753              14.00    -3800.00
02754              10.00    -4000.00
02755              14.00    -3800.00
02756              12.00    -3800.00
02757               6.00    -3800.00
02758              10.00    -3600.00
02759              22.00    -3800.00
02760              14.00    -4000.00
02761               8.00    -3600.00
02762              14.00    -3800.00
02763              12.00    -3800.00
02764              10.00    -3800.00
02765              16.00    -3800.00
02766              18.00    -3800.00
02767              16.00    -3600.00
02768              14.00    -3800.00
02769              16.00    -3800.00
02770              16.00    -3800.00
02771              14.00    -3600.00
02772              16.00    -3600.00
02773              22.00    -3800.00
02774              18.00    -3600.00
02775              16.00    -3800.00
02776              16.00    -3400.00
02777              18.00    -3800.00
02778              16.00    -3400.00
02779              20.00    -3400.00
02780              22.00    -3400.00
02781              20.00    -3600.00
02782              14.00    -3400.00
02783              16.00    -3400.00
02784              16.00    -3400.00
02785              16.00    -3400.00
02786              20.00    -3400.00
02787              20.00    -3200.00
02788              16.00    -3400.00
02789              14.00    -3200.00
02790              16.00    -3200.00
02791              16.00    -3200.00
02792              16.00    -3200.00
02793              16.00    -3200.00
02794              18.00    -3200.00
02795              16.00    -3000.00
02796              12.00    -3000.00
02797              10.00    -3000.00
02798              14.00    -3000.00
02799              16.00    -3000.00
02800              16.00    -3000.00
02801              16.00    -3000.00
02802              12.00    -2800.00
02803               8.00    -2800.00
02804              10.00    -2800.00
02805              14.00    -2600.00
02806              14.00    -2600.00
02807              14.00    -2600.00
02808              10.00    -2600.00
02809               8.00    -2600.00
02810               6.00    -2600.00
02811               8.00    -2400.00
02812              12.00    -2400.00
02813              14.00    -2400.00
02814              10.00    -2400.00
02815               8.00    -2200.00
02816               8.00    -2200.00
02817               6.00    -2200.00
02818               8.00    -2000.00
02819              10.00    -1800.00
02820               8.00    -1800.00
02821               6.00    -1800.00
02822               6.00    -2000.00
02823               6.00    -1600.00
02824               4.00    -1600.00
02825               6.00    -1600.00
02826               6.00    -1600.00
02827               6.00    -1400.00
02828               6.00    -1400.00
02829               4.00    -1600.00
02830               4.00    -1400.00
02831               2.00    -1400.00
02832               2.00    -1400.00
02833               6.00    -1200.00
02834               8.00    -1000.00
02835               2.00    -1000.00
02836               0.00     -800.00
02837               0.00    -1000.00
02838               0.00    -1000.00
02839               2.00     -800.00
02840               6.00     -800.00
02841               2.00     -800.00
02842               0.00     -600.00
02843              -2.00     -600.00
02844              -2.00     -600.00
02845               0.00     -600.00
02846               2.00     -400.00
02847              -2.00     -400.00
02848              -2.00     -200.00
02849               0.00     -200.00
02850              -2.00     -200.00
02851              -4.00     -200.00
02852               0.00        0.00
02853              -2.00      200.00
02854              -2.00      200.00
02855               0.00      200.00
02856               0.00      200.00
02857               2.00      200.00
02858               6.00      400.00
02859               2.00      600.00
02860              -2.00      400.00
02861             -10.00      600.00
02862              -8.00      600.00
02863               8.00      800.00
02864              98.00      800.00
02865             198.00     1200.00
02866            -104.00     1000.00
02867            -254.00      800.00
02868            -150.00     1200.00
02869             246.00     1200.00
02870             246.00     1400.00
02871            -254.00      600.00
02872            -254.00     1200.00
02873             246.00     1400.00
02874             246.00     1800.00
02875            -254.00     1200.00
02876            -254.00     1400.00
02877             246.00     1800.00
02878             246.00     1800.00
02879            -254.00     1400.00
02880            -254.00     1800.00
02881             246.00     2200.00
02882              70.00     1800.00
02883            -254.00     1600.00
02884              88.00     2200.00
02885             238.00     2200.00
02886            -236.00     2000.00
02887             -90.00     2200.00
02888             246.00     2400.00
02889             -72.00     2400.00
02890            -254.00     2200.00
02891             128.00     2600.00
02892             202.00     2600.00
02893            -130.00     2600.00
02894            -122.00     2600.00
02895              56.00     2600.00
02896              30.00     2600.00
02897             -10.00     2800.00
02898             -22.00     2800.00
02899             -18.00     2800.00
02900              18.00     3000.00
02901             -30.00     3000.00
02902             -56.00     3000.00
02903              50.00     3000.00
02904               8.00     3200.00
02905             -66.00     3000.00
02906              22.00     3200.00
02907              20.00     3200.00
02908             -88.00     3200.00
02909               8.00     3200.00
02910              64.00     3400.00
02911             -50.00     3400.00
02912             -50.00     3400.00
02913              22.00     3400.00
02914             -10.00     3400.00
02915             -16.00     3400.00
02916              -8.00     3400.00
02917             -26.00     3600.00
02918               0.00     3600.00
02919             -10.00     3800.00
02920             -34.00     3800.00
02921               2.00     3800.00
02922              -6.00     3800.00
02923             -46.00     3800.00
02924               2.00     3800.00
02925              10.00     3800.00
02926             -46.00     3800.00
02927             -16.00     4000.00
02928               6.00     4000.00
02929             -32.00     4000.00
02930             -18.00     4000.00
02931               6.00     4000.00
02932             -18.00     4000.00
02933             -22.00     4000.00
02934             -22.00     4000.00
02935             -18.00     3800.00
02936              -8.00     4000.00
02937             -14.00     4000.00
02938             -26.00     4200.00
02939              -8.00     4200.00
02940             -16.00     4000.00
02941             -32.00     4000.00
02942             -10.00     4000.00
02943             -10.00     4200.00
02944             -26.00     4200.00
02945             -14.00     4200.00
02946             -10.00     4200.00
02947             -30.00     4200.00
02948             -26.00     4200.00
02949             -16.00     4200.00
02950             -16.00     4200.00
02951             -14.00     4200.00
02952             -20.00     4200.00
02953             -26.00     4200.00
02954             -20.00     4200.00
02955             -20.00     4200.00
02956             -22.00     4000.00
02957             -14.00     4200.00
02958             -18.00     4200.00
02959             -26.00     4200.00
02960             -18.00     4200.00
02961             -22.00     4200.00
02962             -26.00     4000.00
02963             -16.00     4000.00
02964             -18.00     4000.00
02965             -26.00     4200.00
02966             -22.00     4200.00
02967             -22.00     4200.00
02968             -32.00     4000.00
02969             -26.00     4000.00
02970             -18.00     4000.00
02971             -18.00     4000.00
02972             -26.00     4000.00
02973             -26.00     3800.00
02974             -26.00     3800.00
02975             -24.00     3800.00
02976             -26.00     3800.00
02977             -22.00     3800.00
02978             -18.00     3800.00
02979             -26.00     3800.00
02980             -32.00     3800.00
02981             -24.00     3800.00
02982             -24.00     3600.00
02983             -24.00     3800.00
02984             -22.00     3600.00
02985             -20.00     3600.00
02986             -26.00     3400.00
02987             -26.00     3400.00
02988             -24.00     3400.00
02989             -22.00     3400.00
02990             -24.00     3400.00
02991             -18.00     3200.00
02992             -18.00     3200.00
02993             -22.00     3200.00
02994             -26.00     3000.00
02995             -22.00     3200.00
02996             -16.00     3200.00
02997             -18.00     3000.00
02998             -18.00     3000.00
02999             -18.00     3000.00
03000             -20.00     3000.00
03001             -24.00     2800.00
03002             -16.00     2800.00
03003             -16.00     2800.00
03004             -18.00     2600.00
03005             -22.00     2600.00
03006             -16.00     2600.00
03007             -16.00     2400.00
03008             -16.00     2600.00
03009             -16.00     2600.00
03010             -10.00     2400.00
03011             -14.00     2400.00
03012             -14.00     2400.00
03013             -16.00     2200.00
03014             -14.00     2200.00
03015             -18.00     2200.00
03016             -14.00     2200.00
03017              -8.00     2200.00
03018              -8.00     2200.00
03019             -14.00     2000.00
03020             -12.00     1800.00
03021             -10.00     1800.00
03022             -10.00     1800.00
03023             -10.00     1600.00
03024              -6.00     1600.00
03025              -6.00     1400.00
03026             -12.00     1600.00
03027             -12.00     1400.00
03028              -8.00     1400.00
03029              -6.00     1400.00
03030              -8.00     1000.00
03031              -8.00     1200.00
03032              -6.00     1200.00
03033              -8.00     1200.00
03034             -10.00     1200.00
03035              -8.00     1000.00
03036              -2.00     1000.00
03037              -6.00      800.00
03038              -8.00      800.00
03039              -6.00      600.00
03040              -2.00      600.00
03041              -8.00      800.00
03042              -8.00      600.00
03043              -4.00      400.00
03044              -2.00      200.00
03045              -6.00      200.00
03046              -4.00      200.00
03047               0.00        0.00
03048               0.00        0.00
03049               6.00        0.00
03050               6.00        0.00
03051               0.00     -200.00
03052             -10.00     -200.00
03053              -8.00     -200.00
03054               2.00     -200.00
03055              26.00     -200.00
03056             120.00     -400.00
03057             144.00     -600.00
03058            -190.00     -800.00
03059            -254.00     -600.00
03060             -38.00     -400.00
03061             246.00     -800.00
03062             246.00    -1000.00
03063            -254.00    -1000.00
03064            -254.00     -600.00
03065             246.00    -1000.00
03066             246.00    -1000.00
03067            -254.00    -1000.00
03068            -254.00    -1200.00
03069             182.00    -1400.00
03070             246.00    -1400.00
03071            -122.00    -1400.00
03072            -200.00    -1600.00
03073              94.00    -1600.00
03074               0.00    -1400.00
03075               8.00    -1600.00
03076             118.00    -1800.00
03077             -80.00    -1800.00
03078            -198.00    -1800.00
03079             162.00    -2000.00
03080             234.00    -1800.00
03081            -202.00    -2000.00
03082            -200.00    -2000.00
03083             166.00    -2000.00
03084             170.00    -2200.00
03085            -106.00    -2200.00
03086             -90.00    -2200.00
03087              24.00    -2200.00
03088              56.00    -2200.00
03089              24.00    -2400.00
03090              -4.00    -2400.00
03091             -32.00    -2400.00
03092              -2.00    -2600.00
03093              26.00    -2600.00
03094               0.00    -2600.00
03095              -8.00    -2600.00
03096               4.00    -2600.00
03097              32.00    -2600.00
03098               4.00    -2800.00
03099             -26.00    -2800.00
03100             -14.00    -2800.00
03101              48.00    -2800.00
03102              32.00    -3000.00
03103             -26.00    -3000.00
03104             -24.00    -3000.00
03105              22.00    -3200.00
03106              26.00    -3200.00
03107               0.00    -3200.00
03108              -8.00    -3200.00
03109               0.00    -3200.00
03110              16.00    -3200.00
03111              12.00    -3400.00
03112              -2.00    -3400.00
03113              -6.00    -3400.00
03114               8.00    -3400.00
03115              16.00    -3400.00
03116               8.00    -3400.00
03117               0.00    -3400.00
03118               0.00    -3600.00
03119               8.00    -3600.00
03120              16.00    -3600.00
03121               4.00    -3400.00
03122               0.00    -3600.00
03123              14.00    -3800.00
03124              16.00    -3400.00
03125               2.00    -3800.00
03126              -2.00    -3800.00
03127               8.00    -3600.00
03128              14.00    -3800.00
03129              12.00    -3800.00
03130              14.00    -3800.00
03131               8.00    -3800.00
03132               6.00    -3800.00
03133               8.00    -3800.00
03134              12.00    -3600.00
03135              16.00    -3800.00
03136              10.00    -3800.00
03137              10.00    -3800.00
03138              14.00    -3800.00
03139               8.00    -3600.00
03140               4.00    -4000.00
03141              18.00    -3800.00
03142              18.00    -3800.00
03143              14.00    -3800.00
03144              14.00    -3800.00
03145              10.00    -3800.00
03146               8.00    -3800.00
03147              12.00    -3800.00
03148              18.00    -4000.00
03149              16.00    -3800.00
03150              16.00    -3800.00
03151              14.00    -3800.00
03152              14.00    -3800.00
03153              14.00    -3800.00
03154              16.00    -3800.00
03155              22.00    -3600.00
03156              22.00    -3800.00
03157              14.00    -3400.00
03158              16.00    -3800.00
03159              18.00    -3400.00
03160              16.00    -3600.00
03161              16.00    -3400.00
03162              22.00    -3600.00
03163              18.00    -3400.00
03164              16.00    -3400.00
03165              16.00    -3400.00
03166              16.00    -3400.00
03167              16.00    -3400.00
03168              18.00    -3400.00
03169              22.00    -3400.00
03170              18.00    -3400.00
03171              16.00    -3400.00
03172              16.00    -3200.00
03173              16.00    -3200.00
03174              16.00    -3200.00
03175              16.00    -3200.00
03176              18.00    -3000.00
03177              16.00    -3200.00
03178              16.00    -3200.00
03179              10.00    -3000.00
03180              14.00    -3000.00
03181              16.00    -2800.00
03182              16.00    -3000.00
03183              16.00    -3000.00
03184              14.00    -2800.00
03185               8.00    -3000.00
03186               8.00    -2800.00
03187              14.00    -2800.00
03188              16.00    -2600.00
03189              14.00    -2600.00
03190              10.00    -2600.00
03191              10.00    -2600.00
03192               8.00    -2400.00
03193               8.00    -2400.00
03194               8.00    -2400.00
03195              14.00    -2400.00
03196               8.00    -2400.00
03197               6.00    -2200.00
03198               8.00    -2200.00
03199               8.00    -2200.00
03200               6.00    -2000.00
03201               8.00    -2200.00
03202               8.00    -1800.00
03203               6.00    -2000.00
03204               6.00    -1800.00
03205               6.00    -1800.00
03206               6.00    -1600.00
03207               6.00    -1600.00
03208               6.00    -1600.00
03209               6.00    -1400.00
03210               6.00    -1600.00
03211               4.00    -1400.00
03212               2.00    -1400.00
03213               2.00    -1400.00
03214               2.00    -1400.00
03215               6.00    -1200.00
03216               6.00    -1000.00
03217               6.00    -1000.00
03218               0.00    -1000.00
03219               0.00     -800.00
03220               2.00     -800.00
03221               4.00     -800.00
03222               4.00     -800.00
03223               2.00     -600.00
03224               2.00     -600.00
03225               0.00     -600.00
03226              -2.00     -600.00
03227               0.00     -600.00
03228               2.00     -400.00
03229               2.00     -200.00
03230               0.00     -200.00
03231               0.00     -200.00
03232               0.00     -200.00
03233              -2.00     -200.00
03234              -2.00        0.00
03235               0.00        0.00
03236              -2.00      200.00
03237               2.00      200.00
03238               0.00      400.00
03239               0.00      200.00
03240               0.00      400.00
03241               6.00      200.00
03242               0.00      600.00
03243              -8.00      600.00
03244              -8.00      600.00
03245               0.00      800.00
03246              40.00      800.00
03247             174.00     1000.00
03248             110.00     1200.00
03249            -254.00      800.00
03250            -254.00      800.00
03251             246.00     1200.00
03252             246.00     1600.00
03253              70.00     1200.00
03254            -254.00      800.00
03255            -254.00     1400.00
03256             246.00     1800.00
03257             246.00     1400.00
03258            -254.00     1000.00
03259            -222.00     1800.00
03260             246.00     1800.00
03261              28.00     1600.00
03262            -254.00     1400.00
03263             130.00     2200.00
03264             246.00     2200.00
03265            -254.00     1600.00
03266            -198.00     2000.00
03267             246.00     2400.00
03268             -10.00     2000.00
03269            -254.00     2000.00
03270             176.00     2400.00
03271             176.00     2400.00
03272            -254.00     2200.00
03273            -112.00     2400.00
03274             246.00     2600.00
03275              22.00     2400.00
03276            -186.00     2600.00
03277             -10.00     2600.00
03278              58.00     2600.00
03279               0.00     2600.00
03280             -16.00     2800.00
03281             -30.00     2800.00
03282               6.00     3000.00
03283               8.00     3000.00
03284             -62.00     3000.00
03285              -2.00     3200.00
03286              54.00     3000.00
03287             -50.00     3000.00
03288             -34.00     3200.00
03289              54.00     3400.00
03290             -50.00     3200.00
03291             -62.00     3200.00
03292              64.00     3400.00
03293              10.00     3400.00
03294             -74.00     3400.00
03295              -2.00     3400.00
03296              10.00     3400.00
03297             -20.00     3400.00
03298              -6.00     3600.00
03299             -16.00     3600.00
03300             -16.00     3600.00
03301               6.00     3600.00
03302             -30.00     3800.00
03303             -18.00     3800.00
03304              14.00     3800.00
03305             -32.00     3800.00
03306             -28.00     3800.00
03307              18.00     3800.00
03308             -22.00     3800.00
03309             -38.00     3800.00
03310               8.00     4000.00
03311             -14.00     3800.00
03312             -34.00     3800.00
03313              -2.00     4000.00
03314              -6.00     4000.00
03315             -22.00     3800.00
03316             -20.00     4000.00
03317             -24.00     4000.00
03318             -14.00     4000.00
03319              -8.00     4000.00
03320             -24.00     4000.00
03321             -16.00     4000.00
03322              -6.00     4200.00
03323             -32.00     4000.00
03324             -24.00     4000.00
03325              -4.00     4200.00
03326             -22.00     4000.00
03327             -24.00     4200.00
03328              -8.00     4200.00
03329             -22.00     4000.00
03330             -32.00     4200.00
03331             -18.00     4200.00
03332             -16.00     4200.00
03333             -16.00     4200.00
03334             -16.00     4200.00
03335             -24.00     4000.00
03336             -24.00     4200.00
03337             -22.00     4200.00
03338             -24.00     4000.00
03339             -16.00     4000.00
03340             -14.00     4200.00
03341             -26.00     4000.00
03342             -24.00     4200.00
03343             -20.00     4200.00
03344             -26.00     4000.00
03345             -24.00     4000.00
03346             -14.00     4200.00
03347             -24.00     4000.00
03348             -26.00     4000.00
03349             -20.00     4000.00
03350             -24.00     4000.00
03351             -28.00     4000.00
03352             -20.00     4000.00
03353             -18.00     4000.00
03354             -22.00     4000.00
03355             -26.00     4000.00
03356             -26.00     4000.00
03357             -24.00     4000.00
03358             -24.00     3800.00
03359             -24.00     3800.00
03360             -16.00     3800.00
03361             -20.00     3800.00
03362             -30.00     3800.00
03363             -26.00     3800.00
03364             -18.00     3800.00
03365             -26.00     3600.00
03366             -24.00     3600.00
03367             -18.00     3800.00
03368             -18.00     3600.00
03369             -26.00     3400.00
03370             -24.00     3400.00
03371             -24.00     3400.00
03372             -22.00     3400.00
03373             -18.00     3400.00
03374             -18.00     3400.00
03375             -18.00     3400.00
03376             -24.00     3200.00
03377             -26.00     3200.00
03378             -18.00     3200.00
03379             -16.00     3000.00
03380             -18.00     3000.00
03381             -16.00     3000.00
03382             -16.00     3000.00
03383             -20.00     3000.00
03384             -18.00     3000.00
03385             -14.00     2800.00
03386             -16.00     2600.00
03387             -18.00     2600.00
03388             -18.00     2600.00
03389             -16.00     2600.00
03390             -16.00     2600.00
03391             -16.00     2600.00
03392             -14.00     2400.00
03393             -12.00     2400.00
03394             -16.00     2400.00
03395             -14.00     2200.00
03396             -12.00     2200.00
03397             -16.00     2400.00
03398             -16.00     2200.00
03399             -10.00     2200.00
03400              -8.00     2000.00
03401             -10.00     2000.00
03402             -14.00     1800.00
03403             -10.00     1800.00
03404             -12.00     1800.00
03405             -12.00     1600.00
03406             -10.00     1800.00
03407              -6.00     1600.00
03408             -10.00     1600.00
03409             -14.00     1400.00
03410             -10.00     1400.00
03411              -6.00     1400.00
03412              -6.00     1400.00
03413             -10.00     1400.00
03414              -6.00     1200.00
03415              -6.00     1000.00
03416             -10.00     1200.00
03417             -10.00      800.00
03418              -4.00      800.00
03419              -2.00     1000.00
03420              -6.00      800.00
03421              -6.00      600.00
03422              -4.00      600.00
03423              -6.00      600.00
03424              -8.00      600.00
03425              -8.00      600.00
03426              -6.00      200.00
03427              -2.00      200.00
03428              -2.00      200.00
03429               0.00      200.00
03430               0.00      200.00
03431              -2.00        0.00
03432               6.00        0.00
03433               6.00     -200.00
03434              -2.00        0.00
03435              -8.00     -200.00
03436              -8.00     -200.00
03437               8.00     -200.00
03438              64.00     -400.00
03439             168.00     -600.00
03440              30.00     -800.00
03441            -254.00     -800.00
03442            -254.00     -400.00
03443             246.00     -600.00
03444             246.00     -800.00
03445             -72.00    -1200.00
03446            -254.00     -800.00
03447            -170.00    -1000.00
03448             246.00    -1000.00
03449             246.00    -1000.00
03450            -254.00    -1200.00
03451            -238.00    -1000.00
03452             246.00    -1400.00
03453             126.00    -1200.00
03454            -254.00    -1400.00
03455             -18.00    -1600.00
03456              72.00    -1600.00
03457             -26.00    -1400.00
03458              58.00    -1600.00
03459              74.00    -1800.00
03460            -218.00    -1600.00
03461             -30.00    -1800.00
03462             246.00    -2000.00
03463              22.00    -2000.00
03464            -254.00    -1800.00
03465               6.00    -1800.00
03466             232.00    -2000.00
03467              12.00    -2200.00
03468            -138.00    -2400.00
03469             -24.00    -2200.00
03470              56.00    -2400.00
03471              34.00    -2400.00
03472              16.00    -2400.00
03473             -28.00    -2400.00
03474             -18.00    -2400.00
03475              14.00    -2600.00
03476              26.00    -2400.00
03477             -10.00    -2600.00
03478              -6.00    -2800.00
03479              18.00    -2600.00
03480              24.00    -2800.00
03481             -10.00    -3000.00
03482             -32.00    -2800.00
03483              20.00    -2800.00
03484              48.00    -3000.00
03485               0.00    -3000.00
03486             -34.00    -3000.00
03487               0.00    -3200.00
03488              32.00    -3000.00
03489              16.00    -3200.00
03490              -8.00    -3200.00
03491              -6.00    -3200.00
03492              10.00    -3200.00
03493              22.00    -3200.00
03494               8.00    -3200.00
03495              -6.00    -3400.00
03496               0.00    -3400.00
03497              14.00    -3200.00
03498              18.00    -3400.00
03499               8.00    -3400.00
03500               0.00    -3400.00
03501               0.00    -3400.00
03502              10.00    -3600.00
03503              14.00    -3400.00
03504               0.00    -3400.00
03505               6.00    -3400.00
03506              16.00    -3800.00
03507               8.00    -3800.00
03508              -2.00    -3800.00
03509               8.00    -3800.00
03510              14.00    -3800.00
03511               8.00    -3800.00
03512               8.00    -3600.00
03513              10.00    -3800.00
03514              10.00    -3800.00
03515               8.00    -3800.00
03516               8.00    -3800.00
03517              10.00    -3800.00
03518              14.00    -3800.00
03519              10.00    -3600.00
03520              14.00    -3800.00
03521               8.00    -3800.00
03522               6.00    -3800.00
03523              10.00    -3800.00
03524              18.00    -3800.00
03525              16.00    -3800.00
03526              10.00    -3800.00
03527              14.00    -3800.00
03528              12.00    -3800.00
03529              10.00    -3800.00
03530              18.00    -3800.00
03531              18.00    -3800.00
03532              16.00    -3800.00
03533              14.00    -3800.00
03534              14.00    -3800.00
03535              14.00    -3800.00
03536               8.00    -3800.00
03537              16.00    -3600.00
03538              22.00    -3800.00
03539              22.00    -3600.00
03540              16.00    -3800.00
03541              14.00    -3600.00
03542              14.00    -3400.00
03543              14.00    -3800.00
03544              22.00    -3400.00
03545              24.00    -3400.00
03546              16.00    -3600.00
03547              14.00    -3400.00
03548              16.00    -3400.00
03549              18.00    -3400.00
03550              16.00    -3400.00
03551              22.00    -3400.00
03552              20.00    -3400.00
03553              18.00    -3400.00
03554              14.00    -3400.00
03555              16.00    -3400.00
03556              16.00    -3200.00
03557              16.00    -3000.00
03558              16.00    -3200.00
03559              22.00    -3000.00
03560              16.00    -3000.00
03561              14.00    -3000.00
03562              10.00    -3000.00
03563              16.00    -3000.00
03564              18.00    -2800.00
03565              18.00    -3000.00
03566              16.00    -3000.00
03567              12.00    -2800.00
03568               8.00    -3000.00
03569              14.00    -2600.00
03570              16.00    -2600.00
03571              14.00    -2600.00
03572              10.00    -2600.00
03573              10.00    -2600.00
03574              10.00    -2600.00
03575              10.00    -2400.00
03576              14.00    -2400.00
03577              10.00    -2400.00
03578               8.00    -2400.00
03579               8.00    -2200.00
03580              12.00    -2200.00
03581              10.00    -2200.00
03582               6.00    -2200.00
03583               2.00    -2200.00
03584               8.00    -2000.00
03585              10.00    -2000.00
03586               8.00    -1800.00
03587               6.00    -1800.00
03588               4.00    -1600.00
03589               2.00    -1800.00
03590               2.00    -1800.00
03591               8.00    -1600.00
03592               8.00    -1600.00
03593               2.00    -1400.00
03594               0.00    -1600.00
03595               0.00    -1400.00
03596               2.00    -1400.00
03597               6.00    -1200.00
03598               8.00    -1000.00
03599               2.00    -1000.00
03600              -2.00    -1000.00
03601               0.00    -1000.00
03602               0.00     -800.00
03603               6.00     -800.00
03604               0.00     -800.00
03605               0.00     -800.00
03606               4.00     -600.00
03607               0.00     -600.00
03608              -2.00     -600.00
03609               2.00     -600.00
03610               2.00     -600.00
03611               0.00     -400.00
03612              -4.00     -200.00
03613               0.00     -200.00
03614               2.00     -200.00
03615               0.00     -200.00
03616              -6.00        0.00
03617              -6.00        0.00
03618              -2.00        0.00
03619               0.00      200.00
03620               2.00      200.00
03621               2.00      400.00
03622               0.00      200.00
03623               4.00      600.00
03624               8.00      600.00
03625               0.00      600.00
03626             -10.00      600.00
03627              -8.00      600.00
03628               8.00      800.00
03629             102.00      800.00
03630             198.00     1200.00
03631            -118.00     1000.00
03632            -254.00      800.00
03633            -130.00     1200.00
03634             246.00     1400.00
03635             246.00     1400.00
03636            -254.00      800.00
03637            -254.00     1200.00
03638             246.00     1600.00
03639             246.00     1800.00
03640            -254.00     1000.00
03641            -254.00     1400.00
03642             246.00     1800.00
03643             246.00     1800.00
03644            -254.00     1400.00
03645            -240.00     1800.00
03646             246.00     2200.00
03647              50.00     1800.00
03648            -254.00     1600.00
03649              96.00     2200.00
03650             234.00     2200.00
03651            -240.00     1800.00
03652             -80.00     2200.00
03653             246.00     2400.00
03654             -90.00     2200.00
03655            -254.00     2200.00
03656             144.00     2600.00
03657             194.00     2600.00
03658            -142.00     2400.00
03659            -122.00     2600.00
03660              56.00     2600.00
03661              30.00     2600.00
03662              -8.00     2600.00
03663             -24.00     2800.00
03664             -24.00     2800.00
03665              16.00     3000.00
03666             -32.00     3000.00
03667             -50.00     3000.00
03668              52.00     3000.00
03669               0.00     3000.00
03670             -70.00     3000.00
03671              26.00     3200.00
03672              18.00     3400.00
03673             -90.00     3200.00
03674              12.00     3400.00
03675              64.00     3400.00
03676             -54.00     3400.00
03677             -46.00     3400.00
03678              18.00     3600.00
03679             -16.00     3600.00
03680             -14.00     3400.00
03681              -2.00     3600.00
03682             -26.00     3600.00
03683               2.00     3400.00
03684              -8.00     3800.00
03685             -36.00     3800.00
03686               8.00     3800.00
03687              -2.00     3800.00
03688             -46.00     3800.00
03689               4.00     3800.00
03690               8.00     4000.00
03691             -42.00     3800.00
03692              -8.00     3800.00
03693               6.00     4000.00
03694             -34.00     4000.00
03695             -22.00     3800.00
03696               2.00     4200.00
03697             -14.00     4000.00
03698             -18.00     4000.00
03699             -26.00     4000.00
03700             -28.00     4000.00
03701              -2.00     4200.00
03702              -2.00     4200.00
03703             -18.00     4000.00
03704             -18.00     4000.00
03705             -32.00     4000.00
03706             -30.00     4000.00
03707               6.00     4200.00
03708               0.00     4200.00
03709             -34.00     4200.00
03710             -26.00     4200.00
03711             -16.00     4200.00
03712             -22.00     4200.00
03713             -16.00     4200.00
03714             -22.00     4200.00
03715             -22.00     4200.00
03716             -10.00     4200.00
03717             -18.00     4200.00
03718             -32.00     4200.00
03719             -30.00     4000.00
03720             -24.00     4200.00
03721             -10.00     4200.00
03722              -6.00     4200.00
03723             -30.00     4000.00
03724             -42.00     4200.00
03725             -24.00     4000.00
03726             -10.00     4200.00
03727             -16.00     4000.00
03728             -18.00     4000.00
03729             -30.00     4000.00
03730             -32.00     4000.00
03731             -16.00     4000.00
03732             -16.00     4200.00
03733             -30.00     4000.00
03734             -30.00     4000.00
03735             -24.00     4000.00
03736             -18.00     4000.00
03737             -20.00     3800.00
03738             -24.00     4000.00
03739             -26.00     3800.00
03740             -26.00     4000.00
03741             -26.00     3800.00
03742             -18.00     3800.00
03743             -16.00     4000.00
03744             -26.00     3600.00
03745             -26.00     3800.00
03746             -22.00     3800.00
03747             -24.00     3600.00
03748             -24.00     3600.00
03749             -16.00     3600.00
03750             -18.00     3400.00
03751             -24.00     3400.00
03752             -26.00     3400.00
03753             -22.00     3400.00
03754             -20.00     3200.00
03755             -20.00     3400.00
03756             -20.00     3200.00
03757             -16.00     3200.00
03758             -18.00     3200.00
03759             -26.00     3200.00
03760             -22.00     3200.00
03761             -16.00     3000.00
03762             -18.00     3200.00
03763             -18.00     3000.00
03764             -18.00     3000.00
03765             -24.00     3000.00
03766             -22.00     3000.00
03767             -16.00     3000.00
03768             -18.00     2600.00
03769             -18.00     2800.00
03770             -18.00     2600.00
03771             -16.00     2600.00
03772             -16.00     2600.00
03773             -16.00     2400.00
03774             -16.00     2600.00
03775             -10.00     2400.00
03776             -14.00     2400.00
03777             -16.00     2200.00
03778             -16.00     2200.00
03779             -12.00     2200.00
03780             -18.00     2200.00
03781             -16.00     2200.00
03782             -10.00     2200.00
03783              -8.00     1800.00
03784             -14.00     2200.00
03785             -14.00     1800.00
03786             -10.00     1800.00
03787             -12.00     1600.00
03788             -10.00     1600.00
03789              -8.00     1600.00
03790             -10.00     1600.00
03791             -10.00     1400.00
03792             -10.00     1600.00
03793              -8.00     1400.00
03794             -10.00     1400.00
03795             -10.00     1200.00
03796              -6.00     1200.00
03797              -6.00     1200.00
03798             -10.00     1000.00
03799             -10.00     1200.00
03800             -10.00     1000.00
03801              -2.00      800.00
03802              -8.00      800.00
03803              -6.00      800.00
03804              -6.00      600.00
03805              -4.00      600.00
03806             -10.00      600.00
03807              -8.00      600.00
03808              -2.00      600.00
03809              -2.00      200.00
03810              -6.00      200.00
03811              -2.00      200.00
03812              -2.00        0.00
03813               2.00      200.00
03814               6.00        0.00
03815               4.00        0.00
03816              -2.00        0.00
03817             -10.00     -200.00
03818              -6.00     -200.00
03819               2.00     -200.00
03820              28.00     -200.00
03821             120.00     -400.00
03822             142.00     -600.00
03823            -198.00     -800.00
03824            -254.00     -800.00
03825             -20.00     -400.00
03826             246.00     -600.00
03827             246.00    -1000.00
03828            -254.00    -1000.00
03829            -254.00     -800.00
03830             246.00    -1000.00
03831             246.00    -1000.00
03832            -254.00    -1200.00
03833            -254.00    -1000.00
03834             194.00    -1400.00
03835             246.00    -1400.00
03836            -128.00    -1200.00
03837            -192.00    -1600.00
03838              90.00    -1400.00
03839             -10.00    -1600.00
03840               8.00    -1600.00
03841             120.00    -1600.00
03842             -88.00    -1800.00
03843            -198.00    -1600.00
03844             168.00    -1800.00
03845             228.00    -1800.00
03846            -208.00    -1800.00
03847            -192.00    -2200.00
03848             174.00    -2000.00
03849             160.00    -2200.00
03850            -114.00    -2200.00
03851             -88.00    -2400.00
03852              24.00    -2200.00
03853              56.00    -2400.00
03854              22.00    -2400.00
03855              -8.00    -2400.00
03856             -34.00    -2600.00
03857               0.00    -2600.00
03858              32.00    -2400.00
03859               0.00    -2600.00
03860             -14.00    -2600.00
03861               2.00    -2600.00
03862              32.00    -2600.00
03863               4.00    -2800.00
03864             -32.00    -3000.00
03865             -14.00    -3000.00
03866              48.00    -3000.00
03867              32.00    -3000.00
03868             -26.00    -3000.00
03869             -24.00    -3000.00
03870              22.00    -3200.00
03871              26.00    -3200.00
03872               0.00    -3000.00
03873              -8.00    -3200.00
03874               0.00    -3200.00
03875              18.00    -3200.00
03876              14.00    -3400.00
03877              -2.00    -3200.00
03878              -2.00    -3400.00
03879               8.00    -3400.00
03880              16.00    -3400.00
03881              10.00    -3400.00
03882               6.00    -3400.00
03883               2.00    -3400.00
03884               8.00    -3400.00
03885              14.00    -3400.00
03886               8.00    -3600.00
03887               4.00    -3600.00
03888              16.00    -3600.00
03889              16.00    -3600.00
03890               0.00    -3600.00
03891               0.00    -3800.00
03892              10.00    -3800.00
03893              14.00    -3600.00
03894              12.00    -3800.00
03895              10.00    -3800.00
03896               8.00    -3800.00
03897               6.00    -3600.00
03898               6.00    -3800.00
03899              12.00    -3800.00
03900              14.00    -3800.00
03901              10.00    -3800.00
03902               8.00    -3800.00
03903              16.00    -3800.00
03904               8.00    -3600.00
03905               4.00    -3800.00
03906              14.00    -3800.00
03907              22.00    -3800.00
03908              14.00    -3800.00
03909              10.00    -4000.00
03910               8.00    -4000.00
03911               8.00    -3800.00
03912              16.00    -3800.00
03913              22.00    -3800.00
03914              16.00    -3800.00
03915              14.00    -3800.00
03916              14.00    -3800.00
03917              14.00    -3800.00
03918              14.00    -3800.00
03919              14.00    -3800.00
03920              18.00    -3800.00
03921              22.00    -3600.00
03922              16.00    -3600.00
03923              16.00    -3800.00
03924              14.00    -3600.00
03925              16.00    -3600.00
03926              18.00    -3600.00
03927              22.00    -3400.00
03928              22.00    -3600.00
03929              16.00    -3400.00
03930              14.00    -3400.00
03931              16.00    -3400.00
03932              18.00    -3400.00
03933              22.00    -3400.00
03934              22.00    -3400.00
03935              18.00    -3200.00
03936              14.00    -3400.00
03937              16.00    -3400.00
03938              18.00    -3200.00
03939              18.00    -3200.00
03940              16.00    -3200.00
03941              18.00    -3200.00
03942              18.00    -3000.00
03943              16.00    -3200.00
03944              14.00    -3000.00
03945              16.00    -3000.00
03946              16.00    -3000.00
03947              16.00    -2800.00
03948              14.00    -3000.00
03949              18.00    -2800.00
03950              14.00    -2600.00
03951              14.00    -2600.00
03952              10.00    -2600.00
03953              16.00    -2600.00
03954              16.00    -2600.00
03955              14.00    -2400.00
03956               8.00    -2600.00
03957               8.00    -2600.00
03958              10.00    -2400.00
03959              10.00    -2400.00
03960              10.00    -2400.00
03961               8.00    -2200.00
03962               8.00    -2400.00
03963               8.00    -2200.00
03964               8.00    -2200.00
03965               6.00    -2200.00
03966               8.00    -2000.00
03967               8.00    -1800.00
03968               8.00    -1800.00
03969               6.00    -1800.00
03970               4.00    -1600.00
03971               4.00    -1800.00
03972               2.00    -1600.00
03973               6.00    -1600.00
03974               6.00    -1400.00
03975               6.00    -1600.00
03976               2.00    -1400.00
03977               2.00    -1400.00
03978               6.00    -1400.00
03979               0.00    -1400.00
03980               0.00    -1400.00
03981               2.00    -1000.00
03982               6.00    -1000.00
03983               2.00    -1000.00
03984              -2.00    -1000.00
03985               0.00     -800.00
03986               0.00     -800.00
03987               0.00     -800.00
03988               6.00     -600.00
03989               2.00     -600.00
03990              -2.00     -600.00
03991              -4.00     -400.00
03992               0.00     -600.00
03993               2.00     -400.00
03994               0.00     -400.00
03995              -2.00     -200.00
03996               0.00     -200.00
03997               0.00     -200.00
03998              -4.00        0.00
03999              -2.00        0.00
04000               0.00        0.00
04001              -2.00      200.00
04002               0.00      200.00
04003               2.00      200.00
04004               0.00      400.00
04005               4.00      400.00
04006               8.00      600.00
04007               4.00      400.00
04008              -6.00      600.00
04009             -10.00      600.00
04010               0.00      600.00
04011              42.00      800.00
04012             178.00     1200.00
04013             104.00     1000.00
04014            -254.00      800.00
04015            -254.00      800.00
04016             246.00     1200.00
04017             246.00     1400.00
04018              40.00     1200.00
04019            -254.00     1000.00
04020            -254.00     1600.00
04021             246.00     1800.00
04022             246.00     1400.00
04023            -254.00     1200.00
04024            -202.00     1800.00
04025             246.00     1800.00
04026               8.00     1600.00
04027            -254.00     1600.00
04028             144.00     2200.00
04029             246.00     2000.00
04030            -254.00     1600.00
04031            -182.00     2000.00
04032             246.00     2400.00
04033             -22.00     2200.00
04034            -254.00     2200.00
04035             182.00     2400.00
04036             168.00     2400.00
04037            -254.00     2200.00
04038            -104.00     2400.00
04039             246.00     2600.00
04040              14.00     2400.00
04041            -184.00     2600.00
04042              -8.00     2600.00
04043              56.00     2800.00
04044               0.00     2600.00
04045             -16.00     2600.00
04046             -32.00     2800.00
04047               6.00     3000.00
04048               2.00     3000.00
04049             -64.00     3000.00
04050               0.00     3000.00
04051              50.00     3200.00
04052             -50.00     3000.00
04053             -30.00     3200.00
04054              50.00     3400.00
04055             -56.00     3200.00
04056             -54.00     3200.00
04057              66.00     3400.00
04058               6.00     3400.00
04059             -80.00     3200.00
04060              -2.00     3600.00
04061              14.00     3400.00
04062             -16.00     3400.00
04063              -2.00     3600.00
04064             -26.00     3600.00
04065             -16.00     3600.00
04066              10.00     3600.00
04067             -26.00     3800.00
04068             -18.00     3800.00
04069              10.00     3800.00
04070             -34.00     3800.00
04071             -24.00     3800.00
04072              24.00     3800.00
04073             -22.00     3800.00
04074             -40.00     3800.00
04075               6.00     4200.00
04076             -14.00     4000.00
04077             -32.00     4000.00
04078               0.00     4000.00
04079              -8.00     4000.00
04080             -24.00     4000.00
04081             -16.00     4200.00
04082             -18.00     4000.00
04083             -10.00     4000.00
04084              -8.00     4200.00
04085             -26.00     4000.00
04086             -14.00     4200.00
04087              -6.00     4200.00
04088             -30.00     4200.00
04089             -24.00     4200.00
04090              -4.00     4200.00
04091             -22.00     4200.00
04092             -22.00     4200.00
04093              -6.00     4200.00
04094             -18.00     4200.00
04095             -26.00     4200.00
04096             -18.00     4200.00
04097             -18.00     4200.00
04098             -16.00     4000.00
04099             -14.00     4200.00
04100             -24.00     4200.00
04101             -24.00     4200.00
04102             -24.00     4200.00
04103             -24.00     4200.00
04104             -16.00     4200.00
04105             -14.00     4000.00
04106             -30.00     4200.00
04107             -26.00     4200.00
04108             -22.00     4200.00
04109             -26.00     4200.00
04110             -24.00     4200.00
04111             -16.00     4200.00
04112             -26.00     4200.00
04113             -30.00     4200.00
04114             -22.00     4000.00
04115             -26.00     4000.00
04116             -26.00     4000.00
04117             -22.00     4000.00
04118             -22.00     4000.00
04119             -22.00     4000.00
04120             -24.00     4000.00
04121             -26.00     4000.00
04122             -26.00     3800.00
04123             -26.00     3800.00
04124             -24.00     3800.00
04125             -16.00     4000.00
04126             -22.00     3800.00
04127             -30.00     3800.00
04128             -24.00     3800.00
04129             -18.00     3800.00
04130             -26.00     3800.00
04131             -24.00     3800.00
04132             -16.00     3400.00
04133             -18.00     3400.00
04134             -26.00     3400.00
04135             -26.00     3600.00
04136             -22.00     3400.00
04137             -18.00     3400.00
04138             -18.00     3400.00
04139             -22.00     3200.00
04140             -18.00     3400.00
04141             -24.00     3200.00
04142             -24.00     3200.00
04143             -18.00     3200.00
04144             -16.00     3000.00
04145             -18.00     3000.00
04146             -16.00     3000.00
04147             -18.00     3000.00
04148             -22.00     3000.00
04149             -16.00     3000.00
04150             -14.00     3000.00
04151             -18.00     2800.00
04152             -20.00     2800.00
04153             -16.00     2600.00
04154             -16.00     2600.00
04155             -18.00     2600.00
04156             -18.00     2600.00
04157             -14.00     2400.00
04158             -10.00     2600.00
04159             -14.00     2400.00
04160             -16.00     2400.00
04161             -16.00     2400.00
04162             -16.00     2200.00
04163             -16.00     2200.00
04164             -10.00     2200.00
04165              -8.00     2000.00
04166             -10.00     2000.00
04167             -16.00     1800.00
04168             -10.00     1800.00
04169             -12.00     1800.00
04170             -10.00     1800.00
04171             -10.00     1600.00
04172             -10.00     1600.00
04173             -10.00     1600.00
04174             -10.00     1600.00
04175             -10.00     1400.00
04176              -8.00     1400.00
04177             -14.00     1200.00
04178             -10.00     1400.00
04179              -4.00     1200.00
04180              -6.00     1200.00
04181             -10.00     1000.00
04182             -14.00     1200.00
04183              -8.00      800.00
04184              -6.00      800.00
04185              -6.00      800.00
04186              -8.00      800.00
04187              -6.00      600.00
04188              -8.00      600.00
04189             -10.00      400.00
04190              -8.00      400.00
04191               0.00      600.00
04192              -2.00      200.00
04193              -8.00      200.00
04194              -2.00      200.00
04195               0.00        0.00
04196               2.00        0.00
04197               8.00        0.00
04198               0.00        0.00
04199             -10.00     -200.00
04200             -10.00     -200.00
04201               0.00     -200.00
04202              14.00     -200.00
04203              64.00     -200.00
04204             164.00     -600.00
04205              22.00     -800.00
04206            -254.00     -800.00
04207            -254.00     -200.00
04208             246.00     -600.00
04209             246.00     -800.00
04210             -94.00    -1000.00
04211            -254.00     -800.00
04212            -146.00    -1000.00
04213             246.00    -1000.00
04214             246.00    -1000.00
04215            -254.00    -1000.00
04216            -224.00    -1200.00
04217             246.00    -1400.00
04218             120.00    -1200.00
04219            -254.00    -1600.00
04220             -14.00    -1400.00
04221              64.00    -1400.00
04222             -26.00    -1400.00
04223              70.00    -1600.00
04224              74.00    -1800.00
04225            -226.00    -1600.00
04226             -22.00    -1600.00
04227             246.00    -1800.00
04228              18.00    -1800.00
04229            -254.00    -2000.00
04230               6.00    -2200.00
04231             232.00    -2000.00
04232              10.00    -2200.00
04233            -138.00    -2200.00
04234             -26.00    -2200.00
04235              54.00    -2200.00
04236              34.00    -2400.00
04237              16.00    -2400.00
04238             -30.00    -2400.00
04239             -16.00    -2600.00
04240              14.00    -2600.00
04241              20.00    -2400.00
04242             -12.00    -2600.00
04243              -6.00    -2800.00
04244              22.00    -2600.00
04245              24.00    -2800.00
04246             -16.00    -3000.00
04247             -34.00    -2800.00
04248              22.00    -3000.00
04249              52.00    -3000.00
04250               2.00    -3000.00
04251             -38.00    -3000.00
04252               2.00    -3000.00
04253              32.00    -3000.00
04254              18.00    -3000.00
04255             -10.00    -3200.00
04256              -8.00    -3200.00
04257              16.00    -3200.00
04258              22.00    -3200.00
04259               8.00    -3200.00
04260              -8.00    -3400.00
04261               0.00    -3400.00
04262              22.00    -3400.00
04263              18.00    -3400.00
04264               6.00    -3600.00
04265               0.00    -3400.00
04266               6.00    -3400.00
04267              16.00    -3400.00
04268              14.00    -3600.00
04269               2.00    -3600.00
04270               8.00    -3600.00
04271              18.00    -3800.00
04272              10.00    -3800.00
04273               0.00    -3800.00
04274               8.00    -3600.00
04275              16.00    -3800.00
04276              12.00    -3800.00
04277              12.00    -3800.00
04278              14.00    -3800.00
04279               8.00    -3800.00
04280               8.00    -3800.00
04281               8.00    -3800.00
04282              14.00    -3800.00
04283              16.00    -3800.00
04284              10.00    -3800.00
04285              12.00    -3800.00
04286              14.00    -3800.00
04287               6.00    -3800.00
04288              10.00    -3800.00
04289              22.00    -3800.00
04290              16.00    -3800.00
04291              14.00    -3800.00
04292              14.00    -3800.00
04293               8.00    -3800.00
04294              10.00    -3800.00
04295              16.00    -3800.00
04296              20.00    -3800.00
04297              16.00    -3800.00
04298              10.00    -3800.00
04299              14.00    -3800.00
04300              16.00    -3800.00
04301              14.00    -3600.00
04302              16.00    -3800.00
04303              22.00    -3600.00
04304              18.00    -3600.00
04305              16.00    -3600.00
04306              14.00    -3800.00
04307              16.00    -3800.00
04308              14.00    -3600.00
04309              18.00    -3400.00
04310              22.00    -3600.00
04311              16.00    -3400.00
04312              16.00    -3400.00
04313              16.00    -3400.00
04314              18.00    -3400.00
04315              18.00    -3400.00
04316              20.00    -3400.00
04317              16.00    -3400.00
04318              16.00    -3400.00
04319              18.00    -3200.00
04320              18.00    -3200.00
04321              14.00    -3200.00
04322              14.00    -3200.00
04323              18.00    -3000.00
04324              22.00    -3200.00
04325              18.00    -3200.00
04326              14.00    -3000.00
04327              10.00    -3000.00
04328              16.00    -3000.00
04329              16.00    -3000.00
04330              18.00    -3000.00
04331              16.00    -2800.00
04332              12.00    -2800.00
04333               8.00    -2600.00
04334              10.00    -2600.00
04335              14.00    -2600.00
04336              16.00    -2600.00
04337              14.00    -2600.00
04338              14.00    -2600.00
04339              10.00    -2400.00
04340               8.00    -2400.00
04341              10.00    -2400.00
04342              12.00    -2400.00
04343              16.00    -2200.00
04344              10.00    -2400.00
04345               8.00    -2200.00
04346              10.00    -2200.00
04347               6.00    -2200.00
04348               8.00    -2000.00
04349               8.00    -2200.00
04350               8.00    -1800.00
04351               6.00    -1800.00
04352               6.00    -1800.00
04353               4.00    -1800.00
04354               2.00    -1600.00
04355               6.00    -1600.00
04356               6.00    -1400.00
04357               8.00    -1600.00
04358               6.00    -1400.00
04359               2.00    -1400.00
04360               2.00    -1400.00
04361               2.00    -1400.00
04362               2.00    -1200.00
04363               6.00    -1000.00
04364               6.00    -1000.00
04365               0.00    -1000.00
04366               0.00    -1000.00
04367               2.00    -1000.00
04368               0.00     -800.00
04369               2.00     -800.00
04370               2.00     -600.00
04371               0.00     -800.00
04372              -2.00     -600.00
04373              -2.00     -600.00
04374               0.00     -600.00
04375               0.00     -600.00
04376               2.00     -400.00
04377              -2.00     -200.00
04378              -2.00     -200.00
04379               0.00     -200.00
04380               0.00     -200.00
04381              -2.00        0.00
04382              -2.00        0.00
04383              -2.00        0.00
04384               0.00      200.00
04385               2.00      200.00
04386               2.00      200.00
04387               0.00      400.00
04388               6.00      600.00
04389               4.00      600.00
04390               0.00      600.00
04391              -8.00      600.00
04392              -6.00      800.00
04393               8.00      800.00
04394             104.00      800.00
04395             198.00     1200.00
04396            -128.00     1200.00
04397            -254.00      800.00
04398            -114.00     1000.00
04399             246.00     1400.00
04400             246.00     1600.00
04401            -254.00      600.00
04402            -254.00     1400.00
04403             246.00     1600.00
04404             246.00     1800.00
04405            -254.00     1200.00
04406            -254.00     1400.00
04407             246.00     2000.00
04408             246.00     1800.00
04409            -254.00     1400.00
04410            -226.00     1800.00
04411             246.00     2200.00
04412              34.00     1800.00
04413            -254.00     1800.00
04414             114.00     2200.00
04415             224.00     2200.00
04416            -250.00     2000.00
04417             -70.00     2200.00
04418             246.00     2400.00
04419             -90.00     2200.00
04420            -254.00     2200.00
04421             146.00     2600.00
04422             190.00     2600.00
04423            -142.00     2400.00
04424            -114.00     2600.00
04425              62.00     2600.00
04426              26.00     2600.00
04427             -10.00     2600.00
04428             -24.00     2800.00
04429             -16.00     3000.00
04430              22.00     3000.00
04431             -34.00     3000.00
04432             -54.00     3000.00
04433              52.00     3000.00
04434              -2.00     3000.00
04435             -66.00     3000.00
04436              26.00     3200.00
04437              14.00     3000.00
04438             -90.00     3200.00
04439              16.00     3400.00
04440              62.00     3400.00
04441             -56.00     3200.00
04442             -44.00     3400.00
04443              22.00     3600.00
04444             -10.00     3400.00
04445             -16.00     3400.00
04446              -8.00     3800.00
04447             -26.00     3800.00
04448               6.00     3600.00
04449             -10.00     3800.00
04450             -38.00     3800.00
04451               6.00     3800.00
04452              -6.00     3800.00
04453             -42.00     3800.00
04454               6.00     3800.00
04455               8.00     4000.00
04456             -42.00     3800.00
04457             -10.00     4000.00
04458               6.00     4000.00
04459             -34.00     4000.00
04460             -18.00     4000.00
04461               6.00     4000.00
04462             -14.00     4000.00
04463             -18.00     4000.00
04464             -18.00     4200.00
04465             -20.00     4000.00
04466              -6.00     4000.00
04467             -14.00     4200.00
04468             -24.00     4200.00
04469              -2.00     4200.00
04470             -18.00     4000.00
04471             -32.00     4000.00
04472             -10.00     4200.00
04473              -8.00     4200.00
04474             -24.00     4200.00
04475             -10.00     4200.00
04476             -12.00     4200.00
04477             -26.00     4200.00
04478             -22.00     4200.00
04479             -14.00     4200.00
04480             -18.00     4200.00
04481             -16.00     4200.00
04482             -18.00     4200.00
04483             -24.00     4000.00
04484             -22.00     4000.00
04485             -26.00     4000.00
04486             -24.00     4200.00
04487             -14.00     4000.00
04488             -18.00     4200.00
04489             -28.00     4000.00
04490             -22.00     4000.00
04491             -26.00     4000.00
04492             -26.00     4200.00
04493             -18.00     4000.00
04494             -18.00     4000.00
04495             -26.00     4000.00
04496             -26.00     4000.00
04497             -24.00     4000.00
04498             -30.00     4000.00
04499             -22.00     3800.00
04500             -20.00     4000.00
04501             -24.00     3800.00
04502             -26.00     4000.00
04503             -26.00     3800.00
04504             -24.00     3800.00
04505             -22.00     4000.00
04506             -26.00     3800.00
04507             -24.00     3800.00
04508             -20.00     3800.00
04509             -26.00     3600.00
04510             -26.00     3800.00
04511             -20.00     3600.00
04512             -24.00     3600.00
04513             -26.00     3800.00
04514             -18.00     3600.00
04515             -18.00     3400.00
04516             -24.00     3400.00
04517             -26.00     3400.00
04518             -22.00     3400.00
04519             -18.00     3400.00
04520             -18.00     3400.00
04521             -18.00     3400.00
04522             -16.00     3400.00
04523             -22.00     3200.00
04524             -24.00     3200.00
04525             -22.00     3200.00
04526             -16.00     3000.00
04527             -16.00     3200.00
04528             -16.00     3000.00
04529             -14.00     3000.00
04530             -18.00     3000.00
04531             -22.00     3000.00
04532             -16.00     3000.00
04533             -16.00     2800.00
04534             -14.00     2600.00
04535             -16.00     2600.00
04536             -14.00     2600.00
04537             -16.00     2600.00
04538             -16.00     2600.00
04539             -14.00     2400.00
04540              -8.00     2400.00
04541             -14.00     2400.00
04542             -16.00     2400.00
04543             -16.00     2400.00
04544             -14.00     2200.00
04545             -18.00     2200.00
04546             -16.00     2200.00
04547             -10.00     2200.00
04548             -10.00     2200.00
04549             -14.00     1800.00
04550             -14.00     1800.00
04551             -14.00     1800.00
04552             -14.00     1800.00
04553             -10.00     1800.00
04554              -8.00     1600.00
04555             -10.00     1600.00
04556             -16.00     1400.00
04557             -16.00     1600.00
04558              -8.00     1400.00
04559              -8.00     1400.00
04560             -10.00     1200.00
04561              -8.00     1200.00
04562              -6.00     1200.00
04563             -10.00     1000.00
04564             -14.00     1200.00
04565              -8.00      800.00
04566              -2.00      800.00
04567              -6.00      800.00
04568             -10.00      800.00
04569              -8.00      800.00
04570              -2.00      600.00
04571              -8.00      600.00
04572              -6.00      600.00
04573              -6.00      400.00
04574              -6.00      400.00
04575              -6.00      200.00
04576               0.00      200.00
04577              -2.00      200.00
04578               0.00        0.00
04579               0.00        0.00
04580               6.00     -200.00
04581              -2.00        0.00
04582              -6.00     -200.00
04583              -6.00     -200.00
04584               2.00     -200.00
04585              30.00     -400.00
04586             128.00     -400.00
04587             142.00     -600.00
04588            -206.00     -800.00
04589            -254.00     -600.00
04590              -6.00     -400.00
04591             246.00     -800.00
04592             246.00    -1000.00
04593            -254.00    -1000.00
04594            -254.00     -800.00
04595             246.00    -1000.00
04596             246.00    -1000.00
04597            -254.00    -1200.00
04598            -254.00    -1000.00
04599             210.00    -1400.00
04600             246.00    -1200.00
04601            -134.00    -1400.00
04602            -186.00    -1600.00
04603              94.00    -1400.00
04604              -8.00    -1400.00
04605              14.00    -1400.00
04606             122.00    -1800.00
04607             -92.00    -1600.00
04608            -194.00    -1800.00
04609             176.00    -2000.00
04610             224.00    -1800.00
04611            -214.00    -2000.00
04612            -186.00    -2200.00
04613             174.00    -2200.00
04614             158.00    -2000.00
04615            -112.00    -2400.00
04616             -82.00    -2200.00
04617              24.00    -2200.00
04618              54.00    -2400.00
04619              22.00    -2400.00
04620              -6.00    -2400.00
04621             -32.00    -2600.00
04622               0.00    -2600.00
04623              24.00    -2600.00
04624               0.00    -2600.00
04625              -8.00    -2600.00
04626               6.00    -2800.00
04627              30.00    -3000.00
04628               4.00    -3000.00
04629             -32.00    -2800.00
04630             -16.00    -3000.00
04631              48.00    -3000.00
04632              30.00    -3000.00
04633             -30.00    -3000.00
04634             -22.00    -3200.00
04635              18.00    -3000.00
04636              26.00    -3000.00
04637               2.00    -3200.00
04638              -8.00    -3200.00
04639               2.00    -3200.00
04640              18.00    -3400.00
04641              16.00    -3200.00
04642              -2.00    -3200.00
04643              -6.00    -3400.00
04644              10.00    -3400.00
04645              16.00    -3400.00
04646              10.00    -3400.00
04647               0.00    -3600.00
04648               0.00    -3400.00
04649              16.00    -3400.00
04650              16.00    -3600.00
04651               4.00    -3400.00
04652               0.00    -3400.00
04653              14.00    -3600.00
04654              22.00    -3400.00
04655               6.00    -3600.00
04656               0.00    -3800.00
04657               8.00    -3600.00
04658              14.00    -3400.00
04659              16.00    -3600.00
04660              14.00    -3800.00
04661              10.00    -3800.00
04662               6.00    -3600.00
04663               6.00    -3800.00
04664              10.00    -3800.00
04665              16.00    -3800.00
04666              14.00    -3800.00
04667              12.00    -3800.00
04668              10.00    -3800.00
04669               8.00    -3800.00
04670               6.00    -3800.00
04671              18.00    -3800.00
04672              20.00    -3800.00
04673              10.00    -3800.00
04674              10.00    -3800.00
04675              14.00    -3800.00
04676              10.00    -3800.00
04677              16.00    -3600.00
04678              18.00    -3800.00
04679              16.00    -3800.00
04680              10.00    -3800.00
04681              16.00    -3600.00
04682              18.00    -3800.00
04683              14.00    -3800.00
04684              10.00    -3800.00
04685              18.00    -3600.00
04686              18.00    -3800.00
04687              16.00    -3600.00
04688              14.00    -3800.00
04689              14.00    -3600.00
04690              16.00    -3800.00
04691              16.00    -3600.00
04692              20.00    -3600.00
04693              16.00    -3600.00
04694              14.00    -3600.00
04695              18.00    -3400.00
04696              16.00    -3400.00
04697              12.00    -3400.00
04698              18.00    -3400.00
04699              22.00    -3400.00
04700              18.00    -3400.00
04701              14.00    -3200.00
04702              16.00    -3200.00
04703              16.00    -3200.00
04704              16.00    -3200.00
04705              16.00    -3200.00
04706              18.00    -3000.00
04707              20.00    -3000.00
04708              16.00    -3200.00
04709              10.00    -3000.00
04710              10.00    -3200.00
04711              16.00    -3000.00
04712              18.00    -3000.00
04713              18.00    -3000.00
04714              14.00    -2800.00
04715               6.00    -2600.00
04716              10.00    -2800.00
04717              16.00    -2800.00
04718              18.00    -2600.00
04719              14.00    -2600.00
04720              10.00    -2400.00
04721              10.00    -2600.00
04722              12.00    -2600.00
04723              10.00    -2400.00
04724              10.00    -2400.00
04725              10.00    -2400.00
04726               8.00    -2400.00
04727              10.00    -2200.00
04728              12.00    -2200.00
04729               6.00    -2200.00
04730               6.00    -2200.00
04731               8.00    -2200.00
04732              14.00    -2000.00
04733              10.00    -1800.00
04734               6.00    -1800.00
04735               6.00    -1800.00
04736               6.00    -1600.00
04737               6.00    -1600.00
04738               6.00    -1600.00
04739               8.00    -1400.00
04740               8.00    -1600.00
04741               2.00    -1400.00
04742               2.00    -1400.00
04743               0.00    -1600.00
04744               2.00    -1200.00
04745               6.00    -1200.00
04746               6.00    -1200.00
04747               0.00    -1000.00
04748               0.00    -1200.00
04749              -2.00    -1000.00
04750               0.00    -1000.00
04751               2.00     -800.00
04752               0.00     -800.00
04753               2.00     -800.00
04754               0.00     -600.00
04755              -2.00     -600.00
04756              -2.00     -600.00
04757               2.00     -600.00
04758               2.00     -600.00
04759              -4.00     -400.00
04760              -2.00     -200.00
04761               0.00     -200.00
04762               0.00     -200.00
04763              -6.00     -200.00
04764              -6.00        0.00
04765              -2.00        0.00
04766              -2.00      200.00
04767               0.00      200.00
04768               0.00      200.00
04769               2.00      200.00
04770               2.00      400.00
04771               6.00      400.00
04772               0.00      600.00
04773              -2.00      600.00
04774              -6.00      600.00
04775              -2.00      800.00
04776              40.00      800.00
04777             178.00     1200.00
04778             102.00     1000.00
04779            -254.00      800.00
04780            -254.00      800.00
04781             246.00     1200.00
04782             246.00     1400.00
04783              22.00     1000.00
04784            -254.00      800.00
04785            -240.00     1600.00
04786             246.00     1600.00
04787             246.00     1600.00
04788            -254.00     1200.00
04789            -184.00     1800.00
04790             246.00     2000.00
04791             -10.00     1600.00
04792            -254.00     1600.00
04793             160.00     2000.00
04794             246.00     2200.00
04795            -254.00     1600.00
04796            -174.00     2000.00
04797             246.00     2200.00
04798             -30.00     2200.00
04799            -254.00     2200.00
04800             192.00     2400.00
04801             160.00     2400.00
04802            -254.00     2200.00
04803             -90.00     2600.00
04804             246.00     2400.00
04805              10.00     2400.00
04806            -184.00     2400.00
04807              -2.00     2800.00
04808              56.00     2600.00
04809               0.00     2800.00
04810             -16.00     2600.00
04811             -26.00     2800.00
04812               6.00     3000.00
04813               2.00     3000.00
04814             -64.00     3000.00
04815               6.00     3000.00
04816              54.00     3200.00
04817             -56.00     3000.00
04818             -32.00     3000.00
04819              54.00     3200.00
04820             -56.00     3200.00
04821             -50.00     3400.00
04822              66.00     3400.00
04823               0.00     3400.00
04824             -76.00     3200.00
04825               0.00     3600.00
04826               6.00     3400.00
04827             -22.00     3400.00
04828              -8.00     3600.00
04829             -20.00     3400.00
04830             -14.00     3800.00
04831               6.00     3800.00
04832             -30.00     3800.00
04833             -16.00     3800.00
04834              12.00     3800.00
04835             -36.00     3800.00
04836             -24.00     3800.00
04837              22.00     3800.00
04838             -26.00     3800.00
04839             -40.00     3800.00
04840               6.00     3800.00
04841             -16.00     4000.00
04842             -32.00     3800.00
04843               0.00     4000.00
04844              -6.00     4000.00
04845             -22.00     4000.00
04846             -18.00     4000.00
04847             -24.00     4000.00
04848              -8.00     4000.00
04849              -2.00     4000.00
04850             -24.00     4000.00
04851             -14.00     4000.00
04852              -8.00     4200.00
04853             -30.00     4000.00
04854             -18.00     4000.00
04855              -2.00     4200.00
04856             -24.00     4200.00
04857             -24.00     4200.00
04858              -6.00     4000.00
04859             -18.00     4000.00
04860             -28.00     4200.00
04861             -16.00     4200.00
04862             -16.00     4200.00
04863             -14.00     4200.00
04864             -14.00     4000.00
04865             -22.00     4200.00
04866             -22.00     4200.00
04867             -22.00     4200.00
04868             -24.00     4200.00
04869             -14.00     4200.00
04870             -14.00     4200.00
04871             -26.00     4200.00
04872             -26.00     4000.00
04873             -22.00     4200.00
04874             -26.00     4000.00
04875             -24.00     4000.00
04876             -16.00     4000.00
04877             -24.00     4000.00
04878             -26.00     4000.00
04879             -22.00     4200.00
04880             -28.00     4000.00
04881             -30.00     4000.00
04882             -22.00     4000.00
04883             -18.00     3800.00
04884             -26.00     3800.00
04885             -26.00     4000.00
04886             -26.00     3800.00
04887             -24.00     3800.00
04888             -26.00     3800.00
04889             -26.00     3800.00
04890             -16.00     3800.00
04891             -24.00     3800.00
04892             -32.00     3800.00
04893             -26.00     3800.00
04894             -24.00     3800.00
04895             -24.00     3600.00
04896             -26.00     3800.00
04897             -20.00     3400.00
04898             -24.00     3600.00
04899             -26.00     3400.00
04900             -24.00     3400.00
04901             -22.00     3400.00
04902             -22.00     3400.00
04903             -18.00     3400.00
04904             -20.00     3200.00
04905             -22.00     3400.00
04906             -26.00     3200.00
04907             -22.00     3200.00
04908             -16.00     3200.00
04909             -18.00     3200.00
04910             -20.00     3000.00
04911             -16.00     3200.00
04912             -16.00     3000.00
04913             -20.00     3000.00
04914             -18.00     3000.00
04915             -16.00     3000.00
04916             -16.00     3000.00
04917             -18.00     2600.00
04918             -16.00     2600.00
04919             -14.00     2800.00
04920             -16.00     2400.00
04921             -14.00     2600.00
04922             -12.00     2400.00
04923             -10.00     2400.00
04924             -16.00     2400.00
04925             -12.00     2200.00
04926             -14.00     2200.00
04927             -14.00     2200.00
04928             -16.00     2200.00
04929             -10.00     2200.00
04930              -8.00     1800.00
04931             -10.00     2200.00
04932             -12.00     1800.00
04933             -10.00     1800.00
04934             -14.00     1800.00
04935             -10.00     1600.00
04936              -6.00     1600.00
04937              -6.00     1600.00
04938             -12.00     1600.00
04939             -14.00     1400.00
04940              -8.00     1400.00
04941              -6.00     1400.00
04942             -10.00     1400.00
04943              -8.00     1200.00
04944              -6.00     1200.00
04945              -4.00     1000.00
04946             -12.00     1000.00
04947             -12.00      800.00
04948              -6.00      800.00
04949              -2.00      600.00
04950             -10.00      800.00
04951              -8.00      600.00
04952              -6.00      600.00
04953              -2.00      600.00
04954             -10.00      600.00
04955              -8.00      400.00
04956              -6.00      600.00
04957              -2.00      200.00
04958              -2.00      200.00
04959              -2.00      200.00
04960              -2.00        0.00
04961               2.00        0.00
04962               8.00        0.00
04963               4.00        0.00
04964              -8.00     -200.00
04965             -10.00     -200.00
04966              -2.00     -200.00
04967              10.00     -200.00
04968              66.00     -200.00
04969             166.00     -400.00
04970              18.00    -1000.00
04971            -254.00     -800.00
04972            -254.00     -600.00
04973             246.00     -600.00
04974             246.00     -800.00
04975            -114.00    -1200.00
04976            -254.00     -800.00
04977            -130.00    -1000.00
04978             246.00     -800.00
04979             238.00    -1000.00
04980            -254.00    -1000.00
04981            -210.00    -1200.00
04982             246.00    -1400.00
04983             112.00    -1200.00
04984            -250.00    -1600.00
04985              -8.00    -1600.00
04986              62.00    -1400.00
04987             -20.00    -1600.00
04988              74.00    -1600.00
04989              70.00    -1800.00
04990            -230.00    -1600.00
04991             -14.00    -1600.00
04992             246.00    -2000.00
04993              10.00    -1800.00
04994            -254.00    -2000.00
04995              14.00    -2200.00
04996             232.00    -2200.00
04997               6.00    -2200.00
04998            -134.00    -2200.00
04999             -20.00    -2200.00
05000              56.00    -2400.00
