Unit:(mV)
                     CH1         CH2
Frequency              ? 261.451 kHz
00001             246.00     -800.00
00002             246.00    -1000.00
00003            -254.00    -1000.00
00004            -254.00     -800.00
00005             246.00    -1000.00
00006             246.00    -1000.00
00007            -254.00    -1200.00
00008            -254.00    -1200.00
00009             246.00    -1400.00
00010             246.00    -1400.00
00011            -160.00    -1400.00
00012            -126.00    -1600.00
00013              80.00    -1400.00
00014             -24.00    -1400.00
00015              38.00    -1600.00
00016             106.00    -1800.00
00017            -138.00    -1600.00
00018            -138.00    -1600.00
00019             208.00    -2000.00
00020             150.00    -2000.00
00021            -240.00    -2200.00
00022            -114.00    -1800.00
00023             190.00    -2400.00
00024             106.00    -2200.00
00025            -122.00    -2200.00
00026             -64.00    -2400.00
00027              30.00    -2200.00
00028              48.00    -2400.00
00029              22.00    -2400.00
00030             -22.00    -2400.00
00031             -28.00    -2600.00
00032               8.00    -2600.00
00033              24.00    -2600.00
00034             -10.00    -2600.00
00035              -8.00    -2800.00
00036               8.00    -2800.00
00037              22.00    -2600.00
00038              -8.00    -3000.00
00039             -30.00    -2800.00
00040              -6.00    -3000.00
00041              42.00    -3000.00
00042              18.00    -3000.00
00043             -32.00    -3000.00
00044             -20.00    -3000.00
00045              22.00    -3000.00
00046              20.00    -3200.00
00047              -6.00    -3200.00
00048             -10.00    -3200.00
00049               6.00    -3400.00
00050              16.00    -3200.00
00051               8.00    -3200.00
00052              -6.00    -3400.00
00053              -6.00    -3400.00
00054               8.00    -3400.00
00055              14.00    -3400.00
00056               6.00    -3400.00
00057               0.00    -3400.00
00058              -2.00    -3400.00
00059               6.00    -3600.00
00060              12.00    -3400.00
00061               0.00    -3400.00
00062              -2.00    -3400.00
00063              10.00    -3800.00
00064              10.00    -3400.00
00065               0.00    -3800.00
00066              -2.00    -3600.00
00067               6.00    -3600.00
00068               8.00    -3800.00
00069               6.00    -3800.00
00070               8.00    -3800.00
00071               2.00    -3800.00
00072               0.00    -3800.00
00073               6.00    -3800.00
00074               6.00    -3800.00
00075               8.00    -3800.00
00076               8.00    -3800.00
00077               6.00    -4000.00
00078               6.00    -3800.00
00079              -2.00    -4000.00
00080              -2.00    -3800.00
00081              10.00    -3800.00
00082               8.00    -4000.00
00083               2.00    -3800.00
00084               0.00    -3800.00
00085               2.00    -3800.00
00086              -2.00    -3800.00
00087               6.00    -4000.00
00088               8.00    -3800.00
00089               6.00    -4000.00
00090               0.00    -3800.00
00091               0.00    -3800.00
00092               2.00    -3800.00
00093               4.00    -3800.00
00094               6.00    -3800.00
00095               6.00    -3800.00
00096               6.00    -3600.00
00097               2.00    -3800.00
00098               2.00    -3600.00
00099               2.00    -3800.00
00100              -2.00    -3400.00
00101               2.00    -3800.00
00102               8.00    -3400.00
00103               6.00    -3400.00
00104               0.00    -3800.00
00105               0.00    -3400.00
00106               6.00    -3400.00
00107               2.00    -3400.00
00108               6.00    -3400.00
00109               6.00    -3400.00
00110               6.00    -3200.00
00111               2.00    -3400.00
00112               2.00    -3200.00
00113               0.00    -3400.00
00114               2.00    -3400.00
00115               4.00    -3200.00
00116               6.00    -3200.00
00117               2.00    -3200.00
00118               2.00    -3200.00
00119               0.00    -3000.00
00120               2.00    -3000.00
00121               2.00    -3000.00
00122               6.00    -3000.00
00123               6.00    -3000.00
00124               2.00    -3000.00
00125              -2.00    -2800.00
00126              -2.00    -2600.00
00127               6.00    -2600.00
00128               6.00    -2600.00
00129               2.00    -2600.00
00130               2.00    -2600.00
00131               2.00    -2400.00
00132               2.00    -2600.00
00133               2.00    -2400.00
00134               0.00    -2400.00
00135               4.00    -2200.00
00136               2.00    -2200.00
00137               4.00    -2200.00
00138               2.00    -2200.00
00139               0.00    -2200.00
00140               0.00    -2200.00
00141               2.00    -2200.00
00142               2.00    -2200.00
00143               2.00    -1800.00
00144               0.00    -1800.00
00145               0.00    -1600.00
00146              -2.00    -1800.00
00147               0.00    -1600.00
00148               2.00    -1600.00
00149               2.00    -1600.00
00150              -2.00    -1400.00
00151              -4.00    -1600.00
00152              -2.00    -1400.00
00153               0.00    -1400.00
00154              -2.00    -1400.00
00155               0.00    -1200.00
00156               0.00    -1200.00
00157              -2.00    -1000.00
00158              -2.00    -1000.00
00159               0.00    -1000.00
00160              -2.00    -1000.00
00161              -2.00    -1000.00
00162              -2.00     -800.00
00163               0.00     -800.00
00164               2.00     -800.00
00165              -6.00     -600.00
00166              -8.00     -600.00
00167              -6.00     -600.00
00168               0.00     -200.00
00169               2.00     -400.00
00170              -2.00     -200.00
00171              -6.00     -200.00
00172              -6.00     -200.00
00173              -4.00     -200.00
00174              -2.00        0.00
00175              -2.00        0.00
00176              -2.00      200.00
00177               0.00        0.00
00178               0.00      200.00
00179               0.00      200.00
00180               2.00      200.00
00181               6.00      400.00
00182               0.00      400.00
00183              -8.00      600.00
00184              -8.00      600.00
00185               0.00      600.00
00186              56.00      800.00
00187             180.00     1200.00
00188              38.00     1000.00
00189            -254.00      800.00
00190            -254.00      800.00
00191             246.00     1200.00
00192             246.00     1400.00
00193            -202.00     1000.00
00194            -254.00     1000.00
00195             -38.00     1400.00
00196             246.00     1600.00
00197             104.00     1400.00
00198            -254.00     1200.00
00199             -32.00     1800.00
00200             246.00     1800.00
00201            -138.00     1400.00
00202            -254.00     1600.00
00203             240.00     2200.00
00204             246.00     1800.00
00205            -254.00     1600.00
00206             -84.00     2000.00
00207             246.00     2200.00
00208            -100.00     2000.00
00209            -214.00     2000.00
00210             224.00     2400.00
00211              90.00     2200.00
00212            -254.00     2200.00
00213             -24.00     2400.00
00214             244.00     2400.00
00215             -40.00     2400.00
00216            -168.00     2600.00
00217              22.00     2600.00
00218              50.00     2600.00
00219              -8.00     2600.00
00220             -22.00     2800.00
00221             -18.00     2800.00
00222              14.00     3000.00
00223             -10.00     3000.00
00224             -58.00     3000.00
00225              24.00     3000.00
00226              30.00     3000.00
00227             -62.00     3200.00
00228              -4.00     3200.00
00229              40.00     3200.00
00230             -74.00     3200.00
00231             -26.00     3200.00
00232              70.00     3400.00
00233             -20.00     3400.00
00234             -66.00     3400.00
00235              16.00     3400.00
00236               0.00     3400.00
00237             -20.00     3400.00
00238               6.00     3600.00
00239             -18.00     3600.00
00240             -10.00     3800.00
00241               8.00     3800.00
00242             -26.00     3800.00
00243             -10.00     3600.00
00244              10.00     3800.00
00245             -34.00     3800.00
00246             -14.00     3800.00
00247              18.00     3800.00
00248             -26.00     3800.00
00249             -24.00     3800.00
00250              14.00     4000.00
00251             -18.00     4000.00
00252             -22.00     3800.00
00253               6.00     4000.00
00254              -4.00     3800.00
00255             -16.00     4000.00
00256             -14.00     4000.00
00257             -18.00     4200.00
00258              -6.00     4000.00
00259              -2.00     4000.00
00260             -16.00     4000.00
00261              -2.00     4000.00
00262              -8.00     4200.00
00263             -26.00     4000.00
00264             -10.00     4200.00
00265               6.00     4200.00
00266             -18.00     4200.00
00267             -14.00     4000.00
00268               0.00     4200.00
00269             -16.00     4200.00
00270             -16.00     4000.00
00271              -8.00     4200.00
00272             -10.00     4200.00
00273              -8.00     4200.00
00274              -6.00     4200.00
00275             -14.00     4200.00
00276             -10.00     4200.00
00277             -14.00     4200.00
00278             -16.00     4000.00
00279              -2.00     4000.00
00280              -6.00     4200.00
00281             -16.00     4000.00
00282             -10.00     4200.00
00283             -10.00     4000.00
00284             -16.00     4000.00
00285              -8.00     4000.00
00286              -2.00     4200.00
00287             -16.00     4000.00
00288             -16.00     4000.00
00289              -6.00     3800.00
00290             -14.00     4000.00
00291             -16.00     4000.00
00292             -10.00     4000.00
00293              -8.00     4000.00
00294              -8.00     4000.00
00295             -10.00     3800.00
00296             -16.00     3800.00
00297             -10.00     3800.00
00298             -10.00     3800.00
00299             -10.00     3800.00
00300              -4.00     3800.00
00301             -10.00     3800.00
00302             -16.00     3800.00
00303             -10.00     3800.00
00304              -8.00     3400.00
00305             -16.00     3800.00
00306              -8.00     3600.00
00307              -4.00     3400.00
00308              -8.00     3600.00
00309             -12.00     3400.00
00310             -10.00     3400.00
00311             -10.00     3400.00
00312             -10.00     3200.00
00313              -8.00     3200.00
00314              -6.00     3200.00
00315             -10.00     3200.00
00316             -14.00     3200.00
00317             -10.00     3200.00
00318              -4.00     3200.00
00319              -4.00     3000.00
00320             -10.00     3000.00
00321              -8.00     3000.00
00322              -8.00     3000.00
00323             -10.00     3000.00
00324              -8.00     2800.00
00325              -6.00     3000.00
00326              -8.00     2600.00
00327              -8.00     2600.00
00328              -6.00     2600.00
00329              -6.00     2600.00
00330              -8.00     2400.00
00331             -10.00     2600.00
00332              -4.00     2400.00
00333              -6.00     2400.00
00334              -8.00     2200.00
00335              -8.00     2200.00
00336              -6.00     2200.00
00337             -10.00     2200.00
00338              -8.00     2200.00
00339              -2.00     2200.00
00340              -2.00     2000.00
00341              -8.00     1800.00
00342              -8.00     1800.00
00343              -6.00     1800.00
00344              -8.00     1600.00
00345             -10.00     1600.00
00346              -6.00     1600.00
00347               0.00     1400.00
00348              -6.00     1400.00
00349             -10.00     1400.00
00350              -8.00     1400.00
00351              -6.00     1200.00
00352              -8.00     1200.00
00353              -2.00     1200.00
00354              -4.00     1000.00
00355              -8.00     1200.00
00356             -10.00     1000.00
00357              -8.00      800.00
00358              -6.00      800.00
00359              -2.00      800.00
00360              -6.00      800.00
00361              -4.00      600.00
00362               0.00      600.00
00363              -6.00      600.00
00364              -8.00      600.00
00365              -6.00      200.00
00366              -2.00      400.00
00367              -2.00      200.00
00368              -2.00      200.00
00369              -2.00        0.00
00370              -2.00        0.00
00371               2.00        0.00
00372               6.00        0.00
00373               2.00     -200.00
00374              -8.00     -200.00
00375              -8.00     -200.00
00376               0.00     -200.00
00377              16.00     -200.00
00378              80.00     -600.00
00379             158.00     -600.00
00380             -40.00    -1000.00
00381            -254.00     -600.00
00382            -254.00     -600.00
00383             246.00     -600.00
00384             246.00     -800.00
00385            -254.00    -1200.00
00386            -254.00     -800.00
00387              64.00    -1000.00
00388             246.00    -1000.00
00389              52.00    -1200.00
00390            -254.00    -1200.00
00391             -72.00    -1200.00
00392             246.00    -1400.00
00393              32.00    -1200.00
00394            -224.00    -1600.00
00395              26.00    -1600.00
00396              24.00    -1400.00
00397              -8.00    -1400.00
00398              94.00    -1800.00
00399              16.00    -1800.00
00400            -218.00    -1800.00
00401              54.00    -1800.00
00402             246.00    -2000.00
00403             -70.00    -1800.00
00404            -250.00    -2000.00
00405              70.00    -2200.00
00406             202.00    -2200.00
00407             -34.00    -2200.00
00408            -114.00    -2400.00
00409             -14.00    -2200.00
00410              54.00    -2400.00
00411              34.00    -2400.00
00412              10.00    -2400.00
00413             -40.00    -2600.00
00414             -10.00    -2600.00
00415              22.00    -2600.00
00416              14.00    -2600.00
00417             -14.00    -2600.00
00418              -2.00    -2600.00
00419              22.00    -2800.00
00420              12.00    -3000.00
00421             -16.00    -3000.00
00422             -26.00    -3000.00
00423              24.00    -3000.00
00424              38.00    -3200.00
00425              -8.00    -3000.00
00426             -34.00    -3000.00
00427               6.00    -3200.00
00428              28.00    -3000.00
00429               6.00    -3200.00
00430             -14.00    -3400.00
00431              -6.00    -3200.00
00432              14.00    -3200.00
00433              12.00    -3200.00
00434               0.00    -3400.00
00435              -8.00    -3400.00
00436               0.00    -3400.00
00437              14.00    -3400.00
00438              10.00    -3400.00
00439               0.00    -3400.00
00440              -2.00    -3400.00
00441               2.00    -3400.00
00442               8.00    -3600.00
00443               6.00    -3800.00
00444              -6.00    -3400.00
00445               6.00    -3800.00
00446              16.00    -3600.00
00447               2.00    -3800.00
00448              -6.00    -3600.00
00449               4.00    -3800.00
00450               8.00    -3800.00
00451              10.00    -3800.00
00452              10.00    -3600.00
00453               2.00    -3800.00
00454               0.00    -3600.00
00455               4.00    -3800.00
00456               8.00    -3800.00
00457               8.00    -4000.00
00458               6.00    -3800.00
00459               4.00    -3800.00
00460               6.00    -3800.00
00461               6.00    -3800.00
00462              -2.00    -3800.00
00463               2.00    -4000.00
00464              14.00    -3800.00
00465               8.00    -3800.00
00466               6.00    -3800.00
00467               2.00    -3800.00
00468               2.00    -3800.00
00469               2.00    -3800.00
00470               8.00    -4000.00
00471               8.00    -3800.00
00472               4.00    -3800.00
00473               2.00    -3800.00
00474               0.00    -3800.00
00475               0.00    -3600.00
00476               4.00    -3800.00
00477               6.00    -3600.00
00478               6.00    -3800.00
00479               0.00    -3800.00
00480               0.00    -3600.00
00481               4.00    -3800.00
00482               2.00    -3400.00
00483               0.00    -3800.00
00484               6.00    -3600.00
00485               8.00    -3600.00
00486               4.00    -3600.00
00487               0.00    -3400.00
00488               0.00    -3400.00
00489               2.00    -3400.00
00490               4.00    -3400.00
00491               6.00    -3400.00
00492               6.00    -3400.00
00493               2.00    -3400.00
00494               2.00    -3400.00
00495               2.00    -3400.00
00496               2.00    -3200.00
00497               0.00    -3200.00
00498               2.00    -3200.00
00499               6.00    -3200.00
00500               6.00    -3000.00
00501               2.00    -3000.00
00502               0.00    -3000.00
00503               0.00    -3000.00
00504               4.00    -2800.00
00505               6.00    -3000.00
00506               6.00    -3000.00
00507              -2.00    -2800.00
00508              -2.00    -2600.00
00509               2.00    -2800.00
00510               8.00    -2600.00
00511               6.00    -2600.00
00512               2.00    -2600.00
00513               0.00    -2600.00
00514               0.00    -2400.00
00515               0.00    -2600.00
00516               2.00    -2400.00
00517               2.00    -2400.00
00518               2.00    -2200.00
00519               6.00    -2400.00
00520               2.00    -2200.00
00521               2.00    -2200.00
00522              -2.00    -2200.00
00523               0.00    -2200.00
00524               2.00    -2200.00
00525               6.00    -1800.00
00526               2.00    -1800.00
00527               0.00    -1800.00
00528               0.00    -1800.00
00529              -2.00    -1800.00
00530               2.00    -1600.00
00531               2.00    -1600.00
00532               0.00    -1600.00
00533              -2.00    -1400.00
00534               0.00    -1400.00
00535               0.00    -1400.00
00536               0.00    -1400.00
00537              -2.00    -1200.00
00538               0.00    -1200.00
00539               0.00    -1000.00
00540              -2.00    -1000.00
00541              -2.00    -1000.00
00542              -2.00    -1000.00
00543               0.00    -1000.00
00544               0.00     -800.00
00545              -6.00     -800.00
00546               0.00     -800.00
00547               0.00     -600.00
00548              -6.00     -600.00
00549              -2.00     -600.00
00550              -2.00     -400.00
00551              -2.00     -400.00
00552               0.00     -400.00
00553              -2.00     -200.00
00554              -6.00     -200.00
00555              -6.00     -200.00
00556              -6.00        0.00
00557              -2.00     -200.00
00558              -6.00      200.00
00559              -2.00        0.00
00560               0.00      200.00
00561               0.00      200.00
00562               0.00      200.00
00563               2.00      400.00
00564               0.00      400.00
00565              -6.00      600.00
00566             -10.00      600.00
00567              -2.00      600.00
00568              16.00      600.00
00569             120.00      800.00
00570             164.00     1200.00
00571            -224.00     1000.00
00572            -254.00      600.00
00573              42.00     1000.00
00574             246.00     1400.00
00575             246.00     1400.00
00576            -254.00      600.00
00577            -254.00     1400.00
00578             246.00     1600.00
00579             246.00     1600.00
00580            -254.00     1000.00
00581            -254.00     1400.00
00582             246.00     1800.00
00583             246.00     1600.00
00584            -254.00     1400.00
00585             -96.00     1800.00
00586             246.00     2200.00
00587             -80.00     1600.00
00588            -254.00     1800.00
00589             184.00     2200.00
00590             144.00     2200.00
00591            -254.00     2000.00
00592              18.00     2200.00
00593             246.00     2400.00
00594            -158.00     2200.00
00595            -226.00     2200.00
00596             194.00     2600.00
00597             130.00     2400.00
00598            -162.00     2400.00
00599             -78.00     2600.00
00600              70.00     2600.00
00601              18.00     2600.00
00602             -18.00     2600.00
00603             -26.00     2800.00
00604              -2.00     2800.00
00605              10.00     3000.00
00606             -42.00     3000.00
00607             -26.00     2800.00
00608              48.00     3000.00
00609             -26.00     3000.00
00610             -50.00     3000.00
00611              46.00     3200.00
00612             -16.00     3200.00
00613             -80.00     3200.00
00614              40.00     3400.00
00615              40.00     3200.00
00616             -66.00     3400.00
00617             -22.00     3400.00
00618              20.00     3400.00
00619             -22.00     3400.00
00620             -10.00     3600.00
00621              -6.00     3400.00
00622             -22.00     3400.00
00623               6.00     3400.00
00624             -14.00     3800.00
00625             -30.00     3800.00
00626               8.00     3600.00
00627             -10.00     3600.00
00628             -34.00     3800.00
00629              16.00     3800.00
00630               0.00     3800.00
00631             -40.00     3800.00
00632               2.00     4000.00
00633               4.00     4000.00
00634             -32.00     3800.00
00635              -8.00     4000.00
00636               2.00     4000.00
00637             -14.00     4000.00
00638             -12.00     4000.00
00639             -16.00     4000.00
00640             -10.00     4000.00
00641               2.00     4000.00
00642             -14.00     4200.00
00643             -14.00     4000.00
00644               2.00     4200.00
00645             -14.00     4000.00
00646             -22.00     4000.00
00647               2.00     4200.00
00648              -8.00     4000.00
00649             -18.00     4200.00
00650               0.00     4000.00
00651              -6.00     4000.00
00652             -22.00     4200.00
00653             -10.00     4200.00
00654              -8.00     4000.00
00655              -8.00     4200.00
00656              -6.00     4200.00
00657             -10.00     4000.00
00658             -12.00     4000.00
00659             -10.00     4200.00
00660             -14.00     4200.00
00661             -10.00     4000.00
00662               0.00     4000.00
00663             -10.00     4200.00
00664             -14.00     4000.00
00665              -8.00     4200.00
00666             -14.00     4000.00
00667             -14.00     4000.00
00668              -2.00     4000.00
00669              -8.00     3800.00
00670             -14.00     4000.00
00671             -10.00     4000.00
00672             -12.00     4000.00
00673             -16.00     4000.00
00674              -8.00     4000.00
00675              -6.00     4000.00
00676              -6.00     3800.00
00677             -14.00     3800.00
00678             -16.00     3800.00
00679             -10.00     4000.00
00680              -8.00     3800.00
00681             -10.00     3800.00
00682              -8.00     3800.00
00683             -10.00     3800.00
00684             -16.00     3800.00
00685             -14.00     3800.00
00686              -6.00     3800.00
00687             -10.00     3600.00
00688             -16.00     3400.00
00689              -8.00     3600.00
00690              -6.00     3400.00
00691             -10.00     3400.00
00692             -14.00     3400.00
00693             -10.00     3400.00
00694             -10.00     3400.00
00695              -8.00     3200.00
00696              -8.00     3400.00
00697              -6.00     3200.00
00698             -10.00     3200.00
00699             -14.00     3200.00
00700              -8.00     3200.00
00701              -6.00     3000.00
00702              -8.00     3000.00
00703              -8.00     3000.00
00704             -10.00     3000.00
00705             -10.00     3000.00
00706              -8.00     2800.00
00707              -6.00     3000.00
00708              -8.00     2600.00
00709              -8.00     2600.00
00710             -10.00     2800.00
00711              -8.00     2600.00
00712             -10.00     2600.00
00713              -8.00     2400.00
00714              -8.00     2400.00
00715              -6.00     2400.00
00716              -8.00     2400.00
00717             -10.00     2400.00
00718              -6.00     2200.00
00719              -8.00     2200.00
00720             -10.00     2200.00
00721              -8.00     2000.00
00722               0.00     2200.00
00723              -6.00     2000.00
00724              -8.00     1800.00
00725              -8.00     1800.00
00726              -8.00     1800.00
00727              -6.00     1800.00
00728              -6.00     1600.00
00729              -2.00     1600.00
00730              -6.00     1600.00
00731             -10.00     1400.00
00732             -10.00     1400.00
00733              -6.00     1400.00
00734              -6.00     1400.00
00735              -4.00     1000.00
00736              -2.00     1000.00
00737              -4.00     1200.00
00738              -8.00     1200.00
00739              -8.00     1000.00
00740              -6.00     1000.00
00741              -2.00      800.00
00742              -6.00      600.00
00743              -2.00      800.00
00744              -2.00      600.00
00745              -2.00      600.00
00746              -8.00      400.00
00747              -6.00      200.00
00748              -2.00      200.00
00749              -2.00      200.00
00750              -6.00      200.00
00751              -2.00        0.00
00752               0.00        0.00
00753               0.00        0.00
00754               2.00        0.00
00755               2.00        0.00
00756              -2.00     -200.00
00757              -8.00     -200.00
00758              -2.00     -200.00
00759               8.00     -200.00
00760              36.00     -200.00
00761             134.00     -400.00
00762             106.00     -800.00
00763            -254.00     -800.00
00764            -254.00     -600.00
00765             136.00     -600.00
00766             246.00     -800.00
00767             246.00    -1000.00
00768            -254.00    -1000.00
00769            -254.00     -800.00
00770             246.00    -1000.00
00771             246.00    -1000.00
00772            -254.00    -1200.00
00773            -254.00    -1200.00
00774             246.00    -1400.00
00775             246.00    -1400.00
00776            -170.00    -1400.00
00777            -114.00    -1600.00
00778              78.00    -1400.00
00779             -24.00    -1600.00
00780              42.00    -1800.00
00781             108.00    -1800.00
00782            -150.00    -1800.00
00783            -126.00    -1800.00
00784             214.00    -2000.00
00785             140.00    -2000.00
00786            -244.00    -1800.00
00787             -98.00    -2200.00
00788             192.00    -2200.00
00789              96.00    -2200.00
00790            -122.00    -2400.00
00791             -56.00    -2200.00
00792              32.00    -2400.00
00793              50.00    -2400.00
00794              22.00    -2600.00
00795             -24.00    -2400.00
00796             -28.00    -2600.00
00797              12.00    -2600.00
00798              26.00    -2600.00
00799             -14.00    -2600.00
00800             -10.00    -2600.00
00801               8.00    -2600.00
00802              24.00    -2600.00
00803              -2.00    -3000.00
00804             -32.00    -2800.00
00805              -6.00    -3000.00
00806              42.00    -3000.00
00807              22.00    -3000.00
00808             -32.00    -3000.00
00809             -16.00    -3000.00
00810              22.00    -3200.00
00811              20.00    -3200.00
00812              -6.00    -3200.00
00813             -10.00    -3200.00
00814               4.00    -3200.00
00815              16.00    -3200.00
00816               6.00    -3400.00
00817              -8.00    -3400.00
00818              -6.00    -3600.00
00819              10.00    -3400.00
00820              14.00    -3400.00
00821               6.00    -3400.00
00822              -2.00    -3400.00
00823              -2.00    -3400.00
00824               6.00    -3600.00
00825              10.00    -3600.00
00826               0.00    -3400.00
00827               0.00    -3600.00
00828              14.00    -3800.00
00829              10.00    -3800.00
00830              -2.00    -3800.00
00831               0.00    -3600.00
00832               8.00    -3800.00
00833               8.00    -3800.00
00834               8.00    -3800.00
00835               6.00    -3800.00
00836               0.00    -3800.00
00837               0.00    -3800.00
00838               6.00    -4000.00
00839               8.00    -3800.00
00840               8.00    -3800.00
00841               6.00    -3800.00
00842               6.00    -3800.00
00843               6.00    -3800.00
00844               0.00    -4000.00
00845               0.00    -3800.00
00846              10.00    -4000.00
00847              14.00    -4000.00
00848               2.00    -3800.00
00849               4.00    -3800.00
00850               6.00    -4000.00
00851               2.00    -3800.00
00852               6.00    -3800.00
00853               8.00    -3800.00
00854               6.00    -3800.00
00855               6.00    -3800.00
00856               6.00    -3800.00
00857               0.00    -3800.00
00858               0.00    -3800.00
00859               6.00    -3800.00
00860              10.00    -3800.00
00861               8.00    -3800.00
00862               0.00    -3800.00
00863              -2.00    -3800.00
00864               4.00    -3800.00
00865               6.00    -3600.00
00866               6.00    -3800.00
00867               8.00    -3400.00
00868               2.00    -3400.00
00869               0.00    -3600.00
00870               2.00    -3400.00
00871               6.00    -3600.00
00872               2.00    -3400.00
00873               2.00    -3400.00
00874               6.00    -3400.00
00875               6.00    -3400.00
00876               2.00    -3400.00
00877               2.00    -3400.00
00878               0.00    -3200.00
00879               2.00    -3200.00
00880               2.00    -3200.00
00881               6.00    -3200.00
00882               2.00    -3200.00
00883               0.00    -3000.00
00884               0.00    -3200.00
00885               0.00    -3000.00
00886               2.00    -3000.00
00887               6.00    -3000.00
00888               6.00    -3000.00
00889               2.00    -3000.00
00890              -2.00    -2800.00
00891               0.00    -3000.00
00892               2.00    -2600.00
00893               6.00    -2600.00
00894               6.00    -2600.00
00895               0.00    -2600.00
00896               2.00    -2600.00
00897               2.00    -2600.00
00898               2.00    -2400.00
00899               0.00    -2600.00
00900               2.00    -2400.00
00901               0.00    -2400.00
00902               6.00    -2200.00
00903               2.00    -2200.00
00904               0.00    -2200.00
00905               0.00    -2200.00
00906               2.00    -2200.00
00907               2.00    -1800.00
00908               2.00    -1800.00
00909               0.00    -2000.00
00910               0.00    -1800.00
00911               0.00    -1600.00
00912               0.00    -1800.00
00913               2.00    -1600.00
00914               6.00    -1600.00
00915               0.00    -1600.00
00916              -2.00    -1400.00
00917              -2.00    -1400.00
00918               0.00    -1400.00
00919               2.00    -1400.00
00920               0.00    -1200.00
00921               2.00    -1000.00
00922               0.00    -1000.00
00923               0.00    -1000.00
00924              -2.00    -1000.00
00925              -2.00     -800.00
00926               0.00     -800.00
00927               0.00     -600.00
00928               2.00     -800.00
00929              -2.00     -600.00
00930              -6.00     -600.00
00931              -6.00     -600.00
00932              -2.00     -600.00
00933               0.00     -200.00
00934              -2.00     -600.00
00935              -2.00     -200.00
00936              -2.00     -200.00
00937              -6.00     -200.00
00938              -6.00        0.00
00939              -2.00     -200.00
00940              -2.00        0.00
00941              -6.00        0.00
00942              -2.00      200.00
00943               0.00      200.00
00944               0.00      200.00
00945               2.00      400.00
00946               6.00      200.00
00947              -2.00      400.00
00948              -8.00      600.00
00949             -10.00      600.00
00950               2.00      600.00
00951              58.00      800.00
00952             178.00     1000.00
00953              24.00     1200.00
00954            -254.00      800.00
00955            -254.00      800.00
00956             246.00     1200.00
00957             246.00     1400.00
00958            -250.00     1000.00
00959            -254.00     1000.00
00960               2.00     1600.00
00961             246.00     1800.00
00962              60.00     1400.00
00963            -254.00     1000.00
00964               0.00     1800.00
00965             246.00     1600.00
00966            -168.00     1600.00
00967            -254.00     1600.00
00968             246.00     2200.00
00969             238.00     2000.00
00970            -254.00     1600.00
00971             -66.00     2200.00
00972             246.00     2200.00
00973            -112.00     2200.00
00974            -202.00     2000.00
00975             234.00     2600.00
00976              76.00     2200.00
00977            -254.00     2400.00
00978              -6.00     2400.00
00979             242.00     2600.00
00980             -48.00     2400.00
00981            -162.00     2600.00
00982              26.00     2600.00
00983              50.00     2600.00
00984              -8.00     2800.00
00985             -18.00     3000.00
00986             -16.00     2800.00
00987              14.00     3000.00
00988             -14.00     3000.00
00989             -52.00     3000.00
00990              30.00     3000.00
00991              26.00     3200.00
00992             -62.00     3000.00
00993               2.00     3200.00
00994              38.00     3400.00
00995             -74.00     3200.00
00996             -20.00     3200.00
00997              70.00     3400.00
00998             -26.00     3200.00
00999             -64.00     3400.00
01000              16.00     3400.00
01001               0.00     3400.00
01002             -16.00     3400.00
01003               0.00     3600.00
01004             -22.00     3400.00
01005              -6.00     3400.00
01006               6.00     3600.00
01007             -30.00     3600.00
01008              -8.00     3800.00
01009              12.00     3800.00
01010             -36.00     3600.00
01011             -10.00     3800.00
01012              18.00     3800.00
01013             -28.00     3800.00
01014             -24.00     3800.00
01015              14.00     3800.00
01016             -22.00     4000.00
01017             -24.00     3800.00
01018               8.00     4000.00
01019              -6.00     4000.00
01020             -18.00     4000.00
01021             -14.00     4000.00
01022             -16.00     4200.00
01023               0.00     4000.00
01024              -6.00     4000.00
01025             -22.00     4200.00
01026              -4.00     4000.00
01027              -6.00     4200.00
01028             -26.00     4200.00
01029             -10.00     4000.00
01030               2.00     4000.00
01031             -16.00     4200.00
01032             -10.00     4200.00
01033               0.00     4200.00
01034             -16.00     4000.00
01035             -16.00     4200.00
01036              -6.00     4200.00
01037              -6.00     4200.00
01038              -8.00     4000.00
01039              -8.00     4200.00
01040             -14.00     4000.00
01041             -10.00     4200.00
01042             -10.00     4200.00
01043             -14.00     4000.00
01044              -2.00     4200.00
01045              -8.00     4000.00
01046             -16.00     4000.00
01047              -8.00     4000.00
01048             -10.00     4000.00
01049             -18.00     4000.00
01050              -8.00     4200.00
01051              -2.00     4000.00
01052             -12.00     4000.00
01053             -14.00     4000.00
01054             -10.00     3800.00
01055             -10.00     4000.00
01056             -10.00     4000.00
01057              -8.00     4000.00
01058              -8.00     4000.00
01059              -8.00     4000.00
01060             -14.00     4000.00
01061             -14.00     3800.00
01062             -10.00     3800.00
01063             -14.00     3800.00
01064             -10.00     3800.00
01065              -6.00     3800.00
01066             -10.00     3800.00
01067             -16.00     3800.00
01068              -8.00     3800.00
01069             -10.00     3600.00
01070             -14.00     3400.00
01071             -10.00     3600.00
01072              -6.00     3400.00
01073             -10.00     3600.00
01074             -16.00     3400.00
01075             -10.00     3400.00
01076             -10.00     3400.00
01077              -8.00     3400.00
01078             -10.00     3200.00
01079              -8.00     3200.00
01080              -8.00     3200.00
01081             -14.00     3200.00
01082             -10.00     3000.00
01083              -8.00     3000.00
01084              -6.00     3000.00
01085             -10.00     3000.00
01086              -8.00     3000.00
01087             -10.00     3000.00
01088             -10.00     3000.00
01089              -8.00     3000.00
01090              -4.00     3000.00
01091             -10.00     2600.00
01092             -10.00     2600.00
01093              -8.00     2400.00
01094              -6.00     2600.00
01095             -10.00     2600.00
01096             -10.00     2400.00
01097              -2.00     2400.00
01098              -4.00     2400.00
01099             -10.00     2200.00
01100              -8.00     2400.00
01101              -6.00     2200.00
01102              -8.00     2200.00
01103              -8.00     2200.00
01104              -6.00     2000.00
01105              -2.00     1800.00
01106              -6.00     2000.00
01107              -8.00     1800.00
01108              -6.00     1800.00
01109              -8.00     1600.00
01110              -8.00     1600.00
01111              -2.00     1600.00
01112              -2.00     1600.00
01113              -2.00     1400.00
01114             -10.00     1400.00
01115              -6.00     1400.00
01116              -2.00     1400.00
01117              -4.00     1200.00
01118              -6.00     1200.00
01119              -2.00     1000.00
01120              -2.00     1000.00
01121             -10.00     1200.00
01122              -6.00     1000.00
01123              -2.00     1000.00
01124              -2.00      800.00
01125              -6.00      600.00
01126              -6.00      600.00
01127              -2.00      600.00
01128              -6.00      600.00
01129              -6.00      600.00
01130              -4.00      400.00
01131              -2.00      200.00
01132              -2.00      200.00
01133              -2.00      200.00
01134              -2.00      200.00
01135              -2.00        0.00
01136               2.00      200.00
01137               6.00        0.00
01138               2.00     -200.00
01139              -8.00     -200.00
01140              -8.00     -200.00
01141               0.00     -400.00
01142              16.00     -200.00
01143              82.00     -600.00
01144             158.00     -600.00
01145             -56.00    -1000.00
01146            -254.00     -800.00
01147            -234.00     -200.00
01148             246.00     -600.00
01149             246.00     -800.00
01150            -254.00    -1400.00
01151            -254.00     -800.00
01152             102.00    -1000.00
01153             246.00    -1000.00
01154              14.00    -1000.00
01155            -254.00    -1000.00
01156             -44.00    -1200.00
01157             246.00    -1400.00
01158              16.00    -1400.00
01159            -222.00    -1600.00
01160              34.00    -1600.00
01161              22.00    -1400.00
01162              -6.00    -1600.00
01163              98.00    -1800.00
01164               4.00    -1600.00
01165            -222.00    -1800.00
01166              66.00    -1800.00
01167             246.00    -2000.00
01168             -82.00    -1800.00
01169            -242.00    -2000.00
01170              82.00    -2200.00
01171             194.00    -2200.00
01172             -44.00    -2200.00
01173            -106.00    -2400.00
01174              -8.00    -2200.00
01175              56.00    -2400.00
01176              34.00    -2400.00
01177               8.00    -2400.00
01178             -40.00    -2400.00
01179              -6.00    -2600.00
01180              26.00    -2600.00
01181              10.00    -2600.00
01182             -14.00    -2600.00
01183              -2.00    -2600.00
01184              24.00    -2600.00
01185              14.00    -2800.00
01186             -16.00    -3000.00
01187             -26.00    -3000.00
01188              26.00    -3000.00
01189              38.00    -3000.00
01190             -10.00    -3000.00
01191             -32.00    -3200.00
01192               8.00    -3200.00
01193              26.00    -3000.00
01194               6.00    -3200.00
01195             -14.00    -3200.00
01196              -2.00    -3200.00
01197              14.00    -3200.00
01198              14.00    -3400.00
01199               0.00    -3200.00
01200              -8.00    -3400.00
01201               0.00    -3400.00
01202              14.00    -3400.00
01203              10.00    -3400.00
01204               0.00    -3400.00
01205              -2.00    -3400.00
01206               0.00    -3400.00
01207              10.00    -3800.00
01208               6.00    -3600.00
01209              -2.00    -3800.00
01210               2.00    -3800.00
01211              14.00    -3400.00
01212               0.00    -3800.00
01213              -6.00    -3800.00
01214               2.00    -3600.00
01215               8.00    -3800.00
01216               6.00    -3800.00
01217               8.00    -3800.00
01218               2.00    -3800.00
01219               2.00    -3800.00
01220               2.00    -3800.00
01221               4.00    -3800.00
01222               8.00    -3800.00
01223               6.00    -3800.00
01224               6.00    -3800.00
01225               6.00    -4000.00
01226               6.00    -3800.00
01227              -2.00    -4000.00
01228               6.00    -3800.00
01229              14.00    -3800.00
01230               8.00    -3800.00
01231               2.00    -3800.00
01232               6.00    -3800.00
01233               2.00    -4000.00
01234               2.00    -3800.00
01235               8.00    -4000.00
01236              10.00    -3800.00
01237               6.00    -3800.00
01238               6.00    -3800.00
01239               2.00    -4000.00
01240               0.00    -3800.00
01241               0.00    -3800.00
01242               8.00    -3800.00
01243              10.00    -3800.00
01244               6.00    -3800.00
01245               0.00    -3800.00
01246               2.00    -3600.00
01247               4.00    -3400.00
01248               6.00    -3400.00
01249               8.00    -3800.00
01250               8.00    -3600.00
01251               6.00    -3800.00
01252               0.00    -3400.00
01253               2.00    -3400.00
01254               0.00    -3800.00
01255               2.00    -3400.00
01256               6.00    -3400.00
01257               2.00    -3400.00
01258               4.00    -3400.00
01259               0.00    -3400.00
01260               0.00    -3200.00
01261               0.00    -3200.00
01262               6.00    -3200.00
01263               6.00    -3000.00
01264               8.00    -3400.00
01265               0.00    -3200.00
01266              -2.00    -3200.00
01267               0.00    -3200.00
01268               4.00    -3000.00
01269               6.00    -3000.00
01270               4.00    -3000.00
01271               2.00    -3000.00
01272               0.00    -3000.00
01273              -4.00    -2800.00
01274               0.00    -2800.00
01275               6.00    -2600.00
01276               6.00    -2600.00
01277               2.00    -2600.00
01278              -2.00    -2600.00
01279              -2.00    -2600.00
01280               0.00    -2400.00
01281               2.00    -2600.00
01282               2.00    -2400.00
01283               0.00    -2200.00
01284               0.00    -2400.00
01285               2.00    -2200.00
01286               0.00    -2200.00
01287              -2.00    -2200.00
01288               0.00    -2200.00
01289               0.00    -2000.00
01290               0.00    -2200.00
01291               0.00    -2000.00
01292               0.00    -1800.00
01293               2.00    -1800.00
01294              -2.00    -1800.00
01295               0.00    -1600.00
01296               2.00    -1600.00
01297               6.00    -1600.00
01298               0.00    -1400.00
01299              -2.00    -1400.00
01300               0.00    -1400.00
01301               0.00    -1400.00
01302               0.00    -1200.00
01303               0.00    -1200.00
01304               0.00    -1000.00
01305               2.00    -1000.00
01306              -2.00     -800.00
01307               0.00     -800.00
01308              -2.00     -800.00
01309               0.00     -800.00
01310               0.00     -600.00
01311               0.00     -600.00
01312              -2.00     -600.00
01313              -2.00     -600.00
01314              -2.00     -600.00
01315               0.00     -600.00
01316               0.00     -200.00
01317               0.00     -200.00
01318               0.00     -400.00
01319               0.00     -200.00
01320              -6.00     -200.00
01321              -6.00        0.00
01322              -2.00        0.00
01323              -2.00        0.00
01324               0.00        0.00
01325               0.00      200.00
01326               0.00        0.00
01327               0.00      400.00
01328               6.00      400.00
01329               2.00      400.00
01330              -2.00      600.00
01331              -8.00      600.00
01332              -6.00      400.00
01333              18.00      800.00
01334             126.00      800.00
01335             162.00     1200.00
01336            -240.00     1000.00
01337            -254.00      600.00
01338              70.00     1200.00
01339             246.00     1400.00
01340             246.00     1400.00
01341            -254.00      600.00
01342            -254.00     1400.00
01343             246.00     1600.00
01344             246.00     1800.00
01345            -254.00     1000.00
01346            -254.00     1400.00
01347             246.00     1800.00
01348             246.00     1600.00
01349            -254.00     1400.00
01350             -72.00     1800.00
01351             246.00     2200.00
01352            -102.00     1800.00
01353            -254.00     1800.00
01354             198.00     2200.00
01355             134.00     2200.00
01356            -254.00     2000.00
01357              36.00     2200.00
01358             246.00     2400.00
01359            -172.00     2200.00
01360            -216.00     2400.00
01361             204.00     2600.00
01362             120.00     2400.00
01363            -160.00     2600.00
01364             -66.00     2600.00
01365              70.00     2600.00
01366              14.00     2600.00
01367             -18.00     2800.00
01368             -22.00     2800.00
01369               0.00     3000.00
01370               8.00     3000.00
01371             -46.00     3000.00
01372             -18.00     3000.00
01373              56.00     3000.00
01374             -28.00     3000.00
01375             -48.00     3200.00
01376              48.00     3400.00
01377             -18.00     3200.00
01378             -72.00     3000.00
01379              48.00     3400.00
01380              34.00     3400.00
01381             -66.00     3200.00
01382             -14.00     3400.00
01383              22.00     3600.00
01384             -22.00     3200.00
01385              -8.00     3400.00
01386              -6.00     3400.00
01387             -22.00     3400.00
01388              10.00     3800.00
01389             -14.00     3600.00
01390             -32.00     3800.00
01391              12.00     3800.00
01392             -10.00     3800.00
01393             -34.00     3800.00
01394              14.00     3800.00
01395              -4.00     3800.00
01396             -38.00     3800.00
01397               6.00     3800.00
01398               2.00     3800.00
01399             -30.00     3800.00
01400             -10.00     4000.00
01401               0.00     4000.00
01402             -10.00     4000.00
01403             -14.00     4000.00
01404             -18.00     4000.00
01405             -12.00     3800.00
01406              -2.00     4000.00
01407             -14.00     4000.00
01408             -12.00     4000.00
01409               8.00     4000.00
01410             -16.00     4200.00
01411             -26.00     4000.00
01412               0.00     4000.00
01413             -10.00     4000.00
01414             -26.00     4000.00
01415             -16.00     4200.00
01416              -8.00     4000.00
01417               2.00     4000.00
01418              20.00     4000.00
01419               0.00     4200.00
01420             -28.00     4000.00
01421             -42.00     4000.00
01422             -30.00     4000.00
01423              -6.00     4200.00
01424              22.00     4200.00
01425               2.00     4000.00
01426             -18.00     4000.00
01427             -24.00     4200.00
01428             -14.00     4000.00
01429              14.00     4000.00
01430              16.00     4000.00
01431             -18.00     4000.00
01432             -42.00     4000.00
01433             -22.00     4000.00
01434               2.00     4000.00
01435              10.00     4000.00
01436               2.00     4000.00
01437             -26.00     4000.00
01438             -42.00     4000.00
01439              -8.00     4000.00
01440              24.00     3800.00
01441              18.00     4000.00
01442             -20.00     3800.00
01443             -46.00     3800.00
01444             -26.00     3800.00
01445              -2.00     3800.00
01446              16.00     3800.00
01447               6.00     3800.00
01448             -16.00     3800.00
01449             -32.00     3800.00
01450             -10.00     3800.00
01451              14.00     3400.00
01452               2.00     3600.00
01453             -22.00     3400.00
01454             -32.00     3400.00
01455             -18.00     3400.00
01456               0.00     3400.00
01457              10.00     3400.00
01458              -4.00     3400.00
01459             -22.00     3200.00
01460             -26.00     3400.00
01461             -10.00     3200.00
01462               8.00     3200.00
01463               2.00     3200.00
01464             -16.00     3200.00
01465             -26.00     3200.00
01466             -16.00     3000.00
01467              -2.00     3000.00
01468               6.00     3000.00
01469              -4.00     3000.00
01470             -24.00     3000.00
01471             -24.00     2800.00
01472              -6.00     2600.00
01473               8.00     2600.00
01474               0.00     2600.00
01475             -16.00     2600.00
01476             -24.00     2400.00
01477             -16.00     2600.00
01478               0.00     2400.00
01479               6.00     2400.00
01480              -2.00     2400.00
01481             -16.00     2200.00
01482             -14.00     2200.00
01483              -2.00     2200.00
01484               0.00     2200.00
01485             -10.00     2200.00
01486             -14.00     2200.00
01487             -10.00     2000.00
01488              -6.00     2000.00
01489               0.00     1800.00
01490               0.00     1800.00
01491             -10.00     1800.00
01492             -10.00     1800.00
01493              -6.00     1600.00
01494               4.00     1600.00
01495               0.00     1400.00
01496             -10.00     1600.00
01497             -14.00     1400.00
01498              -6.00     1400.00
01499              -2.00     1400.00
01500              -2.00     1200.00
01501              -2.00     1400.00
01502              -8.00     1000.00
01503             -10.00     1000.00
01504              -8.00      800.00
01505               0.00      800.00
01506               0.00      800.00
01507              -6.00      600.00
01508              -8.00      600.00
01509              -2.00      600.00
01510               0.00      600.00
01511               0.00      600.00
01512              -6.00      600.00
01513              -6.00      200.00
01514              -6.00      200.00
01515               0.00      200.00
01516               2.00      200.00
01517               6.00        0.00
01518              -2.00        0.00
01519               0.00     -200.00
01520               2.00     -200.00
01521               2.00     -200.00
01522              -6.00     -200.00
01523              -6.00     -400.00
01524               2.00     -400.00
01525              38.00     -200.00
01526             142.00     -600.00
01527             102.00     -800.00
01528            -254.00    -1000.00
01529            -254.00     -600.00
01530             158.00     -600.00
01531             246.00     -800.00
01532             246.00    -1000.00
01533            -254.00    -1000.00
01534            -254.00    -1000.00
01535             246.00    -1000.00
01536             246.00    -1000.00
01537            -254.00    -1400.00
01538            -254.00    -1200.00
01539             246.00    -1400.00
01540             246.00    -1400.00
01541            -182.00    -1400.00
01542            -104.00    -1600.00
01543              78.00    -1400.00
01544             -24.00    -1600.00
01545              46.00    -1600.00
01546             102.00    -1800.00
01547            -158.00    -1600.00
01548            -114.00    -1800.00
01549             226.00    -2000.00
01550             128.00    -2000.00
01551            -254.00    -2000.00
01552             -90.00    -2200.00
01553             198.00    -2200.00
01554              88.00    -2200.00
01555            -122.00    -2400.00
01556             -56.00    -2400.00
01557              26.00    -2200.00
01558              52.00    -2400.00
01559              26.00    -2600.00
01560             -24.00    -2600.00
01561             -26.00    -2600.00
01562              10.00    -2600.00
01563              26.00    -2600.00
01564              -8.00    -2800.00
01565              -8.00    -2800.00
01566               8.00    -2600.00
01567              24.00    -3000.00
01568              -2.00    -3000.00
01569             -28.00    -2600.00
01570              -6.00    -3000.00
01571              42.00    -3000.00
01572              22.00    -3000.00
01573             -32.00    -3000.00
01574             -14.00    -3000.00
01575              24.00    -3200.00
01576              22.00    -3200.00
01577              -6.00    -3400.00
01578             -10.00    -3200.00
01579               6.00    -3200.00
01580              18.00    -3200.00
01581               6.00    -3400.00
01582             -10.00    -3400.00
01583              -6.00    -3400.00
01584              10.00    -3400.00
01585              14.00    -3400.00
01586               6.00    -3600.00
01587              -6.00    -3600.00
01588              -2.00    -3400.00
01589               8.00    -3800.00
01590               8.00    -3600.00
01591              -2.00    -3400.00
01592              -2.00    -3800.00
01593              14.00    -3800.00
01594               8.00    -3600.00
01595              -8.00    -3800.00
01596              -2.00    -3800.00
01597               8.00    -3800.00
01598               8.00    -3800.00
01599               6.00    -3800.00
01600               6.00    -3800.00
01601               0.00    -4000.00
01602               0.00    -3800.00
01603               2.00    -4000.00
01604               2.00    -3800.00
01605               6.00    -3800.00
01606               2.00    -3800.00
01607               4.00    -4000.00
01608               6.00    -3800.00
01609               0.00    -4000.00
01610               0.00    -3800.00
01611              10.00    -3800.00
01612              10.00    -3800.00
01613               4.00    -3800.00
01614               2.00    -3800.00
01615               2.00    -3800.00
01616               0.00    -3800.00
01617               6.00    -3800.00
01618              10.00    -3800.00
01619               6.00    -3800.00
01620               6.00    -3800.00
01621               6.00    -3800.00
01622               2.00    -3600.00
01623               2.00    -3800.00
01624               6.00    -3800.00
01625               8.00    -3600.00
01626              10.00    -3600.00
01627               2.00    -3800.00
01628               2.00    -3600.00
01629               2.00    -3600.00
01630               2.00    -3600.00
01631               4.00    -3400.00
01632              10.00    -3600.00
01633               6.00    -3400.00
01634               2.00    -3400.00
01635               0.00    -3400.00
01636               2.00    -3400.00
01637               2.00    -3400.00
01638               8.00    -3400.00
01639               8.00    -3400.00
01640               2.00    -3400.00
01641               0.00    -3400.00
01642               2.00    -3400.00
01643               2.00    -3200.00
01644               4.00    -3400.00
01645               0.00    -3200.00
01646               6.00    -3200.00
01647               6.00    -3000.00
01648               0.00    -3200.00
01649              -2.00    -3200.00
01650               2.00    -3000.00
01651               2.00    -3000.00
01652               6.00    -3000.00
01653               6.00    -3000.00
01654               2.00    -2800.00
01655              -2.00    -3000.00
01656               0.00    -3000.00
01657               2.00    -2600.00
01658               6.00    -2800.00
01659               2.00    -2600.00
01660               0.00    -2600.00
01661              -2.00    -2600.00
01662               0.00    -2600.00
01663               2.00    -2600.00
01664               0.00    -2400.00
01665               0.00    -2400.00
01666               0.00    -2400.00
01667               2.00    -2200.00
01668               0.00    -2200.00
01669               0.00    -2200.00
01670              -2.00    -2200.00
01671               0.00    -2000.00
01672               4.00    -2200.00
01673               4.00    -1800.00
01674               0.00    -1800.00
01675               0.00    -1800.00
01676              -2.00    -1600.00
01677              -2.00    -1800.00
01678               2.00    -1600.00
01679               0.00    -1400.00
01680               0.00    -1400.00
01681              -2.00    -1600.00
01682              -2.00    -1400.00
01683               0.00    -1400.00
01684               0.00    -1200.00
01685               0.00    -1200.00
01686               2.00    -1200.00
01687               0.00    -1200.00
01688              -2.00    -1000.00
01689              -2.00    -1000.00
01690               0.00    -1000.00
01691              -2.00     -800.00
01692              -2.00     -800.00
01693               6.00     -800.00
01694               2.00     -800.00
01695              -2.00     -600.00
01696              -2.00     -600.00
01697              -2.00     -600.00
01698               0.00     -400.00
01699               2.00     -200.00
01700              -2.00     -200.00
01701              -2.00     -200.00
01702              -2.00     -200.00
01703              -2.00        0.00
01704               0.00     -200.00
01705               0.00        0.00
01706               0.00        0.00
01707              -2.00      200.00
01708               0.00      200.00
01709               2.00      200.00
01710               6.00      400.00
01711               6.00      400.00
01712              -2.00      400.00
01713             -10.00      600.00
01714              -8.00      800.00
01715               4.00      600.00
01716              62.00      800.00
01717             182.00     1000.00
01718              14.00     1200.00
01719            -254.00      800.00
01720            -254.00     1000.00
01721             246.00     1200.00
01722             246.00     1400.00
01723            -254.00     1000.00
01724            -254.00     1000.00
01725              42.00     1400.00
01726             246.00     1600.00
01727              14.00     1400.00
01728            -254.00     1200.00
01729              30.00     1800.00
01730             246.00     1800.00
01731            -196.00     1400.00
01732            -254.00     1600.00
01733             246.00     2200.00
01734             214.00     1800.00
01735            -254.00     1600.00
01736             -48.00     2200.00
01737             246.00     2400.00
01738            -130.00     1800.00
01739            -192.00     2200.00
01740             242.00     2400.00
01741              56.00     2200.00
01742            -254.00     2200.00
01743              14.00     2600.00
01744             238.00     2600.00
01745             -60.00     2200.00
01746            -160.00     2400.00
01747              32.00     2600.00
01748              46.00     2600.00
01749             -10.00     2600.00
01750             -24.00     2800.00
01751             -14.00     2800.00
01752              16.00     3000.00
01753             -16.00     3000.00
01754             -54.00     3000.00
01755              34.00     3000.00
01756              22.00     3200.00
01757             -58.00     3000.00
01758               8.00     3000.00
01759              38.00     3400.00
01760             -78.00     3200.00
01761             -16.00     3200.00
01762              70.00     3400.00
01763             -26.00     3200.00
01764             -56.00     3200.00
01765              18.00     3400.00
01766              -6.00     3400.00
01767             -16.00     3400.00
01768               2.00     3800.00
01769             -18.00     3600.00
01770              -8.00     3800.00
01771               6.00     3800.00
01772             -32.00     3400.00
01773              -6.00     3800.00
01774              14.00     3800.00
01775             -36.00     3800.00
01776             -12.00     3800.00
01777              18.00     3800.00
01778             -32.00     3800.00
01779             -18.00     3800.00
01780              16.00     4000.00
01781             -22.00     3800.00
01782             -24.00     3800.00
01783               6.00     4000.00
01784              -8.00     3800.00
01785             -16.00     4000.00
01786             -16.00     4000.00
01787             -18.00     3800.00
01788              -4.00     4000.00
01789              -6.00     4200.00
01790             -18.00     4000.00
01791              -2.00     4000.00
01792              -8.00     4000.00
01793             -28.00     4000.00
01794             -10.00     4200.00
01795               0.00     4000.00
01796             -18.00     4000.00
01797             -10.00     4000.00
01798               0.00     4200.00
01799             -20.00     4000.00
01800             -18.00     4200.00
01801              -8.00     4200.00
01802              -8.00     4000.00
01803              -6.00     4000.00
01804              -8.00     4200.00
01805             -16.00     4000.00
01806             -10.00     4200.00
01807             -14.00     4200.00
01808             -16.00     4000.00
01809              -2.00     4000.00
01810              -8.00     4000.00
01811             -18.00     4200.00
01812             -10.00     4000.00
01813              -8.00     4000.00
01814             -16.00     4000.00
01815             -10.00     4000.00
01816              -2.00     4000.00
01817             -12.00     4000.00
01818             -12.00     3800.00
01819             -10.00     4000.00
01820             -14.00     4000.00
01821             -10.00     4000.00
01822              -6.00     3800.00
01823              -8.00     3800.00
01824             -10.00     4000.00
01825             -10.00     4000.00
01826             -10.00     3800.00
01827              -8.00     3800.00
01828             -14.00     3800.00
01829             -10.00     3800.00
01830               0.00     3800.00
01831              -8.00     3800.00
01832             -16.00     3800.00
01833              -8.00     3600.00
01834              -8.00     3600.00
01835             -10.00     3600.00
01836              -8.00     3600.00
01837              -2.00     3600.00
01838              -8.00     3400.00
01839             -10.00     3400.00
01840             -10.00     3400.00
01841             -10.00     3400.00
01842             -10.00     3400.00
01843              -8.00     3400.00
01844              -8.00     3400.00
01845             -10.00     3200.00
01846             -14.00     3200.00
01847             -10.00     3200.00
01848              -8.00     3200.00
01849              -8.00     3000.00
01850              -8.00     3000.00
01851              -8.00     3000.00
01852             -10.00     2800.00
01853             -14.00     3000.00
01854              -8.00     2800.00
01855              -6.00     2800.00
01856             -10.00     2600.00
01857             -14.00     2600.00
01858             -10.00     2600.00
01859              -6.00     2400.00
01860             -10.00     2400.00
01861             -10.00     2400.00
01862              -8.00     2400.00
01863              -4.00     2400.00
01864              -8.00     2200.00
01865             -10.00     2200.00
01866              -8.00     2200.00
01867              -8.00     2200.00
01868             -10.00     2000.00
01869              -6.00     1800.00
01870              -2.00     2200.00
01871              -2.00     1800.00
01872              -8.00     1800.00
01873              -6.00     1800.00
01874             -10.00     1600.00
01875              -8.00     1600.00
01876              -2.00     1400.00
01877              -2.00     1600.00
01878             -10.00     1400.00
01879             -10.00     1400.00
01880              -8.00     1400.00
01881              -2.00     1400.00
01882              -4.00     1200.00
01883              -6.00     1200.00
01884              -2.00     1000.00
01885              -6.00     1200.00
01886              -8.00     1000.00
01887              -6.00     1200.00
01888               0.00      800.00
01889              -2.00      800.00
01890              -6.00      800.00
01891              -6.00      600.00
01892               0.00      600.00
01893              -2.00      600.00
01894              -8.00      600.00
01895              -4.00      200.00
01896               0.00      200.00
01897               0.00      200.00
01898              -2.00      200.00
01899               0.00        0.00
01900              -2.00        0.00
01901               2.00        0.00
01902              10.00        0.00
01903               0.00        0.00
01904              -8.00     -200.00
01905              -8.00     -200.00
01906               0.00     -200.00
01907              16.00     -400.00
01908              86.00     -400.00
01909             154.00     -600.00
01910             -70.00     -800.00
01911            -254.00     -800.00
01912            -208.00     -400.00
01913             246.00     -600.00
01914             246.00     -800.00
01915            -254.00    -1200.00
01916            -254.00     -800.00
01917             144.00    -1000.00
01918             246.00    -1000.00
01919             -26.00    -1200.00
01920            -254.00    -1200.00
01921             -16.00    -1400.00
01922             246.00    -1400.00
01923              -2.00    -1200.00
01924            -220.00    -1600.00
01925              40.00    -1600.00
01926              16.00    -1600.00
01927              -4.00    -1600.00
01928              98.00    -1800.00
01929              -6.00    -1800.00
01930            -218.00    -1600.00
01931              78.00    -1800.00
01932             246.00    -1800.00
01933            -100.00    -2000.00
01934            -234.00    -2200.00
01935              94.00    -2000.00
01936             188.00    -2200.00
01937             -54.00    -2200.00
01938            -106.00    -2400.00
01939             -10.00    -2400.00
01940              54.00    -2200.00
01941              30.00    -2600.00
01942               4.00    -2400.00
01943             -42.00    -2600.00
01944              -8.00    -2600.00
01945              24.00    -2600.00
01946              10.00    -2600.00
01947             -14.00    -2800.00
01948               0.00    -2600.00
01949              22.00    -2600.00
01950              14.00    -2800.00
01951             -18.00    -3000.00
01952             -26.00    -2600.00
01953              26.00    -3000.00
01954              38.00    -3000.00
01955             -10.00    -3000.00
01956             -32.00    -3000.00
01957              10.00    -3000.00
01958              28.00    -3200.00
01959               6.00    -3200.00
01960             -10.00    -3200.00
01961              -2.00    -3200.00
01962              14.00    -3400.00
01963              16.00    -3400.00
01964               0.00    -3400.00
01965              -8.00    -3400.00
01966               6.00    -3400.00
01967              16.00    -3400.00
01968               8.00    -3400.00
01969               0.00    -3600.00
01970              -6.00    -3400.00
01971               6.00    -3800.00
01972               8.00    -3600.00
01973               2.00    -3600.00
01974              -6.00    -3800.00
01975               6.00    -3800.00
01976              14.00    -3800.00
01977               0.00    -3800.00
01978              -8.00    -3800.00
01979               4.00    -3600.00
01980               8.00    -3600.00
01981               6.00    -3800.00
01982               6.00    -3800.00
01983               0.00    -3800.00
01984               0.00    -3800.00
01985               2.00    -3800.00
01986               6.00    -3800.00
01987               6.00    -4000.00
01988               4.00    -3800.00
01989               2.00    -3800.00
01990               6.00    -3800.00
01991               6.00    -3800.00
01992              -2.00    -3800.00
01993               2.00    -3800.00
01994               8.00    -4000.00
01995               8.00    -4000.00
01996               6.00    -4000.00
01997               8.00    -3800.00
01998              -2.00    -4000.00
01999              -2.00    -3800.00
02000               8.00    -3800.00
02001              14.00    -3800.00
02002               8.00    -3800.00
02003               0.00    -3800.00
02004               0.00    -3800.00
02005               2.00    -3800.00
02006               6.00    -3800.00
02007               8.00    -3800.00
02008               8.00    -3800.00
02009               4.00    -3600.00
02010              -2.00    -3600.00
02011               2.00    -3800.00
02012               6.00    -3800.00
02013               6.00    -3800.00
02014               8.00    -3600.00
02015               8.00    -3800.00
02016               0.00    -3800.00
02017               2.00    -3400.00
02018               6.00    -3400.00
02019               4.00    -3400.00
02020               2.00    -3400.00
02021               6.00    -3400.00
02022               8.00    -3400.00
02023               2.00    -3400.00
02024               2.00    -3200.00
02025               6.00    -3200.00
02026               2.00    -3200.00
02027               0.00    -3200.00
02028               6.00    -3200.00
02029               8.00    -3200.00
02030               6.00    -3000.00
02031               0.00    -3200.00
02032              -2.00    -3000.00
02033               0.00    -3000.00
02034               6.00    -3000.00
02035               6.00    -3000.00
02036               6.00    -3000.00
02037              -2.00    -3000.00
02038              -2.00    -3000.00
02039               0.00    -2600.00
02040               6.00    -2600.00
02041               2.00    -2600.00
02042               2.00    -2600.00
02043               0.00    -2600.00
02044               0.00    -2600.00
02045              -2.00    -2600.00
02046               2.00    -2400.00
02047               2.00    -2400.00
02048               2.00    -2400.00
02049               0.00    -2200.00
02050               2.00    -2200.00
02051               0.00    -2200.00
02052              -2.00    -2200.00
02053               0.00    -2200.00
02054               4.00    -1800.00
02055               6.00    -2000.00
02056               0.00    -2000.00
02057              -2.00    -1800.00
02058               0.00    -1800.00
02059               0.00    -1600.00
02060               0.00    -1800.00
02061               2.00    -1600.00
02062               2.00    -1600.00
02063              -2.00    -1400.00
02064              -2.00    -1400.00
02065               0.00    -1400.00
02066               0.00    -1400.00
02067               0.00    -1400.00
02068               0.00    -1000.00
02069              -2.00    -1400.00
02070              -2.00    -1200.00
02071              -2.00    -1000.00
02072               0.00    -1000.00
02073              -4.00    -1000.00
02074              -2.00     -800.00
02075               0.00     -800.00
02076               0.00     -600.00
02077              -2.00     -600.00
02078              -6.00     -600.00
02079              -6.00     -400.00
02080               0.00     -600.00
02081               0.00     -400.00
02082              -2.00     -200.00
02083               0.00     -200.00
02084              -2.00     -200.00
02085              -6.00     -200.00
02086              -2.00        0.00
02087              -4.00        0.00
02088               0.00      200.00
02089               0.00      200.00
02090               0.00      200.00
02091               0.00      200.00
02092               0.00      200.00
02093               6.00      200.00
02094               0.00      600.00
02095              -6.00      600.00
02096              -6.00      600.00
02097              -2.00      600.00
02098              18.00      600.00
02099             128.00     1000.00
02100             158.00     1200.00
02101            -254.00      800.00
02102            -254.00      800.00
02103             100.00     1000.00
02104             246.00     1400.00
02105             246.00     1400.00
02106            -254.00      600.00
02107            -254.00     1200.00
02108             246.00     1400.00
02109             246.00     1600.00
02110            -254.00     1000.00
02111            -254.00     1600.00
02112             246.00     1800.00
02113             242.00     1600.00
02114            -254.00     1400.00
02115             -46.00     1800.00
02116             246.00     2200.00
02117            -128.00     1600.00
02118            -254.00     1800.00
02119             210.00     2400.00
02120             112.00     2000.00
02121            -254.00     2200.00
02122              54.00     2200.00
02123             242.00     2400.00
02124            -186.00     2200.00
02125            -204.00     2400.00
02126             210.00     2600.00
02127             106.00     2200.00
02128            -170.00     2400.00
02129             -60.00     2600.00
02130              68.00     2600.00
02131              10.00     2600.00
02132             -22.00     2800.00
02133             -22.00     2600.00
02134               2.00     2800.00
02135               8.00     3000.00
02136             -48.00     3000.00
02137             -16.00     3000.00
02138              50.00     3000.00
02139             -32.00     3200.00
02140             -42.00     3000.00
02141              48.00     3400.00
02142             -26.00     3400.00
02143             -72.00     3200.00
02144              48.00     3200.00
02145              32.00     3400.00
02146             -66.00     3200.00
02147             -12.00     3400.00
02148              16.00     3400.00
02149             -22.00     3400.00
02150              -2.00     3400.00
02151              -8.00     3600.00
02152             -24.00     3400.00
02153               8.00     3600.00
02154             -12.00     3400.00
02155             -24.00     3600.00
02156              14.00     3800.00
02157             -18.00     3600.00
02158             -32.00     3800.00
02159              18.00     3800.00
02160               0.00     3800.00
02161             -38.00     3800.00
02162               2.00     4000.00
02163              -2.00     3800.00
02164             -30.00     3800.00
02165              -2.00     4000.00
02166               2.00     4000.00
02167             -16.00     4000.00
02168             -16.00     4200.00
02169             -16.00     4000.00
02170             -10.00     4000.00
02171               2.00     4000.00
02172             -16.00     4000.00
02173             -16.00     4000.00
02174               0.00     4000.00
02175             -16.00     4000.00
02176             -22.00     4000.00
02177               0.00     4200.00
02178             -10.00     4000.00
02179             -16.00     4000.00
02180               0.00     4200.00
02181              -8.00     4200.00
02182             -26.00     4000.00
02183             -14.00     4000.00
02184              -6.00     4000.00
02185              -8.00     4200.00
02186              -8.00     4200.00
02187             -16.00     4200.00
02188             -12.00     4000.00
02189             -10.00     4200.00
02190             -16.00     4000.00
02191              -8.00     4200.00
02192              -2.00     4000.00
02193             -14.00     4200.00
02194             -14.00     4200.00
02195              -6.00     4000.00
02196             -14.00     4000.00
02197             -14.00     4200.00
02198              -4.00     4000.00
02199             -10.00     4000.00
02200             -14.00     4000.00
02201             -10.00     4000.00
02202             -10.00     4000.00
02203             -16.00     3800.00
02204              -8.00     4000.00
02205              -6.00     4000.00
02206              -8.00     3800.00
02207             -10.00     3800.00
02208             -10.00     4000.00
02209             -10.00     3800.00
02210             -10.00     3800.00
02211             -10.00     3800.00
02212              -8.00     3800.00
02213              -4.00     3800.00
02214             -14.00     3800.00
02215             -12.00     3800.00
02216              -6.00     3600.00
02217             -10.00     3400.00
02218             -10.00     3400.00
02219              -6.00     3600.00
02220              -6.00     3400.00
02221             -10.00     3600.00
02222             -10.00     3400.00
02223             -10.00     3400.00
02224             -10.00     3400.00
02225              -6.00     3400.00
02226              -6.00     3200.00
02227              -4.00     3200.00
02228             -10.00     3200.00
02229             -12.00     3000.00
02230              -8.00     3000.00
02231              -6.00     3000.00
02232              -8.00     3200.00
02233              -6.00     3000.00
02234              -8.00     3000.00
02235             -10.00     2800.00
02236             -10.00     2800.00
02237              -8.00     2800.00
02238              -6.00     2600.00
02239             -10.00     2600.00
02240             -10.00     2600.00
02241              -8.00     2600.00
02242             -10.00     2400.00
02243              -8.00     2600.00
02244             -10.00     2400.00
02245              -2.00     2400.00
02246              -6.00     2200.00
02247              -8.00     2200.00
02248             -10.00     2200.00
02249             -10.00     2200.00
02250             -10.00     2200.00
02251              -6.00     2200.00
02252              -4.00     1800.00
02253              -8.00     2000.00
02254              -8.00     1800.00
02255              -8.00     1800.00
02256             -10.00     1600.00
02257             -10.00     1600.00
02258              -6.00     1600.00
02259              -4.00     1400.00
02260              -6.00     1600.00
02261             -12.00     1400.00
02262              -8.00     1400.00
02263              -2.00     1400.00
02264              -6.00     1200.00
02265              -8.00     1000.00
02266              -6.00     1200.00
02267              -2.00     1000.00
02268              -8.00     1000.00
02269              -8.00     1000.00
02270              -6.00      800.00
02271               0.00      800.00
02272              -6.00      600.00
02273              -4.00      800.00
02274              -6.00      600.00
02275              -2.00      400.00
02276              -2.00      600.00
02277              -6.00      400.00
02278               0.00      200.00
02279              -2.00      400.00
02280              -6.00      200.00
02281              -2.00      200.00
02282               0.00      200.00
02283               0.00        0.00
02284               6.00        0.00
02285               6.00     -200.00
02286              -4.00     -200.00
02287              -8.00     -200.00
02288              -2.00     -200.00
02289               6.00     -200.00
02290              40.00     -200.00
02291             144.00     -400.00
02292              92.00     -800.00
02293            -254.00     -800.00
02294            -254.00     -400.00
02295             192.00     -600.00
02296             246.00     -800.00
02297             208.00    -1200.00
02298            -254.00    -1000.00
02299            -254.00     -800.00
02300             246.00    -1000.00
02301             246.00    -1000.00
02302            -254.00    -1000.00
02303            -254.00    -1200.00
02304             246.00    -1400.00
02305             232.00    -1400.00
02306            -186.00    -1400.00
02307             -94.00    -1600.00
02308              72.00    -1600.00
02309             -26.00    -1400.00
02310              48.00    -1800.00
02311              98.00    -2000.00
02312            -168.00    -1600.00
02313            -102.00    -1800.00
02314             230.00    -2000.00
02315             110.00    -2000.00
02316            -254.00    -2200.00
02317             -76.00    -2000.00
02318             198.00    -2000.00
02319              74.00    -2200.00
02320            -122.00    -2400.00
02321             -50.00    -2400.00
02322              32.00    -2200.00
02323              46.00    -2400.00
02324              22.00    -2600.00
02325             -24.00    -2400.00
02326             -26.00    -2600.00
02327              10.00    -2600.00
02328              22.00    -2600.00
02329             -14.00    -2600.00
02330              -8.00    -2600.00
02331              10.00    -2800.00
02332              22.00    -2800.00
02333              -8.00    -3000.00
02334             -30.00    -3000.00
02335              -2.00    -3000.00
02336              44.00    -3000.00
02337              18.00    -3000.00
02338             -32.00    -3000.00
02339             -14.00    -3200.00
02340              24.00    -3200.00
02341              22.00    -3200.00
02342              -6.00    -3200.00
02343             -10.00    -3000.00
02344               6.00    -3400.00
02345              16.00    -3200.00
02346               6.00    -3400.00
02347              -6.00    -3400.00
02348              -4.00    -3400.00
02349               6.00    -3400.00
02350              14.00    -3400.00
02351               6.00    -3400.00
02352               0.00    -3800.00
02353              -2.00    -3600.00
02354               8.00    -3600.00
02355              10.00    -3600.00
02356               0.00    -3400.00
02357               2.00    -3600.00
02358              14.00    -3800.00
02359               8.00    -3400.00
02360              -6.00    -3800.00
02361              -2.00    -3800.00
02362               8.00    -3800.00
02363              10.00    -3800.00
02364               6.00    -3800.00
02365               2.00    -3800.00
02366              -2.00    -3800.00
02367               0.00    -3800.00
02368               8.00    -3800.00
02369               8.00    -3800.00
02370               6.00    -3800.00
02371               0.00    -4000.00
02372              -2.00    -3800.00
02373               6.00    -3800.00
02374               2.00    -3800.00
02375               6.00    -4000.00
02376              10.00    -3800.00
02377               4.00    -4000.00
02378              -2.00    -3800.00
02379               2.00    -3800.00
02380               6.00    -3800.00
02381               2.00    -4000.00
02382               0.00    -3800.00
02383               2.00    -3800.00
02384               2.00    -3800.00
02385               4.00    -3800.00
02386               4.00    -3800.00
02387              -2.00    -3800.00
02388               0.00    -3800.00
02389               8.00    -3800.00
02390              16.00    -3800.00
02391              18.00    -3600.00
02392               2.00    -3800.00
02393             -16.00    -3600.00
02394             -16.00    -3800.00
02395              -6.00    -3600.00
02396              12.00    -3800.00
02397              18.00    -3400.00
02398              16.00    -3400.00
02399               8.00    -3400.00
02400               8.00    -3600.00
02401               2.00    -3600.00
02402              -6.00    -3400.00
02403             -10.00    -3400.00
02404              -2.00    -3400.00
02405               6.00    -3400.00
02406              10.00    -3200.00
02407              14.00    -3400.00
02408               6.00    -3400.00
02409               0.00    -3200.00
02410               0.00    -3200.00
02411               6.00    -3200.00
02412               6.00    -3000.00
02413               0.00    -3000.00
02414               0.00    -3200.00
02415               6.00    -3000.00
02416               6.00    -3000.00
02417               2.00    -3000.00
02418               0.00    -3000.00
02419              -2.00    -3000.00
02420               0.00    -3000.00
02421               8.00    -2800.00
02422              10.00    -2600.00
02423               6.00    -2600.00
02424               2.00    -2800.00
02425               0.00    -2600.00
02426              -6.00    -2600.00
02427              -8.00    -2600.00
02428              -2.00    -2600.00
02429               6.00    -2400.00
02430              14.00    -2400.00
02431               8.00    -2400.00
02432               0.00    -2400.00
02433              -6.00    -2200.00
02434              -8.00    -2200.00
02435              -8.00    -2200.00
02436               0.00    -2200.00
02437               4.00    -2000.00
02438               6.00    -1800.00
02439               4.00    -2000.00
02440               0.00    -1800.00
02441              -6.00    -1800.00
02442              -6.00    -1600.00
02443              -6.00    -1800.00
02444               0.00    -1600.00
02445               2.00    -1400.00
02446               2.00    -1600.00
02447               0.00    -1400.00
02448              -2.00    -1400.00
02449              -6.00    -1400.00
02450              -4.00    -1000.00
02451              -2.00    -1200.00
02452               0.00    -1000.00
02453              -2.00    -1000.00
02454               2.00    -1000.00
02455               2.00     -800.00
02456               2.00     -800.00
02457              -2.00     -800.00
02458              -6.00     -600.00
02459              -8.00     -800.00
02460              -6.00     -600.00
02461              -4.00     -600.00
02462               2.00     -600.00
02463               6.00     -400.00
02464               0.00     -400.00
02465              -6.00     -400.00
02466              -6.00     -200.00
02467              -6.00     -200.00
02468              -6.00        0.00
02469              -2.00     -200.00
02470               2.00        0.00
02471               0.00      200.00
02472               0.00      200.00
02473               0.00        0.00
02474               0.00      200.00
02475               2.00      400.00
02476               2.00      400.00
02477              -2.00      400.00
02478              -6.00      600.00
02479              -2.00      600.00
02480               2.00      600.00
02481              64.00      800.00
02482             182.00     1000.00
02483              -6.00     1000.00
02484            -254.00      800.00
02485            -254.00      800.00
02486             246.00     1200.00
02487             246.00     1600.00
02488            -254.00      800.00
02489            -254.00     1200.00
02490              94.00     1400.00
02491             246.00     1800.00
02492             -42.00     1400.00
02493            -254.00     1200.00
02494              72.00     1800.00
02495             246.00     1600.00
02496            -224.00     1400.00
02497            -254.00     1600.00
02498             246.00     2000.00
02499             190.00     1800.00
02500            -254.00     1600.00
02501             -26.00     2000.00
02502             246.00     2200.00
02503            -150.00     1800.00
02504            -176.00     2200.00
02505             246.00     2400.00
02506              34.00     2200.00
02507            -254.00     2200.00
02508              32.00     2400.00
02509             232.00     2600.00
02510             -72.00     2400.00
02511            -154.00     2600.00
02512              38.00     2600.00
02513              46.00     2600.00
02514             -12.00     2600.00
02515             -22.00     2800.00
02516             -16.00     2800.00
02517              14.00     3000.00
02518             -18.00     3000.00
02519             -54.00     2600.00
02520              34.00     3000.00
02521              18.00     3000.00
02522             -62.00     3000.00
02523               8.00     3200.00
02524              34.00     3200.00
02525             -78.00     3200.00
02526             -12.00     3200.00
02527              64.00     3400.00
02528             -32.00     3200.00
02529             -54.00     3400.00
02530              22.00     3400.00
02531              -8.00     3400.00
02532             -16.00     3400.00
02533               4.00     3600.00
02534             -20.00     3600.00
02535              -2.00     3600.00
02536               2.00     3800.00
02537             -26.00     3600.00
02538              -2.00     3800.00
02539               8.00     4000.00
02540             -38.00     3400.00
02541              -6.00     3800.00
02542              22.00     3800.00
02543             -28.00     3800.00
02544             -20.00     4000.00
02545              14.00     3800.00
02546             -18.00     3800.00
02547             -20.00     3800.00
02548               6.00     4000.00
02549              -6.00     3800.00
02550             -16.00     3800.00
02551             -10.00     4200.00
02552             -16.00     4000.00
02553              -2.00     4000.00
02554              -2.00     4000.00
02555             -20.00     4000.00
02556              -2.00     4000.00
02557              -6.00     4200.00
02558             -26.00     4000.00
02559              -8.00     4000.00
02560               0.00     4000.00
02561             -20.00     4000.00
02562             -10.00     4000.00
02563               0.00     4200.00
02564             -18.00     4000.00
02565             -20.00     4000.00
02566             -10.00     4000.00
02567              -8.00     4200.00
02568              -8.00     4000.00
02569             -10.00     4200.00
02570             -14.00     4000.00
02571             -14.00     4000.00
02572             -14.00     4000.00
02573             -14.00     4000.00
02574              -2.00     4000.00
02575              -8.00     4000.00
02576             -18.00     4200.00
02577             -10.00     4000.00
02578             -10.00     4000.00
02579             -14.00     4000.00
02580              -6.00     4000.00
02581              -8.00     4000.00
02582             -16.00     4000.00
02583             -12.00     4000.00
02584              -6.00     4000.00
02585             -14.00     4000.00
02586             -10.00     3800.00
02587             -10.00     3800.00
02588              -6.00     3800.00
02589              -6.00     4000.00
02590             -12.00     3800.00
02591             -16.00     4000.00
02592             -10.00     3800.00
02593             -12.00     3800.00
02594             -10.00     3800.00
02595              -2.00     3800.00
02596             -10.00     3800.00
02597             -16.00     3800.00
02598              -8.00     3600.00
02599              -8.00     3800.00
02600             -14.00     3600.00
02601              -8.00     3400.00
02602              -4.00     3400.00
02603             -10.00     3400.00
02604             -12.00     3400.00
02605             -10.00     3400.00
02606              -8.00     3400.00
02607              -6.00     3200.00
02608              -6.00     3400.00
02609              -8.00     3400.00
02610             -14.00     3000.00
02611             -16.00     3200.00
02612             -10.00     3200.00
02613              -2.00     3000.00
02614              -8.00     3000.00
02615              -8.00     3000.00
02616              -8.00     3000.00
02617              -8.00     3000.00
02618             -10.00     3000.00
02619             -10.00     3000.00
02620              -8.00     2800.00
02621             -10.00     2600.00
02622              -8.00     2600.00
02623              -8.00     2600.00
02624             -10.00     2600.00
02625             -10.00     2400.00
02626             -10.00     2600.00
02627              -6.00     2400.00
02628              -6.00     2400.00
02629              -8.00     2400.00
02630             -10.00     2200.00
02631              -6.00     2200.00
02632             -10.00     2200.00
02633             -10.00     2200.00
02634              -2.00     2200.00
02635              -4.00     1800.00
02636              -8.00     1800.00
02637             -10.00     1800.00
02638              -8.00     1800.00
02639             -10.00     1600.00
02640              -4.00     1800.00
02641              -4.00     1600.00
02642              -2.00     1400.00
02643             -12.00     1600.00
02644             -14.00     1400.00
02645              -6.00     1400.00
02646              -2.00     1200.00
02647              -8.00     1400.00
02648             -10.00     1200.00
02649              -6.00     1000.00
02650              -6.00     1200.00
02651              -8.00      800.00
02652              -8.00      800.00
02653              -6.00      600.00
02654              -4.00      800.00
02655              -4.00      800.00
02656              -2.00      600.00
02657              -4.00      600.00
02658              -6.00      600.00
02659              -8.00      600.00
02660              -2.00      200.00
02661               0.00      200.00
02662              -2.00      200.00
02663              -2.00      200.00
02664              -2.00        0.00
02665               0.00      200.00
02666               6.00        0.00
02667               8.00        0.00
02668               0.00        0.00
02669             -10.00     -200.00
02670              -6.00     -200.00
02671               2.00     -200.00
02672              18.00     -200.00
02673              90.00     -400.00
02674             154.00     -600.00
02675             -88.00     -800.00
02676            -254.00     -600.00
02677            -178.00     -400.00
02678             246.00     -600.00
02679             246.00    -1000.00
02680            -254.00    -1000.00
02681            -254.00     -800.00
02682             192.00    -1000.00
02683             246.00    -1000.00
02684             -68.00    -1200.00
02685            -254.00    -1200.00
02686              16.00    -1400.00
02687             246.00    -1400.00
02688             -18.00    -1400.00
02689            -216.00    -1600.00
02690              48.00    -1600.00
02691               8.00    -1400.00
02692               0.00    -1600.00
02693             102.00    -2000.00
02694             -22.00    -1800.00
02695            -216.00    -1800.00
02696              96.00    -1800.00
02697             244.00    -2000.00
02698            -116.00    -1800.00
02699            -226.00    -2200.00
02700             102.00    -2000.00
02701             184.00    -2200.00
02702             -64.00    -2200.00
02703            -104.00    -2400.00
02704              -2.00    -2200.00
02705              54.00    -2200.00
02706              30.00    -2600.00
02707               2.00    -2400.00
02708             -38.00    -2400.00
02709              -2.00    -2600.00
02710              26.00    -2600.00
02711               2.00    -2600.00
02712             -16.00    -2600.00
02713               0.00    -2600.00
02714              24.00    -2600.00
02715              10.00    -3000.00
02716             -22.00    -3000.00
02717             -24.00    -2800.00
02718              30.00    -3000.00
02719              40.00    -3000.00
02720             -12.00    -3000.00
02721             -32.00    -3000.00
02722              10.00    -3200.00
02723              26.00    -3200.00
02724               2.00    -3200.00
02725             -10.00    -3200.00
02726              -2.00    -3200.00
02727              16.00    -3200.00
02728              14.00    -3400.00
02729              -2.00    -3200.00
02730              -8.00    -3200.00
02731               6.00    -3400.00
02732              16.00    -3400.00
02733              10.00    -3400.00
02734               0.00    -3400.00
02735              -2.00    -3400.00
02736               6.00    -3400.00
02737              14.00    -3600.00
02738               4.00    -3400.00
02739              -6.00    -3600.00
02740               6.00    -3800.00
02741              18.00    -3600.00
02742               6.00    -3400.00
02743              -6.00    -3600.00
02744               2.00    -3800.00
02745              10.00    -3800.00
02746               8.00    -3800.00
02747               8.00    -3800.00
02748               6.00    -3800.00
02749               0.00    -3800.00
02750               4.00    -3800.00
02751               6.00    -3800.00
02752               8.00    -3800.00
02753               6.00    -3800.00
02754               6.00    -3800.00
02755               6.00    -3800.00
02756               0.00    -4000.00
02757              -2.00    -3800.00
02758               6.00    -4000.00
02759              14.00    -3800.00
02760               2.00    -3800.00
02761               0.00    -3800.00
02762               6.00    -3800.00
02763               0.00    -3800.00
02764               0.00    -3800.00
02765               6.00    -3800.00
02766               8.00    -4000.00
02767               6.00    -3800.00
02768               2.00    -3800.00
02769               0.00    -3800.00
02770              -2.00    -3800.00
02771               2.00    -3800.00
02772               8.00    -3800.00
02773               8.00    -3800.00
02774               0.00    -3800.00
02775               0.00    -3800.00
02776               2.00    -3800.00
02777               6.00    -3400.00
02778               2.00    -3800.00
02779               6.00    -3600.00
02780               8.00    -3400.00
02781               2.00    -3400.00
02782               2.00    -3400.00
02783               2.00    -3400.00
02784               2.00    -3600.00
02785               2.00    -3400.00
02786              10.00    -3400.00
02787               6.00    -3400.00
02788               4.00    -3400.00
02789               0.00    -3400.00
02790               2.00    -3400.00
02791               2.00    -3200.00
02792               6.00    -3200.00
02793               2.00    -3200.00
02794               8.00    -3200.00
02795               2.00    -3200.00
02796               0.00    -3200.00
02797               0.00    -3000.00
02798               6.00    -3000.00
02799               8.00    -3000.00
02800               6.00    -3000.00
02801               2.00    -3000.00
02802               0.00    -3000.00
02803               0.00    -2600.00
02804               6.00    -2800.00
02805               6.00    -2600.00
02806               2.00    -2600.00
02807               2.00    -2600.00
02808               4.00    -2600.00
02809               2.00    -2600.00
02810               0.00    -2600.00
02811               2.00    -2400.00
02812               6.00    -2200.00
02813               6.00    -2400.00
02814               0.00    -2200.00
02815               0.00    -2200.00
02816               2.00    -2200.00
02817              -2.00    -2200.00
02818               0.00    -2200.00
02819               2.00    -2200.00
02820               2.00    -1800.00
02821               0.00    -2000.00
02822              -2.00    -1800.00
02823              -2.00    -1800.00
02824              -2.00    -1600.00
02825               0.00    -1800.00
02826               2.00    -1600.00
02827               0.00    -1600.00
02828               0.00    -1400.00
02829              -2.00    -1400.00
02830              -2.00    -1400.00
02831              -2.00    -1400.00
02832              -2.00    -1400.00
02833               2.00    -1000.00
02834               0.00    -1000.00
02835              -6.00    -1000.00
02836              -2.00    -1200.00
02837               0.00     -800.00
02838               0.00     -800.00
02839              -2.00     -800.00
02840              -2.00    -1000.00
02841               0.00     -600.00
02842               0.00     -600.00
02843              -2.00     -600.00
02844              -6.00     -600.00
02845               0.00     -600.00
02846              -2.00     -400.00
02847              -2.00     -200.00
02848               0.00     -200.00
02849               0.00     -200.00
02850              -6.00     -200.00
02851              -8.00        0.00
02852              -2.00        0.00
02853              -2.00        0.00
02854               0.00      200.00
02855               0.00      200.00
02856              -2.00      200.00
02857               0.00      400.00
02858               8.00      400.00
02859               6.00      400.00
02860              -6.00      600.00
02861             -10.00      600.00
02862              -2.00      600.00
02863              22.00      600.00
02864             138.00     1000.00
02865             150.00     1000.00
02866            -254.00      800.00
02867            -254.00      800.00
02868             138.00     1200.00
02869             246.00     1400.00
02870             246.00     1200.00
02871            -254.00      800.00
02872            -254.00     1400.00
02873             246.00     1600.00
02874             246.00     1800.00
02875            -254.00     1000.00
02876            -254.00     1600.00
02877             246.00     1800.00
02878             208.00     1600.00
02879            -254.00     1400.00
02880             -16.00     1800.00
02881             246.00     2200.00
02882            -148.00     1600.00
02883            -254.00     1800.00
02884             226.00     2400.00
02885              94.00     2200.00
02886            -254.00     2000.00
02887              74.00     2400.00
02888             232.00     2400.00
02889            -202.00     2200.00
02890            -192.00     2400.00
02891             222.00     2600.00
02892              94.00     2400.00
02893            -170.00     2200.00
02894             -50.00     2600.00
02895              68.00     2600.00
02896               8.00     2600.00
02897             -20.00     2800.00
02898             -24.00     2600.00
02899               2.00     2800.00
02900               6.00     3000.00
02901             -50.00     3000.00
02902             -14.00     3000.00
02903              54.00     3200.00
02904             -38.00     3000.00
02905             -42.00     3000.00
02906              48.00     3200.00
02907             -30.00     3200.00
02908             -72.00     3200.00
02909              54.00     3400.00
02910              26.00     3400.00
02911             -72.00     3200.00
02912              -8.00     3400.00
02913              16.00     3400.00
02914             -22.00     3400.00
02915              -6.00     3400.00
02916              -8.00     3600.00
02917             -20.00     3400.00
02918               8.00     3600.00
02919             -16.00     3800.00
02920             -22.00     3800.00
02921              14.00     3800.00
02922             -18.00     3800.00
02923             -32.00     3800.00
02924              22.00     3800.00
02925              -2.00     3800.00
02926             -34.00     3800.00
02927               6.00     4000.00
02928               0.00     4000.00
02929             -26.00     3800.00
02930              -2.00     3800.00
02931               2.00     4000.00
02932             -16.00     3800.00
02933             -10.00     4000.00
02934             -14.00     4000.00
02935             -10.00     3800.00
02936               0.00     4200.00
02937             -16.00     4000.00
02938             -14.00     4000.00
02939               0.00     4000.00
02940             -18.00     4200.00
02941             -22.00     4000.00
02942               2.00     4200.00
02943             -10.00     3800.00
02944             -18.00     4200.00
02945               2.00     4000.00
02946             -10.00     4200.00
02947             -22.00     4200.00
02948             -10.00     4200.00
02949              -8.00     4000.00
02950             -10.00     4000.00
02951              -8.00     4000.00
02952             -12.00     4200.00
02953             -12.00     4200.00
02954             -10.00     4200.00
02955             -16.00     4200.00
02956              -8.00     4200.00
02957              -4.00     4000.00
02958             -16.00     4000.00
02959             -14.00     4000.00
02960              -6.00     4000.00
02961             -16.00     4000.00
02962             -16.00     4000.00
02963              -2.00     4200.00
02964              -6.00     4000.00
02965             -16.00     4000.00
02966             -10.00     4000.00
02967             -14.00     4000.00
02968             -16.00     4000.00
02969              -8.00     4000.00
02970              -8.00     4000.00
02971             -10.00     3800.00
02972             -14.00     4000.00
02973             -14.00     3800.00
02974              -8.00     3800.00
02975             -10.00     3800.00
02976             -14.00     3800.00
02977              -8.00     3800.00
02978              -2.00     3800.00
02979             -14.00     3800.00
02980             -12.00     3800.00
02981             -10.00     3600.00
02982             -10.00     3600.00
02983             -10.00     3600.00
02984              -4.00     3600.00
02985              -8.00     3400.00
02986             -14.00     3400.00
02987             -14.00     3400.00
02988              -8.00     3400.00
02989              -8.00     3400.00
02990              -6.00     3400.00
02991              -8.00     3200.00
02992              -8.00     3400.00
02993             -10.00     3200.00
02994             -10.00     3200.00
02995              -6.00     3000.00
02996              -6.00     3000.00
02997             -10.00     3000.00
02998              -8.00     3000.00
02999              -8.00     3000.00
03000             -10.00     3000.00
03001              -8.00     3000.00
03002              -6.00     3000.00
03003              -8.00     2600.00
03004             -10.00     2600.00
03005             -10.00     2600.00
03006             -10.00     2600.00
03007              -6.00     2600.00
03008              -8.00     2600.00
03009              -8.00     2400.00
03010              -6.00     2400.00
03011              -6.00     2400.00
03012              -6.00     2200.00
03013              -8.00     2400.00
03014             -10.00     2200.00
03015             -14.00     2200.00
03016              -6.00     2000.00
03017              -6.00     1800.00
03018              -8.00     2000.00
03019             -10.00     1800.00
03020              -8.00     1800.00
03021              -6.00     1800.00
03022              -8.00     1600.00
03023              -6.00     1600.00
03024              -6.00     1600.00
03025              -6.00     1400.00
03026             -10.00     1600.00
03027              -8.00     1400.00
03028              -2.00     1400.00
03029              -6.00     1400.00
03030              -8.00     1400.00
03031              -6.00     1000.00
03032              -2.00     1000.00
03033              -8.00     1000.00
03034             -10.00      800.00
03035              -8.00     1200.00
03036              -2.00      800.00
03037              -2.00      800.00
03038              -2.00      600.00
03039              -6.00      600.00
03040              -6.00      600.00
03041              -8.00      600.00
03042              -2.00      200.00
03043              -2.00      400.00
03044              -2.00      200.00
03045              -6.00      200.00
03046               0.00      200.00
03047               0.00      200.00
03048               2.00      200.00
03049               8.00        0.00
03050               6.00     -200.00
03051              -8.00     -200.00
03052             -10.00     -200.00
03053              -2.00     -200.00
03054              10.00     -200.00
03055              48.00     -200.00
03056             144.00     -400.00
03057              82.00     -800.00
03058            -254.00     -800.00
03059            -254.00     -600.00
03060             224.00     -600.00
03061             246.00     -600.00
03062             160.00    -1000.00
03063            -254.00    -1000.00
03064            -254.00    -1000.00
03065             246.00    -1000.00
03066             246.00    -1200.00
03067            -254.00    -1400.00
03068            -254.00    -1000.00
03069             246.00    -1400.00
03070             216.00    -1200.00
03071            -196.00    -1400.00
03072             -80.00    -1600.00
03073              74.00    -1600.00
03074             -24.00    -1400.00
03075              54.00    -1600.00
03076              96.00    -2000.00
03077            -178.00    -1600.00
03078             -88.00    -1600.00
03079             238.00    -2000.00
03080              96.00    -2000.00
03081            -254.00    -2000.00
03082             -62.00    -2200.00
03083             202.00    -2200.00
03084              64.00    -2200.00
03085            -126.00    -2400.00
03086             -48.00    -2200.00
03087              38.00    -2400.00
03088              46.00    -2400.00
03089              20.00    -2400.00
03090             -26.00    -2600.00
03091             -24.00    -2600.00
03092              14.00    -2600.00
03093              22.00    -2600.00
03094             -14.00    -2600.00
03095              -6.00    -2600.00
03096              10.00    -2600.00
03097              20.00    -2800.00
03098              -6.00    -3000.00
03099             -32.00    -2800.00
03100               2.00    -3000.00
03101              40.00    -3000.00
03102              14.00    -3000.00
03103             -32.00    -3000.00
03104             -10.00    -3000.00
03105              24.00    -3000.00
03106              16.00    -3200.00
03107              -8.00    -3200.00
03108              -6.00    -3200.00
03109               8.00    -3200.00
03110              16.00    -3400.00
03111               6.00    -3400.00
03112              -6.00    -3200.00
03113              -4.00    -3400.00
03114               8.00    -3400.00
03115              14.00    -3400.00
03116               2.00    -3400.00
03117              -2.00    -3400.00
03118               0.00    -3600.00
03119              10.00    -3400.00
03120               8.00    -3400.00
03121               0.00    -3400.00
03122               2.00    -3600.00
03123              14.00    -3800.00
03124               8.00    -3800.00
03125              -6.00    -3800.00
03126              -2.00    -3800.00
03127               8.00    -3400.00
03128              10.00    -3800.00
03129               8.00    -3800.00
03130               8.00    -3800.00
03131               0.00    -3800.00
03132               2.00    -3800.00
03133               6.00    -3800.00
03134               6.00    -3800.00
03135               8.00    -3800.00
03136               2.00    -3800.00
03137               6.00    -3800.00
03138               6.00    -4000.00
03139               0.00    -3800.00
03140               0.00    -3800.00
03141              10.00    -3800.00
03142              10.00    -3800.00
03143               0.00    -4000.00
03144               6.00    -4000.00
03145               6.00    -3800.00
03146               2.00    -3800.00
03147               2.00    -4000.00
03148               8.00    -3800.00
03149               6.00    -3800.00
03150               2.00    -3800.00
03151               4.00    -3600.00
03152               0.00    -4000.00
03153              -2.00    -3800.00
03154               6.00    -3800.00
03155               8.00    -3800.00
03156               6.00    -3600.00
03157               0.00    -3600.00
03158               0.00    -3800.00
03159               2.00    -3600.00
03160               2.00    -3600.00
03161               2.00    -3600.00
03162               8.00    -3400.00
03163               2.00    -3800.00
03164               0.00    -3400.00
03165               2.00    -3400.00
03166               2.00    -3600.00
03167               0.00    -3400.00
03168               2.00    -3400.00
03169               6.00    -3400.00
03170               6.00    -3400.00
03171               0.00    -3400.00
03172               0.00    -3400.00
03173               0.00    -3200.00
03174               6.00    -3200.00
03175               6.00    -3200.00
03176               6.00    -3200.00
03177               6.00    -3000.00
03178               0.00    -3000.00
03179               0.00    -3000.00
03180               6.00    -3000.00
03181               6.00    -3000.00
03182               6.00    -3000.00
03183               2.00    -3000.00
03184               2.00    -2800.00
03185               0.00    -2600.00
03186               0.00    -2800.00
03187               4.00    -2800.00
03188               6.00    -2600.00
03189               4.00    -2600.00
03190               2.00    -2600.00
03191               2.00    -2400.00
03192               0.00    -2400.00
03193               0.00    -2400.00
03194               4.00    -2400.00
03195               6.00    -2400.00
03196               2.00    -2400.00
03197               0.00    -2400.00
03198               0.00    -2200.00
03199               0.00    -2200.00
03200               0.00    -2200.00
03201               2.00    -2000.00
03202               2.00    -1800.00
03203               2.00    -1800.00
03204               2.00    -1800.00
03205               0.00    -1800.00
03206               0.00    -1600.00
03207               0.00    -1600.00
03208               2.00    -1600.00
03209               4.00    -1600.00
03210               0.00    -1600.00
03211              -2.00    -1400.00
03212              -2.00    -1400.00
03213              -2.00    -1400.00
03214              -2.00    -1200.00
03215               2.00    -1400.00
03216               2.00    -1200.00
03217              -2.00    -1200.00
03218              -6.00    -1000.00
03219              -2.00    -1000.00
03220               0.00    -1000.00
03221               0.00    -1000.00
03222              -4.00     -800.00
03223               0.00     -600.00
03224              -2.00     -600.00
03225              -2.00     -600.00
03226              -2.00     -600.00
03227              -2.00     -400.00
03228               0.00     -600.00
03229              -2.00     -200.00
03230              -2.00     -200.00
03231              -4.00     -200.00
03232              -6.00     -200.00
03233              -4.00     -200.00
03234              -2.00     -200.00
03235              -2.00        0.00
03236              -2.00      200.00
03237               0.00      200.00
03238               2.00      200.00
03239               2.00      400.00
03240               0.00      200.00
03241               6.00      600.00
03242               0.00      600.00
03243              -8.00      800.00
03244              -8.00      600.00
03245               0.00      800.00
03246              70.00      800.00
03247             186.00     1000.00
03248             -20.00     1200.00
03249            -254.00      800.00
03250            -254.00     1000.00
03251             246.00     1200.00
03252             246.00     1400.00
03253            -254.00     1000.00
03254            -254.00     1200.00
03255             148.00     1600.00
03256             246.00     1800.00
03257             -92.00     1400.00
03258            -254.00     1200.00
03259             112.00     1800.00
03260             246.00     1800.00
03261            -254.00     1400.00
03262            -254.00     1600.00
03263             246.00     2200.00
03264             166.00     1800.00
03265            -254.00     1800.00
03266              -2.00     2200.00
03267             246.00     2200.00
03268            -166.00     2000.00
03269            -158.00     2200.00
03270             246.00     2400.00
03271              18.00     2200.00
03272            -254.00     2200.00
03273              50.00     2400.00
03274             230.00     2400.00
03275             -82.00     2400.00
03276            -150.00     2600.00
03277              40.00     2600.00
03278              42.00     2600.00
03279             -10.00     2600.00
03280             -24.00     2800.00
03281             -14.00     2800.00
03282              14.00     2800.00
03283             -22.00     3000.00
03284             -52.00     3000.00
03285              38.00     3200.00
03286              16.00     3000.00
03287             -62.00     3000.00
03288              14.00     3200.00
03289              28.00     3200.00
03290             -82.00     3200.00
03291              -6.00     3200.00
03292              64.00     3400.00
03293             -38.00     3200.00
03294             -56.00     3400.00
03295              22.00     3600.00
03296              -6.00     3400.00
03297             -20.00     3400.00
03298               0.00     3600.00
03299             -24.00     3400.00
03300              -2.00     3800.00
03301               0.00     3600.00
03302             -32.00     3800.00
03303               0.00     3800.00
03304               8.00     3800.00
03305             -40.00     3800.00
03306              -6.00     3800.00
03307              18.00     3800.00
03308             -30.00     3800.00
03309             -16.00     3800.00
03310              10.00     4000.00
03311             -24.00     3800.00
03312             -22.00     3800.00
03313               8.00     4000.00
03314              -8.00     4000.00
03315             -16.00     4000.00
03316             -14.00     4000.00
03317             -16.00     4000.00
03318               0.00     4000.00
03319              -6.00     4200.00
03320             -22.00     4000.00
03321              -2.00     4200.00
03322              -8.00     4000.00
03323             -24.00     4200.00
03324              -6.00     4000.00
03325              -2.00     4000.00
03326             -22.00     4000.00
03327              -8.00     4000.00
03328               2.00     4200.00
03329             -18.00     4000.00
03330             -18.00     4200.00
03331              -8.00     4200.00
03332              -8.00     4000.00
03333              -4.00     4000.00
03334              -8.00     4200.00
03335             -14.00     4200.00
03336             -12.00     4000.00
03337             -14.00     4000.00
03338             -10.00     4000.00
03339              -2.00     4000.00
03340              -8.00     4000.00
03341             -18.00     4200.00
03342             -12.00     4200.00
03343             -14.00     4000.00
03344             -16.00     4000.00
03345              -2.00     4000.00
03346              -6.00     4000.00
03347             -18.00     4000.00
03348             -14.00     4000.00
03349             -10.00     4000.00
03350             -10.00     4000.00
03351             -10.00     4000.00
03352             -10.00     4000.00
03353             -10.00     3800.00
03354             -10.00     4000.00
03355             -14.00     3800.00
03356             -10.00     4000.00
03357             -10.00     3800.00
03358             -14.00     3800.00
03359             -10.00     3800.00
03360              -6.00     3800.00
03361             -10.00     3800.00
03362             -16.00     3600.00
03363             -10.00     3800.00
03364             -10.00     3600.00
03365             -14.00     3400.00
03366              -8.00     3400.00
03367              -4.00     3400.00
03368             -10.00     3400.00
03369             -10.00     3400.00
03370             -10.00     3400.00
03371             -10.00     3200.00
03372              -8.00     3400.00
03373              -6.00     3400.00
03374              -6.00     3200.00
03375             -10.00     3200.00
03376             -18.00     3200.00
03377             -10.00     3200.00
03378              -2.00     3000.00
03379              -6.00     3000.00
03380              -8.00     3200.00
03381              -8.00     3000.00
03382             -10.00     3000.00
03383             -10.00     3000.00
03384              -4.00     3000.00
03385              -4.00     3000.00
03386             -10.00     2800.00
03387             -10.00     2800.00
03388              -8.00     2600.00
03389              -2.00     2600.00
03390              -8.00     2600.00
03391              -8.00     2400.00
03392              -6.00     2400.00
03393              -6.00     2200.00
03394              -6.00     2200.00
03395              -6.00     2200.00
03396              -6.00     2200.00
03397             -12.00     2200.00
03398             -10.00     2200.00
03399              -2.00     2000.00
03400               0.00     2000.00
03401              -6.00     1800.00
03402              -8.00     1800.00
03403              -6.00     1800.00
03404              -8.00     1800.00
03405              -2.00     1600.00
03406               0.00     1800.00
03407              -2.00     1600.00
03408             -10.00     1400.00
03409             -14.00     1400.00
03410              -6.00     1400.00
03411              -2.00     1400.00
03412              -6.00     1200.00
03413              -6.00     1000.00
03414              -2.00     1200.00
03415              -6.00     1000.00
03416              -8.00      800.00
03417              -6.00      800.00
03418              -4.00      800.00
03419              -6.00      800.00
03420              -6.00      600.00
03421              -6.00      800.00
03422              -2.00      600.00
03423              -6.00      600.00
03424              -6.00      600.00
03425              -6.00      200.00
03426              -6.00      400.00
03427              -6.00      200.00
03428               0.00      200.00
03429               0.00        0.00
03430               0.00        0.00
03431               0.00        0.00
03432               6.00        0.00
03433               0.00     -200.00
03434              -2.00     -200.00
03435              -8.00     -200.00
03436               0.00     -200.00
03437              22.00     -200.00
03438              96.00     -400.00
03439             154.00     -600.00
03440            -106.00     -800.00
03441            -254.00     -600.00
03442            -150.00     -400.00
03443             246.00     -600.00
03444             246.00    -1000.00
03445            -254.00    -1200.00
03446            -254.00     -800.00
03447             240.00    -1000.00
03448             246.00     -800.00
03449            -110.00    -1200.00
03450            -254.00    -1000.00
03451              50.00    -1200.00
03452             246.00    -1400.00
03453             -34.00    -1200.00
03454            -206.00    -1600.00
03455              54.00    -1400.00
03456               6.00    -1600.00
03457               6.00    -1400.00
03458             104.00    -1800.00
03459             -32.00    -1800.00
03460            -210.00    -1600.00
03461             108.00    -1800.00
03462             240.00    -2200.00
03463            -134.00    -2000.00
03464            -218.00    -2000.00
03465             114.00    -2200.00
03466             182.00    -2000.00
03467             -70.00    -2400.00
03468             -98.00    -2400.00
03469               0.00    -2400.00
03470              54.00    -2200.00
03471              30.00    -2400.00
03472               0.00    -2600.00
03473             -38.00    -2600.00
03474              -2.00    -2600.00
03475              24.00    -2600.00
03476               2.00    -2600.00
03477             -14.00    -2600.00
03478               2.00    -2600.00
03479              22.00    -3000.00
03480               6.00    -3000.00
03481             -22.00    -3000.00
03482             -22.00    -2600.00
03483              32.00    -3000.00
03484              32.00    -3200.00
03485             -18.00    -3000.00
03486             -30.00    -3000.00
03487              16.00    -3200.00
03488              24.00    -3200.00
03489              -2.00    -3200.00
03490             -10.00    -3200.00
03491               0.00    -3200.00
03492              14.00    -3400.00
03493              10.00    -3400.00
03494              -6.00    -3400.00
03495              -8.00    -3400.00
03496               6.00    -3400.00
03497              14.00    -3400.00
03498               8.00    -3400.00
03499               0.00    -3400.00
03500              -2.00    -3600.00
03501               6.00    -3400.00
03502              10.00    -3600.00
03503               6.00    -3400.00
03504              -6.00    -3400.00
03505               6.00    -3800.00
03506              14.00    -3800.00
03507               0.00    -3600.00
03508              -6.00    -3800.00
03509               4.00    -3800.00
03510               8.00    -3800.00
03511               8.00    -3800.00
03512               8.00    -3800.00
03513               2.00    -3800.00
03514               0.00    -3800.00
03515               6.00    -3800.00
03516               8.00    -3800.00
03517               8.00    -3800.00
03518               4.00    -3800.00
03519               6.00    -3800.00
03520               8.00    -3800.00
03521               2.00    -3800.00
03522              -2.00    -3800.00
03523               6.00    -3800.00
03524              14.00    -3800.00
03525               6.00    -3800.00
03526               2.00    -3800.00
03527               6.00    -3800.00
03528               0.00    -3800.00
03529               2.00    -3800.00
03530               8.00    -3800.00
03531               8.00    -3600.00
03532               6.00    -3800.00
03533               4.00    -3600.00
03534               6.00    -3800.00
03535               0.00    -3800.00
03536               2.00    -3800.00
03537               6.00    -3800.00
03538               8.00    -3800.00
03539               2.00    -3800.00
03540               0.00    -3800.00
03541               0.00    -3800.00
03542               2.00    -3600.00
03543               2.00    -3600.00
03544               8.00    -3800.00
03545              10.00    -3600.00
03546               2.00    -3400.00
03547               0.00    -3600.00
03548               0.00    -3400.00
03549               4.00    -3400.00
03550               6.00    -3400.00
03551               8.00    -3400.00
03552               2.00    -3400.00
03553               0.00    -3400.00
03554               0.00    -3200.00
03555               2.00    -3400.00
03556               2.00    -3200.00
03557               2.00    -3200.00
03558               2.00    -3200.00
03559               4.00    -3200.00
03560               2.00    -3200.00
03561              -2.00    -3200.00
03562               0.00    -3200.00
03563               2.00    -3000.00
03564               2.00    -3000.00
03565               6.00    -3000.00
03566               2.00    -3000.00
03567              -2.00    -2800.00
03568              -2.00    -2600.00
03569               2.00    -2600.00
03570               8.00    -2600.00
03571               4.00    -2600.00
03572               0.00    -2600.00
03573               0.00    -2400.00
03574               0.00    -2400.00
03575               2.00    -2600.00
03576               6.00    -2600.00
03577               2.00    -2400.00
03578               2.00    -2400.00
03579               0.00    -2200.00
03580               0.00    -2200.00
03581               0.00    -2200.00
03582               0.00    -2200.00
03583               0.00    -2000.00
03584               2.00    -1800.00
03585               2.00    -2000.00
03586               6.00    -1800.00
03587               2.00    -1800.00
03588              -2.00    -1800.00
03589              -2.00    -1600.00
03590               0.00    -1600.00
03591               6.00    -1400.00
03592               6.00    -1600.00
03593              -2.00    -1400.00
03594              -2.00    -1400.00
03595              -2.00    -1400.00
03596               0.00    -1400.00
03597               0.00    -1200.00
03598               2.00    -1400.00
03599               0.00    -1000.00
03600              -6.00    -1000.00
03601              -6.00    -1000.00
03602              -2.00     -800.00
03603               2.00    -1000.00
03604              -2.00     -800.00
03605              -2.00     -800.00
03606               0.00     -800.00
03607              -2.00     -600.00
03608              -4.00     -600.00
03609              -6.00     -600.00
03610               0.00     -600.00
03611               0.00     -400.00
03612              -2.00     -200.00
03613              -2.00     -200.00
03614              -2.00     -200.00
03615              -6.00        0.00
03616              -2.00     -200.00
03617              -4.00        0.00
03618              -2.00        0.00
03619              -2.00      200.00
03620               0.00        0.00
03621              -2.00      200.00
03622               0.00      200.00
03623               6.00      400.00
03624               2.00      400.00
03625              -6.00      400.00
03626             -14.00      600.00
03627              -6.00      600.00
03628              24.00      800.00
03629             144.00      800.00
03630             138.00     1200.00
03631            -254.00     1000.00
03632            -254.00      800.00
03633             176.00     1200.00
03634             246.00     1400.00
03635             246.00     1200.00
03636            -254.00      800.00
03637            -254.00     1400.00
03638             246.00     1400.00
03639             246.00     1600.00
03640            -254.00     1000.00
03641            -254.00     1600.00
03642             246.00     1800.00
03643             166.00     1600.00
03644            -254.00     1400.00
03645              18.00     2000.00
03646             246.00     2200.00
03647            -176.00     1800.00
03648            -250.00     1800.00
03649             238.00     2200.00
03650              74.00     2200.00
03651            -254.00     1800.00
03652              96.00     2400.00
03653             222.00     2400.00
03654            -218.00     2200.00
03655            -170.00     2400.00
03656             232.00     2600.00
03657              80.00     2400.00
03658            -176.00     2400.00
03659             -46.00     2800.00
03660              68.00     2600.00
03661               8.00     2600.00
03662             -16.00     2800.00
03663             -22.00     2600.00
03664               2.00     2600.00
03665               8.00     3000.00
03666             -50.00     3000.00
03667              -8.00     3000.00
03668              48.00     3000.00
03669             -40.00     3000.00
03670             -38.00     3000.00
03671              50.00     3200.00
03672             -36.00     3200.00
03673             -70.00     3200.00
03674              54.00     3400.00
03675              24.00     3400.00
03676             -70.00     3200.00
03677             -10.00     3400.00
03678              16.00     3600.00
03679             -24.00     3400.00
03680              -2.00     3600.00
03681             -10.00     3400.00
03682             -20.00     3400.00
03683               2.00     3600.00
03684             -22.00     3600.00
03685             -26.00     3800.00
03686              18.00     3800.00
03687             -22.00     3800.00
03688             -32.00     3800.00
03689              16.00     3800.00
03690              -8.00     3800.00
03691             -34.00     3800.00
03692               6.00     4000.00
03693              -6.00     3800.00
03694             -32.00     3800.00
03695              -2.00     4000.00
03696               0.00     4000.00
03697             -16.00     3800.00
03698             -14.00     4000.00
03699             -16.00     4000.00
03700             -10.00     4000.00
03701              -2.00     4000.00
03702             -18.00     4000.00
03703             -10.00     4000.00
03704               2.00     4200.00
03705             -22.00     4000.00
03706             -22.00     4200.00
03707               0.00     4000.00
03708             -10.00     4000.00
03709             -16.00     4000.00
03710               0.00     4000.00
03711             -10.00     4000.00
03712             -24.00     4200.00
03713             -12.00     4200.00
03714              -6.00     4000.00
03715              -6.00     4000.00
03716              -6.00     4000.00
03717             -14.00     4200.00
03718             -16.00     4000.00
03719             -10.00     4200.00
03720             -16.00     4200.00
03721              -4.00     4000.00
03722               0.00     4200.00
03723             -14.00     4000.00
03724             -16.00     4200.00
03725              -8.00     4000.00
03726             -14.00     4000.00
03727             -10.00     4000.00
03728              -2.00     4000.00
03729             -10.00     4000.00
03730             -16.00     3800.00
03731              -8.00     4000.00
03732             -10.00     4000.00
03733             -16.00     4000.00
03734             -10.00     3800.00
03735              -8.00     3800.00
03736              -6.00     4000.00
03737             -12.00     3800.00
03738             -16.00     3800.00
03739             -10.00     3800.00
03740             -10.00     3800.00
03741             -12.00     3800.00
03742              -6.00     3800.00
03743              -8.00     3800.00
03744             -16.00     3800.00
03745             -14.00     3600.00
03746              -6.00     3600.00
03747             -10.00     3600.00
03748             -10.00     3400.00
03749              -6.00     3600.00
03750             -10.00     3600.00
03751             -12.00     3400.00
03752             -10.00     3400.00
03753             -10.00     3400.00
03754             -10.00     3400.00
03755             -10.00     3400.00
03756             -10.00     3400.00
03757              -8.00     3400.00
03758             -14.00     3200.00
03759             -14.00     3200.00
03760             -10.00     3000.00
03761              -6.00     3200.00
03762              -8.00     3000.00
03763              -8.00     3000.00
03764             -10.00     3000.00
03765             -10.00     3000.00
03766             -10.00     2800.00
03767              -6.00     2800.00
03768              -8.00     2800.00
03769             -10.00     2600.00
03770             -10.00     2600.00
03771              -6.00     2600.00
03772              -8.00     2600.00
03773              -6.00     2600.00
03774              -6.00     2600.00
03775              -6.00     2400.00
03776             -10.00     2400.00
03777              -8.00     2400.00
03778              -4.00     2200.00
03779              -6.00     2200.00
03780             -14.00     2200.00
03781              -6.00     2000.00
03782              -2.00     2000.00
03783              -2.00     1800.00
03784              -8.00     1800.00
03785              -8.00     1800.00
03786              -8.00     1800.00
03787              -8.00     1600.00
03788              -2.00     1600.00
03789               0.00     1600.00
03790              -6.00     1400.00
03791             -10.00     1400.00
03792              -6.00     1400.00
03793              -2.00     1400.00
03794              -2.00     1400.00
03795              -8.00     1400.00
03796              -2.00     1000.00
03797              -2.00     1000.00
03798              -6.00      800.00
03799              -8.00     1000.00
03800              -8.00      800.00
03801              -6.00      800.00
03802              -6.00      800.00
03803              -2.00      600.00
03804              -4.00      600.00
03805              -8.00      600.00
03806             -10.00      600.00
03807              -6.00      200.00
03808              -2.00      400.00
03809              -2.00      400.00
03810              -6.00      200.00
03811              -2.00        0.00
03812               0.00        0.00
03813               2.00        0.00
03814               6.00     -200.00
03815               6.00        0.00
03816              -4.00     -200.00
03817             -10.00     -200.00
03818              -6.00     -200.00
03819               8.00     -200.00
03820              48.00     -400.00
03821             146.00     -400.00
03822              70.00     -600.00
03823            -254.00    -1000.00
03824            -254.00     -600.00
03825             246.00     -600.00
03826             246.00     -800.00
03827             106.00    -1200.00
03828            -254.00     -800.00
03829            -254.00    -1000.00
03830             246.00    -1000.00
03831             246.00    -1000.00
03832            -254.00    -1200.00
03833            -254.00    -1200.00
03834             246.00    -1400.00
03835             194.00    -1400.00
03836            -204.00    -1400.00
03837             -66.00    -1600.00
03838              66.00    -1600.00
03839             -24.00    -1400.00
03840              58.00    -1600.00
03841              88.00    -2000.00
03842            -190.00    -1600.00
03843             -74.00    -1800.00
03844             242.00    -2000.00
03845              80.00    -1800.00
03846            -254.00    -1800.00
03847             -46.00    -2000.00
03848             208.00    -2200.00
03849              54.00    -2200.00
03850            -126.00    -2400.00
03851             -44.00    -2200.00
03852              42.00    -2400.00
03853              48.00    -2400.00
03854              20.00    -2400.00
03855             -32.00    -2400.00
03856             -24.00    -2600.00
03857              16.00    -2600.00
03858              22.00    -2600.00
03859             -14.00    -2600.00
03860              -6.00    -2800.00
03861              12.00    -2600.00
03862              18.00    -3000.00
03863              -8.00    -3000.00
03864             -32.00    -2800.00
03865               2.00    -3000.00
03866              40.00    -3000.00
03867              10.00    -3000.00
03868             -36.00    -3000.00
03869              -8.00    -3200.00
03870              22.00    -3200.00
03871              16.00    -3200.00
03872             -10.00    -3400.00
03873             -10.00    -3200.00
03874               6.00    -3200.00
03875              16.00    -3200.00
03876               6.00    -3200.00
03877             -10.00    -3400.00
03878              -2.00    -3200.00
03879               8.00    -3400.00
03880              14.00    -3400.00
03881               2.00    -3600.00
03882              -2.00    -3400.00
03883              -2.00    -3400.00
03884               6.00    -3400.00
03885               8.00    -3600.00
03886               0.00    -3400.00
03887               0.00    -3600.00
03888              10.00    -3600.00
03889               8.00    -3800.00
03890              -6.00    -3800.00
03891               0.00    -3600.00
03892               8.00    -3800.00
03893               6.00    -3800.00
03894               6.00    -3800.00
03895               6.00    -3800.00
03896               0.00    -4000.00
03897               0.00    -3800.00
03898               6.00    -3800.00
03899               6.00    -3800.00
03900               8.00    -3800.00
03901               6.00    -3800.00
03902               6.00    -3800.00
03903               6.00    -3800.00
03904              -2.00    -3800.00
03905               2.00    -3800.00
03906              14.00    -3800.00
03907              10.00    -3800.00
03908               2.00    -3800.00
03909               2.00    -3800.00
03910               4.00    -4000.00
03911               2.00    -3800.00
03912               6.00    -3800.00
03913              10.00    -3800.00
03914               6.00    -3800.00
03915               6.00    -3800.00
03916               2.00    -3800.00
03917               0.00    -3800.00
03918               2.00    -3800.00
03919              10.00    -3800.00
03920              12.00    -3600.00
03921               6.00    -3600.00
03922               0.00    -3800.00
03923               4.00    -3800.00
03924               6.00    -3800.00
03925               0.00    -3600.00
03926               4.00    -3400.00
03927               8.00    -3800.00
03928               8.00    -3400.00
03929               2.00    -3400.00
03930               0.00    -3600.00
03931               2.00    -3400.00
03932               0.00    -3400.00
03933               8.00    -3400.00
03934               6.00    -3600.00
03935               2.00    -3400.00
03936               0.00    -3400.00
03937               0.00    -3400.00
03938               2.00    -3200.00
03939               4.00    -3200.00
03940               2.00    -3200.00
03941               6.00    -3200.00
03942               4.00    -3000.00
03943               0.00    -3200.00
03944              -2.00    -3000.00
03945               2.00    -3000.00
03946               0.00    -3000.00
03947               6.00    -3000.00
03948               6.00    -2800.00
03949               0.00    -3000.00
03950              -6.00    -2600.00
03951              -2.00    -3000.00
03952               4.00    -2600.00
03953               8.00    -2600.00
03954               2.00    -2600.00
03955               0.00    -2600.00
03956               0.00    -2600.00
03957               0.00    -2400.00
03958               0.00    -2400.00
03959               2.00    -2400.00
03960               0.00    -2400.00
03961               0.00    -2400.00
03962               6.00    -2400.00
03963               8.00    -2200.00
03964               0.00    -2200.00
03965             -10.00    -2000.00
03966              -4.00    -2000.00
03967              10.00    -2000.00
03968              14.00    -1800.00
03969               2.00    -1800.00
03970             -10.00    -1800.00
03971             -10.00    -1600.00
03972               2.00    -1600.00
03973              14.00    -1600.00
03974               8.00    -1600.00
03975              -6.00    -1400.00
03976             -10.00    -1400.00
03977               0.00    -1400.00
03978               8.00    -1400.00
03979               0.00    -1400.00
03980              -6.00    -1200.00
03981              -2.00    -1400.00
03982               6.00    -1000.00
03983               4.00    -1000.00
03984             -10.00     -800.00
03985             -10.00    -1000.00
03986              -2.00     -800.00
03987              10.00     -800.00
03988               6.00     -600.00
03989              -6.00     -600.00
03990             -14.00     -600.00
03991              -6.00     -600.00
03992               6.00     -600.00
03993               6.00     -600.00
03994              -2.00     -400.00
03995             -10.00     -200.00
03996              -6.00     -200.00
03997               0.00     -200.00
03998              -2.00     -200.00
03999              -6.00        0.00
04000              -2.00        0.00
04001              -6.00      200.00
04002               0.00        0.00
04003               2.00      200.00
04004               0.00      200.00
04005               2.00      400.00
04006               2.00      600.00
04007              -2.00      400.00
04008              -8.00      600.00
04009              -8.00      600.00
04010               2.00      800.00
04011              74.00      600.00
04012             182.00     1200.00
04013             -42.00     1000.00
04014            -254.00      800.00
04015            -226.00     1200.00
04016             246.00     1200.00
04017             246.00     1400.00
04018            -254.00      800.00
04019            -254.00     1000.00
04020             200.00     1400.00
04021             246.00     1600.00
04022            -154.00     1400.00
04023            -254.00     1200.00
04024             154.00     1800.00
04025             246.00     1800.00
04026            -254.00     1400.00
04027            -254.00     1800.00
04028             246.00     2200.00
04029             146.00     1800.00
04030            -254.00     1600.00
04031              18.00     2200.00
04032             246.00     2200.00
04033            -178.00     2000.00
04034            -138.00     2200.00
04035             246.00     2400.00
04036              -8.00     2200.00
04037            -254.00     2200.00
04038              70.00     2600.00
04039             224.00     2400.00
04040             -94.00     2600.00
04041            -144.00     2400.00
04042              46.00     2600.00
04043              40.00     2400.00
04044             -14.00     2600.00
04045             -24.00     2800.00
04046             -10.00     2600.00
04047              14.00     3000.00
04048             -26.00     3000.00
04049             -50.00     3000.00
04050              42.00     3000.00
04051              12.00     3000.00
04052             -60.00     3000.00
04053              16.00     3200.00
04054              26.00     3200.00
04055             -80.00     3000.00
04056              -2.00     3200.00
04057              66.00     3400.00
04058             -38.00     3200.00
04059             -50.00     3400.00
04060              22.00     3400.00
04061             -14.00     3400.00
04062             -18.00     3600.00
04063               2.00     3600.00
04064             -22.00     3400.00
04065              -2.00     3600.00
04066              -2.00     3800.00
04067             -32.00     3800.00
04068               2.00     3800.00
04069               6.00     3800.00
04070             -42.00     3800.00
04071               0.00     3800.00
04072              16.00     3800.00
04073             -34.00     3800.00
04074             -14.00     3800.00
04075              10.00     4000.00
04076             -24.00     3800.00
04077             -20.00     3800.00
04078               2.00     4000.00
04079             -10.00     3800.00
04080             -10.00     3800.00
04081             -14.00     4000.00
04082             -18.00     4000.00
04083              -4.00     4000.00
04084              -8.00     4000.00
04085             -18.00     4200.00
04086               0.00     4000.00
04087             -10.00     4000.00
04088             -26.00     4000.00
04089              -2.00     4200.00
04090               0.00     4000.00
04091             -22.00     4200.00
04092              -6.00     4000.00
04093               0.00     4000.00
04094             -18.00     4000.00
04095             -16.00     4200.00
04096              -8.00     4200.00
04097              -8.00     4200.00
04098              -6.00     4200.00
04099             -10.00     4200.00
04100             -10.00     4000.00
04101             -10.00     4200.00
04102             -16.00     4200.00
04103             -14.00     4000.00
04104               0.00     4200.00
04105              -2.00     4000.00
04106             -16.00     4000.00
04107             -10.00     4200.00
04108             -14.00     4000.00
04109             -16.00     4000.00
04110              -2.00     4000.00
04111              -2.00     4000.00
04112             -16.00     4000.00
04113             -10.00     4000.00
04114             -10.00     4000.00
04115             -14.00     3800.00
04116              -8.00     4000.00
04117              -6.00     4000.00
04118              -8.00     3800.00
04119             -14.00     4000.00
04120             -14.00     3800.00
04121             -10.00     3800.00
04122              -8.00     3800.00
04123             -14.00     3800.00
04124             -10.00     3800.00
04125              -6.00     3800.00
04126             -10.00     3800.00
04127             -16.00     3800.00
04128             -14.00     3600.00
04129             -10.00     3800.00
04130             -10.00     3600.00
04131              -6.00     3400.00
04132              -8.00     3600.00
04133             -14.00     3400.00
04134             -16.00     3400.00
04135             -10.00     3400.00
04136              -8.00     3400.00
04137             -10.00     3200.00
04138             -10.00     3400.00
04139             -10.00     3200.00
04140             -10.00     3200.00
04141             -16.00     3200.00
04142              -8.00     3200.00
04143              -8.00     3000.00
04144             -10.00     3000.00
04145             -10.00     3000.00
04146              -8.00     3000.00
04147              -8.00     2800.00
04148             -12.00     3000.00
04149             -10.00     2800.00
04150              -8.00     2800.00
04151              -8.00     2800.00
04152              -8.00     2600.00
04153             -10.00     2600.00
04154              -8.00     2600.00
04155             -10.00     2600.00
04156             -10.00     2400.00
04157              -2.00     2400.00
04158              -6.00     2400.00
04159              -8.00     2200.00
04160              -8.00     2200.00
04161              -8.00     2200.00
04162             -10.00     2200.00
04163              -4.00     2200.00
04164              -4.00     2000.00
04165             -10.00     2000.00
04166             -10.00     2000.00
04167               0.00     1800.00
04168               6.00     1800.00
04169              -8.00     1800.00
04170             -18.00     1600.00
04171             -14.00     1600.00
04172               4.00     1400.00
04173               6.00     1400.00
04174              -4.00     1400.00
04175             -14.00     1400.00
04176             -16.00     1400.00
04177              -4.00     1400.00
04178               6.00     1200.00
04179               2.00     1200.00
04180             -10.00     1000.00
04181             -10.00      800.00
04182               0.00     1200.00
04183               2.00     1000.00
04184             -10.00      800.00
04185             -10.00      800.00
04186              -2.00      600.00
04187              14.00      600.00
04188               2.00      600.00
04189             -18.00      600.00
04190             -16.00      200.00
04191              -2.00      200.00
04192               8.00      200.00
04193               6.00      200.00
04194              -6.00        0.00
04195             -12.00        0.00
04196               0.00        0.00
04197              14.00        0.00
04198               6.00        0.00
04199             -10.00     -200.00
04200             -14.00     -200.00
04201              -2.00     -200.00
04202              24.00     -200.00
04203             102.00     -600.00
04204             150.00     -600.00
04205            -128.00     -800.00
04206            -254.00     -600.00
04207            -116.00     -600.00
04208             246.00     -600.00
04209             246.00     -800.00
04210            -254.00    -1400.00
04211            -254.00     -800.00
04212             246.00    -1000.00
04213             246.00    -1000.00
04214            -154.00    -1400.00
04215            -254.00    -1200.00
04216              86.00    -1400.00
04217             246.00    -1400.00
04218             -60.00    -1200.00
04219            -206.00    -1600.00
04220              64.00    -1400.00
04221               6.00    -1400.00
04222               8.00    -1600.00
04223             102.00    -2000.00
04224             -50.00    -1800.00
04225            -202.00    -1600.00
04226             128.00    -1800.00
04227             232.00    -2000.00
04228            -152.00    -1800.00
04229            -208.00    -2000.00
04230             128.00    -2200.00
04231             174.00    -2200.00
04232             -80.00    -2200.00
04233             -96.00    -2200.00
04234               6.00    -2200.00
04235              56.00    -2400.00
04236              30.00    -2400.00
04237              -2.00    -2400.00
04238             -34.00    -2400.00
04239               0.00    -2600.00
04240              26.00    -2600.00
04241               0.00    -2600.00
04242             -10.00    -2600.00
04243               4.00    -2600.00
04244              26.00    -2600.00
04245               8.00    -2800.00
04246             -22.00    -2800.00
04247             -22.00    -2800.00
04248              32.00    -3000.00
04249              38.00    -3000.00
04250             -16.00    -3000.00
04251             -30.00    -3000.00
04252              14.00    -3200.00
04253              24.00    -3000.00
04254               0.00    -3200.00
04255             -10.00    -3200.00
04256              -2.00    -3200.00
04257              16.00    -3200.00
04258              10.00    -3400.00
04259              -2.00    -3400.00
04260              -8.00    -3400.00
04261               2.00    -3400.00
04262              14.00    -3200.00
04263              10.00    -3600.00
04264              -2.00    -3400.00
04265              -2.00    -3400.00
04266               2.00    -3400.00
04267              10.00    -3800.00
04268               2.00    -3600.00
04269              -2.00    -3400.00
04270               6.00    -3600.00
04271              14.00    -3600.00
04272               0.00    -3800.00
04273              -6.00    -3800.00
04274               2.00    -3600.00
04275               8.00    -3600.00
04276               6.00    -3800.00
04277               6.00    -3800.00
04278               4.00    -3800.00
04279               0.00    -3800.00
04280               2.00    -3800.00
04281               2.00    -3800.00
04282               8.00    -3800.00
04283               6.00    -3800.00
04284               4.00    -3800.00
04285               8.00    -3800.00
04286               0.00    -3800.00
04287              -2.00    -3800.00
04288               6.00    -3800.00
04289              14.00    -3800.00
04290               6.00    -3800.00
04291               2.00    -4000.00
04292               6.00    -3800.00
04293               0.00    -3800.00
04294               2.00    -3800.00
04295              10.00    -3800.00
04296              12.00    -3800.00
04297               6.00    -3800.00
04298               2.00    -3800.00
04299               2.00    -3800.00
04300               2.00    -3800.00
04301               6.00    -3800.00
04302               8.00    -3800.00
04303               8.00    -3400.00
04304               2.00    -3600.00
04305               2.00    -3600.00
04306               6.00    -3800.00
04307               2.00    -3600.00
04308               6.00    -3400.00
04309               8.00    -3400.00
04310               8.00    -3600.00
04311               6.00    -3400.00
04312               2.00    -3400.00
04313               4.00    -3400.00
04314               2.00    -3400.00
04315               2.00    -3400.00
04316               6.00    -3400.00
04317               6.00    -3400.00
04318               2.00    -3400.00
04319               2.00    -3200.00
04320               0.00    -3400.00
04321               2.00    -3400.00
04322               4.00    -3200.00
04323               6.00    -3200.00
04324               6.00    -3000.00
04325               0.00    -3000.00
04326              -2.00    -3200.00
04327               0.00    -3000.00
04328               2.00    -3000.00
04329               2.00    -3000.00
04330               6.00    -3000.00
04331               2.00    -3000.00
04332              -2.00    -2800.00
04333               0.00    -2600.00
04334               0.00    -2800.00
04335               2.00    -2600.00
04336               4.00    -2600.00
04337               0.00    -2600.00
04338               0.00    -2600.00
04339               0.00    -2600.00
04340              -2.00    -2600.00
04341               2.00    -2600.00
04342               2.00    -2200.00
04343               0.00    -2200.00
04344               0.00    -2200.00
04345               0.00    -2200.00
04346               0.00    -2400.00
04347              -2.00    -2200.00
04348               0.00    -2000.00
04349               2.00    -2200.00
04350               2.00    -1800.00
04351               0.00    -1800.00
04352               0.00    -1800.00
04353              -2.00    -1800.00
04354              -2.00    -1800.00
04355               0.00    -1600.00
04356               2.00    -1600.00
04357               0.00    -1400.00
04358               0.00    -1600.00
04359               0.00    -1400.00
04360              -2.00    -1400.00
04361               0.00    -1400.00
04362               0.00    -1400.00
04363               2.00    -1200.00
04364               0.00    -1000.00
04365              -2.00    -1000.00
04366              -2.00    -1000.00
04367               0.00     -800.00
04368              -2.00     -800.00
04369               0.00     -800.00
04370               0.00     -800.00
04371               0.00     -800.00
04372              -2.00     -600.00
04373              -2.00     -600.00
04374              -2.00     -600.00
04375               2.00     -400.00
04376               0.00     -400.00
04377              -2.00     -200.00
04378               0.00     -200.00
04379               0.00     -200.00
04380              -4.00     -200.00
04381              -2.00        0.00
04382              -2.00        0.00
04383              -2.00        0.00
04384              -2.00        0.00
04385               0.00      200.00
04386               0.00      200.00
04387               0.00      200.00
04388               6.00      600.00
04389               0.00      400.00
04390              -8.00      600.00
04391             -10.00      600.00
04392              -2.00      600.00
04393              26.00      600.00
04394             146.00      800.00
04395             130.00     1200.00
04396            -254.00      800.00
04397            -254.00      800.00
04398             206.00     1200.00
04399             246.00     1400.00
04400             202.00     1400.00
04401            -254.00      800.00
04402            -254.00     1400.00
04403             246.00     1600.00
04404             246.00     1600.00
04405            -254.00     1000.00
04406            -254.00     1600.00
04407             246.00     1800.00
04408             128.00     1600.00
04409            -254.00     1400.00
04410              42.00     2000.00
04411             246.00     2200.00
04412            -194.00     1600.00
04413            -238.00     1800.00
04414             246.00     2200.00
04415              54.00     2200.00
04416            -254.00     2200.00
04417             112.00     2200.00
04418             208.00     2400.00
04419            -230.00     2400.00
04420            -156.00     2400.00
04421             238.00     2600.00
04422              64.00     2400.00
04423            -176.00     2600.00
04424             -32.00     2600.00
04425              66.00     2600.00
04426               8.00     2600.00
04427             -22.00     2800.00
04428             -24.00     2600.00
04429               8.00     3000.00
04430               8.00     3000.00
04431             -50.00     3000.00
04432              -6.00     3000.00
04433              50.00     3200.00
04434             -42.00     3000.00
04435             -32.00     3000.00
04436              52.00     3400.00
04437             -40.00     3200.00
04438             -64.00     3200.00
04439              58.00     3400.00
04440              20.00     3400.00
04441             -70.00     3200.00
04442              -4.00     3400.00
04443              16.00     3400.00
04444             -22.00     3400.00
04445              -2.00     3400.00
04446             -10.00     3600.00
04447             -18.00     3400.00
04448               8.00     3600.00
04449             -18.00     3600.00
04450             -22.00     3600.00
04451              14.00     3800.00
04452             -24.00     3600.00
04453             -30.00     3800.00
04454              22.00     3800.00
04455             -10.00     3800.00
04456             -38.00     3800.00
04457               6.00     3800.00
04458              -6.00     4000.00
04459             -32.00     3800.00
04460              -2.00     4000.00
04461               0.00     4000.00
04462             -16.00     4000.00
04463             -14.00     4000.00
04464             -16.00     4000.00
04465              -8.00     4000.00
04466               0.00     4200.00
04467             -18.00     4200.00
04468             -10.00     4000.00
04469               0.00     4000.00
04470             -20.00     4000.00
04471             -22.00     4000.00
04472               2.00     4000.00
04473             -14.00     4200.00
04474             -18.00     4000.00
04475               0.00     4200.00
04476             -10.00     4000.00
04477             -22.00     4000.00
04478             -10.00     4000.00
04479              -8.00     4200.00
04480              -8.00     4000.00
04481              -8.00     4200.00
04482             -10.00     4200.00
04483             -14.00     4000.00
04484             -10.00     4200.00
04485             -16.00     4200.00
04486              -6.00     4200.00
04487              -2.00     4000.00
04488             -14.00     4200.00
04489             -14.00     4000.00
04490              -6.00     4200.00
04491             -16.00     4000.00
04492             -12.00     4000.00
04493              -2.00     4000.00
04494             -10.00     4000.00
04495             -14.00     4000.00
04496              -8.00     4000.00
04497             -10.00     4000.00
04498             -12.00     4000.00
04499             -10.00     4000.00
04500              -6.00     4000.00
04501             -10.00     4000.00
04502             -10.00     3800.00
04503             -14.00     4000.00
04504             -10.00     4000.00
04505             -10.00     4000.00
04506             -10.00     3800.00
04507              -6.00     3800.00
04508              -6.00     3800.00
04509             -16.00     3600.00
04510             -10.00     3800.00
04511              -8.00     3800.00
04512             -10.00     3600.00
04513             -10.00     3600.00
04514              -6.00     3400.00
04515             -10.00     3400.00
04516             -14.00     3400.00
04517             -14.00     3400.00
04518             -10.00     3400.00
04519             -10.00     3400.00
04520              -8.00     3400.00
04521              -6.00     3200.00
04522              -8.00     3200.00
04523             -16.00     3200.00
04524             -16.00     3200.00
04525              -8.00     3200.00
04526              -6.00     3200.00
04527             -10.00     3000.00
04528             -10.00     3000.00
04529             -10.00     3000.00
04530             -10.00     3000.00
04531             -10.00     3000.00
04532             -10.00     2600.00
04533             -10.00     2600.00
04534              -8.00     2800.00
04535              -6.00     2600.00
04536             -10.00     2600.00
04537             -14.00     2600.00
04538              -8.00     2600.00
04539              -6.00     2400.00
04540              -2.00     2400.00
04541              -8.00     2400.00
04542             -12.00     2200.00
04543              -8.00     2200.00
04544              -6.00     2200.00
04545             -10.00     2200.00
04546              -6.00     2000.00
04547              -8.00     2000.00
04548              -8.00     2000.00
04549              -8.00     1800.00
04550              -8.00     1600.00
04551              -8.00     1800.00
04552              -8.00     1800.00
04553              -6.00     1600.00
04554               0.00     1600.00
04555              -4.00     1600.00
04556             -10.00     1400.00
04557             -10.00     1400.00
04558              -2.00     1400.00
04559              -6.00     1200.00
04560              -2.00     1400.00
04561              -4.00     1400.00
04562              -2.00     1000.00
04563              -8.00     1200.00
04564              -8.00     1000.00
04565              -2.00      800.00
04566              -2.00      800.00
04567              -4.00      800.00
04568              -6.00      600.00
04569              -2.00      600.00
04570              -2.00      600.00
04571              -6.00      600.00
04572              -8.00      400.00
04573              -2.00      200.00
04574              -2.00      200.00
04575              -2.00      200.00
04576               0.00      200.00
04577               0.00        0.00
04578               0.00      200.00
04579               6.00     -200.00
04580               4.00        0.00
04581              -6.00     -200.00
04582              -8.00     -200.00
04583              -4.00     -200.00
04584              10.00     -200.00
04585              50.00     -200.00
04586             150.00     -600.00
04587              58.00     -800.00
04588            -254.00     -800.00
04589            -254.00     -600.00
04590             246.00     -600.00
04591             246.00     -800.00
04592              56.00    -1200.00
04593            -254.00     -800.00
04594            -254.00    -1000.00
04595             246.00    -1000.00
04596             246.00    -1000.00
04597            -254.00    -1200.00
04598            -254.00    -1200.00
04599             246.00    -1400.00
04600             176.00    -1400.00
04601            -216.00    -1400.00
04602             -58.00    -1400.00
04603              66.00    -1400.00
04604             -22.00    -1400.00
04605              58.00    -1800.00
04606              80.00    -1800.00
04607            -194.00    -1800.00
04608             -56.00    -1800.00
04609             246.00    -2000.00
04610              62.00    -1800.00
04611            -254.00    -2000.00
04612             -32.00    -2200.00
04613             208.00    -2200.00
04614              46.00    -2200.00
04615            -128.00    -2400.00
04616             -40.00    -2400.00
04617              42.00    -2200.00
04618              46.00    -2400.00
04619              22.00    -2400.00
04620             -30.00    -2400.00
04621             -16.00    -2600.00
04622              14.00    -2600.00
04623              20.00    -2600.00
04624             -14.00    -2600.00
04625               0.00    -2600.00
04626              14.00    -2800.00
04627              20.00    -2600.00
04628              -8.00    -3000.00
04629             -30.00    -3000.00
04630               8.00    -3000.00
04631              46.00    -3000.00
04632              12.00    -3000.00
04633             -36.00    -3000.00
04634              -8.00    -3200.00
04635              26.00    -3200.00
04636              16.00    -3200.00
04637             -10.00    -3200.00
04638              -6.00    -3200.00
04639               8.00    -3200.00
04640              16.00    -3200.00
04641               6.00    -3400.00
04642              -6.00    -3400.00
04643              -2.00    -3400.00
04644              10.00    -3400.00
04645              14.00    -3600.00
04646               2.00    -3400.00
04647              -2.00    -3400.00
04648              -2.00    -3400.00
04649               8.00    -3400.00
04650               8.00    -3600.00
04651              -2.00    -3400.00
04652               2.00    -3600.00
04653              14.00    -3800.00
04654               6.00    -3800.00
04655              -8.00    -3800.00
04656               0.00    -3800.00
04657               8.00    -3800.00
04658               8.00    -3800.00
04659               6.00    -3800.00
04660               4.00    -3800.00
04661              -2.00    -3800.00
04662               0.00    -3800.00
04663               2.00    -3800.00
04664               6.00    -3800.00
04665               6.00    -4000.00
04666               4.00    -3800.00
04667               6.00    -3800.00
04668               2.00    -3800.00
04669              -2.00    -3800.00
04670               0.00    -3800.00
04671               8.00    -4000.00
04672               8.00    -3800.00
04673               2.00    -4000.00
04674               6.00    -3800.00
04675               2.00    -3800.00
04676              -2.00    -3800.00
04677               6.00    -3800.00
04678               8.00    -4000.00
04679               6.00    -3800.00
04680               2.00    -3800.00
04681               2.00    -3800.00
04682               0.00    -3800.00
04683               2.00    -3800.00
04684               6.00    -3600.00
04685              10.00    -3800.00
04686               4.00    -3800.00
04687               0.00    -3800.00
04688               2.00    -3600.00
04689               4.00    -3400.00
04690               2.00    -3800.00
04691               4.00    -3400.00
04692              10.00    -3600.00
04693               6.00    -3800.00
04694               0.00    -3600.00
04695               2.00    -3400.00
04696               2.00    -3400.00
04697               2.00    -3400.00
04698               6.00    -3600.00
04699               8.00    -3400.00
04700               6.00    -3400.00
04701               0.00    -3200.00
04702               2.00    -3200.00
04703               4.00    -3200.00
04704               6.00    -3200.00
04705               2.00    -3200.00
04706               6.00    -3200.00
04707               2.00    -3200.00
04708               0.00    -3000.00
04709               0.00    -3000.00
04710               2.00    -3000.00
04711               2.00    -3000.00
04712               2.00    -3000.00
04713               4.00    -2800.00
04714               2.00    -3000.00
04715               0.00    -3000.00
04716               0.00    -2800.00
04717               2.00    -2600.00
04718               6.00    -2600.00
04719               2.00    -2600.00
04720               2.00    -2600.00
04721               0.00    -2600.00
04722              -2.00    -2400.00
04723               0.00    -2400.00
04724               0.00    -2400.00
04725               2.00    -2200.00
04726               2.00    -2400.00
04727               0.00    -2400.00
04728               0.00    -2200.00
04729               0.00    -2200.00
04730              -2.00    -2200.00
04731               2.00    -2200.00
04732               0.00    -1800.00
04733               0.00    -1800.00
04734               0.00    -1800.00
04735              -2.00    -1800.00
04736              -2.00    -1600.00
04737              -2.00    -1800.00
04738               0.00    -1600.00
04739               4.00    -1400.00
04740               0.00    -1600.00
04741              -4.00    -1400.00
04742              -2.00    -1400.00
04743              -2.00    -1400.00
04744               0.00    -1200.00
04745               0.00    -1200.00
04746               2.00    -1400.00
04747              -2.00    -1000.00
04748              -4.00    -1000.00
04749              -2.00     -800.00
04750               0.00     -800.00
04751               0.00     -800.00
04752               0.00     -800.00
04753              -2.00     -800.00
04754               0.00     -600.00
04755              -6.00     -600.00
04756              -6.00     -600.00
04757              -2.00     -600.00
04758               0.00     -200.00
04759              -2.00     -200.00
04760               0.00     -200.00
04761              -2.00     -200.00
04762              -2.00     -200.00
04763              -2.00        0.00
04764              -2.00     -200.00
04765               0.00        0.00
04766               0.00      200.00
04767               0.00        0.00
04768               0.00      200.00
04769               0.00      200.00
04770               6.00      200.00
04771               6.00      400.00
04772              -4.00      600.00
04773              -8.00      400.00
04774              -8.00      600.00
04775               6.00      600.00
04776              82.00      800.00
04777             184.00     1200.00
04778             -62.00     1000.00
04779            -254.00      800.00
04780            -198.00     1000.00
04781             246.00     1200.00
04782             246.00     1400.00
04783            -254.00      600.00
04784            -254.00     1200.00
04785             246.00     1600.00
04786             246.00     1800.00
04787            -200.00     1200.00
04788            -254.00     1400.00
04789             190.00     1800.00
04790             246.00     1600.00
04791            -254.00     1400.00
04792            -254.00     1800.00
04793             246.00     2200.00
04794             120.00     1800.00
04795            -254.00     1600.00
04796              36.00     2000.00
04797             246.00     2200.00
04798            -192.00     2000.00
04799            -124.00     2200.00
04800             246.00     2400.00
04801             -24.00     2200.00
04802            -254.00     2200.00
04803              88.00     2600.00
04804             214.00     2400.00
04805            -104.00     2400.00
04806            -138.00     2600.00
04807              50.00     2600.00
04808              38.00     2600.00
04809             -14.00     2600.00
04810             -24.00     2800.00
04811             -14.00     2600.00
04812              16.00     3000.00
04813             -26.00     2800.00
04814             -48.00     3000.00
04815              46.00     3000.00
04816              10.00     3000.00
04817             -62.00     3000.00
04818              22.00     3200.00
04819              22.00     3200.00
04820             -80.00     3200.00
04821               6.00     3200.00
04822              64.00     3400.00
04823             -42.00     3200.00
04824             -48.00     3400.00
04825              22.00     3600.00
04826              -8.00     3400.00
04827             -14.00     3200.00
04828               2.00     3600.00
04829             -20.00     3600.00
04830               0.00     3400.00
04831               0.00     3800.00
04832             -28.00     3400.00
04833               2.00     3800.00
04834               2.00     3800.00
04835             -38.00     3800.00
04836               0.00     3800.00
04837              16.00     4000.00
04838             -32.00     3800.00
04839             -14.00     3800.00
04840              10.00     4000.00
04841             -26.00     3800.00
04842             -16.00     4000.00
04843               6.00     4000.00
04844             -10.00     4000.00
04845             -16.00     3800.00
04846             -14.00     4200.00
04847             -18.00     4000.00
04848               0.00     4000.00
04849              -8.00     4000.00
04850             -22.00     4000.00
04851              -2.00     4200.00
04852             -10.00     4200.00
04853             -26.00     4200.00
04854              -6.00     4200.00
04855              -2.00     4200.00
04856             -22.00     4000.00
04857              -8.00     4200.00
04858              -2.00     4000.00
04859             -22.00     4200.00
04860             -16.00     4000.00
04861              -8.00     4200.00
04862             -10.00     4000.00
04863             -10.00     4000.00
04864             -10.00     4200.00
04865             -16.00     4200.00
04866             -14.00     4000.00
04867             -16.00     4200.00
04868             -12.00     4200.00
04869              -2.00     4000.00
04870              -8.00     4200.00
04871             -16.00     4000.00
04872              -8.00     4000.00
04873             -10.00     4200.00
04874             -16.00     4000.00
04875              -6.00     4000.00
04876              -4.00     4000.00
04877             -14.00     4000.00
04878             -10.00     4000.00
04879             -10.00     4000.00
04880             -12.00     4000.00
04881             -14.00     4000.00
04882              -6.00     3800.00
04883              -8.00     3800.00
04884             -10.00     3800.00
04885             -14.00     4000.00
04886             -10.00     3800.00
04887              -8.00     3800.00
04888             -14.00     3800.00
04889              -8.00     3800.00
04890              -2.00     3800.00
04891             -10.00     3800.00
04892             -14.00     3800.00
04893              -8.00     3800.00
04894              -8.00     3600.00
04895             -14.00     3600.00
04896              -6.00     3600.00
04897              -6.00     3600.00
04898             -10.00     3400.00
04899             -12.00     3400.00
04900             -10.00     3400.00
04901             -10.00     3400.00
04902              -8.00     3200.00
04903              -8.00     3400.00
04904              -8.00     3200.00
04905             -10.00     3200.00
04906             -16.00     3000.00
04907             -10.00     3200.00
04908              -8.00     3000.00
04909              -8.00     3000.00
04910              -8.00     3000.00
04911             -10.00     3000.00
04912             -10.00     3000.00
04913             -10.00     2800.00
04914              -8.00     2600.00
04915              -8.00     2800.00
04916             -10.00     2800.00
04917             -10.00     2600.00
04918             -10.00     2600.00
04919              -8.00     2600.00
04920             -10.00     2400.00
04921              -8.00     2600.00
04922              -6.00     2400.00
04923              -8.00     2400.00
04924              -8.00     2200.00
04925             -10.00     2200.00
04926              -8.00     2200.00
04927             -10.00     2200.00
04928             -10.00     2200.00
04929              -2.00     2200.00
04930              -2.00     2000.00
04931              -8.00     1800.00
04932             -10.00     1800.00
04933              -6.00     1800.00
04934              -8.00     1800.00
04935              -6.00     1600.00
04936              -2.00     1600.00
04937              -2.00     1400.00
04938             -10.00     1600.00
04939             -10.00     1400.00
04940              -6.00     1400.00
04941              -2.00     1400.00
04942              -6.00     1400.00
04943              -2.00     1200.00
04944              -2.00     1000.00
04945              -6.00     1000.00
04946              -8.00     1200.00
04947              -4.00      800.00
04948               0.00      800.00
04949              -2.00      800.00
04950              -6.00      800.00
04951              -2.00      600.00
04952              -2.00      600.00
04953              -2.00      600.00
04954              -6.00      400.00
04955              -2.00      200.00
04956              -2.00      200.00
04957              -2.00      200.00
04958              -2.00      200.00
04959               0.00        0.00
04960               2.00      200.00
04961               6.00        0.00
04962               8.00     -200.00
04963              -2.00        0.00
04964              -4.00     -200.00
04965              -6.00     -200.00
04966               2.00     -200.00
04967              22.00     -400.00
04968             106.00     -400.00
04969             146.00     -600.00
04970            -138.00     -800.00
04971            -254.00     -600.00
04972             -90.00     -400.00
04973             246.00     -600.00
04974             246.00    -1000.00
04975            -254.00    -1200.00
04976            -254.00     -800.00
04977             246.00    -1000.00
04978             246.00    -1000.00
04979            -192.00    -1400.00
04980            -254.00    -1200.00
04981             114.00    -1400.00
04982             246.00    -1400.00
04983             -74.00    -1400.00
04984            -198.00    -1600.00
04985              70.00    -1400.00
04986               0.00    -1400.00
04987              12.00    -1600.00
04988             104.00    -1800.00
04989             -60.00    -1600.00
04990            -200.00    -1600.00
04991             136.00    -1800.00
04992             224.00    -2000.00
04993            -166.00    -1800.00
04994            -198.00    -2000.00
04995             138.00    -2200.00
04996             166.00    -2200.00
04997             -88.00    -2200.00
04998             -92.00    -2200.00
04999               6.00    -2200.00
05000              56.00    -2200.00
