Unit:(mV)
                     CH1         CH2
Frequency              ? 260.979 kHz
00001              -2.00        0.00
00002              -2.00      200.00
00003              -6.00      200.00
00004              -6.00      400.00
00005               8.00      200.00
00006              10.00      400.00
00007              -8.00      400.00
00008             -22.00      400.00
00009              -6.00      800.00
00010              26.00      800.00
00011             138.00     1000.00
00012             136.00     1000.00
00013            -270.00      800.00
00014            -270.00      800.00
00015             218.00     1200.00
00016             230.00     1400.00
00017              42.00     1000.00
00018            -270.00      800.00
00019             -56.00     1600.00
00020             230.00     1600.00
00021             -72.00     1200.00
00022            -270.00     1400.00
00023             226.00     2000.00
00024             230.00     1600.00
00025            -270.00     1200.00
00026             -40.00     2000.00
00027             222.00     2000.00
00028            -180.00     1600.00
00029             -26.00     2000.00
00030             230.00     2400.00
00031            -174.00     1600.00
00032            -118.00     1800.00
00033             190.00     2400.00
00034             -34.00     2200.00
00035             -60.00     2000.00
00036             102.00     2600.00
00037            -128.00     2600.00
00038             -30.00     2000.00
00039             210.00     2600.00
00040            -110.00     2800.00
00041            -150.00     2400.00
00042             192.00     2600.00
00043              22.00     2800.00
00044            -178.00     2800.00
00045              64.00     2600.00
00046             106.00     3200.00
00047             -94.00     2800.00
00048             -32.00     2800.00
00049              86.00     3200.00
00050             -34.00     3200.00
00051             -66.00     3200.00
00052              88.00     3400.00
00053              16.00     3200.00
00054            -110.00     2800.00
00055              42.00     3400.00
00056              56.00     3400.00
00057             -68.00     3200.00
00058              22.00     3600.00
00059              38.00     3600.00
00060             -70.00     3400.00
00061              10.00     3600.00
00062              46.00     3600.00
00063             -54.00     3600.00
00064               4.00     3600.00
00065              58.00     3600.00
00066             -46.00     3600.00
00067             -34.00     3600.00
00068              54.00     4000.00
00069             -18.00     4000.00
00070             -40.00     3600.00
00071              64.00     4000.00
00072               2.00     3800.00
00073             -72.00     3800.00
00074              32.00     4000.00
00075              32.00     4000.00
00076             -56.00     4000.00
00077              18.00     4000.00
00078              42.00     4200.00
00079             -44.00     4000.00
00080              -6.00     4200.00
00081              44.00     4000.00
00082             -34.00     4200.00
00083             -32.00     4000.00
00084              48.00     4200.00
00085               6.00     4000.00
00086             -26.00     4000.00
00087              18.00     4200.00
00088              -6.00     4200.00
00089             -32.00     4200.00
00090              24.00     4200.00
00091              26.00     4200.00
00092             -24.00     4200.00
00093               2.00     4200.00
00094              14.00     4400.00
00095             -26.00     4200.00
00096               0.00     4200.00
00097              26.00     4200.00
00098             -10.00     4200.00
00099              -2.00     4200.00
00100              22.00     4400.00
00101             -16.00     4200.00
00102             -20.00     4200.00
00103              24.00     4200.00
00104               8.00     4200.00
00105             -18.00     4000.00
00106              14.00     4200.00
00107               2.00     4200.00
00108             -22.00     4000.00
00109              10.00     4200.00
00110              18.00     4000.00
00111             -16.00     4000.00
00112              -4.00     4000.00
00113              16.00     4200.00
00114              -8.00     4000.00
00115             -10.00     4000.00
00116              14.00     4000.00
00117              -2.00     4000.00
00118             -10.00     4000.00
00119              12.00     4000.00
00120               0.00     4000.00
00121             -14.00     4000.00
00122               2.00     3800.00
00123               4.00     4000.00
00124              -8.00     3800.00
00125               6.00     3600.00
00126               4.00     3800.00
00127             -16.00     3600.00
00128              -6.00     3600.00
00129               6.00     3600.00
00130              -2.00     3600.00
00131               2.00     3400.00
00132               8.00     3400.00
00133             -10.00     3400.00
00134             -10.00     3400.00
00135               6.00     3400.00
00136               0.00     3400.00
00137              -6.00     3200.00
00138               6.00     3200.00
00139              -2.00     3200.00
00140             -14.00     3200.00
00141               2.00     3200.00
00142               6.00     3200.00
00143              -6.00     3000.00
00144              -2.00     3000.00
00145               6.00     3000.00
00146              -6.00     2800.00
00147              -6.00     2800.00
00148               4.00     2800.00
00149              -2.00     2800.00
00150              -2.00     2600.00
00151               4.00     2800.00
00152               0.00     2600.00
00153              -8.00     2600.00
00154               0.00     2600.00
00155               0.00     2400.00
00156              -2.00     2400.00
00157               6.00     2400.00
00158               6.00     2400.00
00159              -6.00     2200.00
00160               0.00     2200.00
00161              -2.00     2000.00
00162              -6.00     2000.00
00163               0.00     2000.00
00164               6.00     2000.00
00165              -6.00     1800.00
00166              -4.00     1800.00
00167               4.00     1800.00
00168              -2.00     1800.00
00169              -6.00     1600.00
00170               2.00     1600.00
00171               2.00     1600.00
00172              -2.00     1400.00
00173              -2.00     1600.00
00174              -2.00     1400.00
00175              -8.00     1400.00
00176              -2.00     1200.00
00177               6.00     1200.00
00178               0.00     1200.00
00179              -6.00     1000.00
00180              -2.00     1200.00
00181              -2.00     1000.00
00182              -4.00      800.00
00183               0.00      800.00
00184               0.00      800.00
00185              -2.00      800.00
00186              -2.00      600.00
00187              -6.00      400.00
00188              -8.00      400.00
00189               4.00      400.00
00190               0.00      400.00
00191              -8.00      200.00
00192              -2.00      200.00
00193               4.00      200.00
00194              -2.00      200.00
00195              -2.00        0.00
00196               8.00      200.00
00197               6.00        0.00
00198              -6.00        0.00
00199              -6.00     -400.00
00200              -6.00     -400.00
00201               2.00     -200.00
00202              24.00     -400.00
00203             112.00     -400.00
00204             114.00     -600.00
00205            -196.00     -800.00
00206            -270.00     -600.00
00207              66.00     -600.00
00208             230.00     -600.00
00209             230.00    -1000.00
00210            -270.00    -1000.00
00211            -270.00     -800.00
00212             230.00    -1000.00
00213             214.00    -1200.00
00214            -270.00    -1000.00
00215            -118.00    -1000.00
00216             230.00    -1400.00
00217               8.00    -1400.00
00218             -24.00    -1400.00
00219             -20.00    -1400.00
00220            -154.00    -1600.00
00221              78.00    -1600.00
00222             216.00    -1600.00
00223            -142.00    -1800.00
00224            -174.00    -2000.00
00225             106.00    -1600.00
00226              96.00    -1600.00
00227             -16.00    -2000.00
00228             -66.00    -2200.00
00229             -76.00    -2000.00
00230              56.00    -2200.00
00231             126.00    -2400.00
00232             -98.00    -2000.00
00233            -100.00    -2200.00
00234              82.00    -2400.00
00235              50.00    -2400.00
00236             -58.00    -2400.00
00237             -26.00    -2400.00
00238              18.00    -2600.00
00239               8.00    -2600.00
00240               2.00    -2800.00
00241             -26.00    -2800.00
00242             -16.00    -2800.00
00243               4.00    -2800.00
00244              22.00    -3000.00
00245               2.00    -3000.00
00246             -38.00    -3000.00
00247             -24.00    -3000.00
00248              24.00    -3000.00
00249              10.00    -3000.00
00250             -24.00    -3200.00
00251             -10.00    -3000.00
00252              -2.00    -3200.00
00253              -8.00    -3200.00
00254              -6.00    -3200.00
00255              -6.00    -3400.00
00256              -2.00    -3600.00
00257               8.00    -3200.00
00258             -10.00    -3600.00
00259             -20.00    -3600.00
00260               0.00    -3600.00
00261              -2.00    -3400.00
00262             -14.00    -3600.00
00263               8.00    -3600.00
00264               0.00    -3600.00
00265             -26.00    -3600.00
00266              -8.00    -3600.00
00267               2.00    -3600.00
00268             -14.00    -3600.00
00269              -6.00    -3800.00
00270               8.00    -3600.00
00271             -16.00    -3800.00
00272             -24.00    -3600.00
00273               2.00    -3800.00
00274               2.00    -3800.00
00275             -10.00    -3800.00
00276              -2.00    -3800.00
00277              -6.00    -3800.00
00278             -14.00    -3800.00
00279               0.00    -3800.00
00280               0.00    -3800.00
00281             -16.00    -3800.00
00282              -8.00    -3800.00
00283               2.00    -3800.00
00284              -6.00    -3800.00
00285              -6.00    -4000.00
00286              -6.00    -3800.00
00287             -10.00    -3800.00
00288              -8.00    -4000.00
00289               0.00    -3800.00
00290              -2.00    -3800.00
00291              -6.00    -3800.00
00292              -2.00    -3800.00
00293             -10.00    -3800.00
00294             -16.00    -3800.00
00295              -2.00    -3800.00
00296               4.00    -3800.00
00297              -6.00    -3800.00
00298              -6.00    -3800.00
00299              -6.00    -3800.00
00300             -10.00    -3800.00
00301              -8.00    -3800.00
00302               2.00    -3600.00
00303              -6.00    -3800.00
00304              -6.00    -3800.00
00305              -2.00    -3800.00
00306              -2.00    -3600.00
00307             -14.00    -3800.00
00308              -6.00    -3600.00
00309              -2.00    -3600.00
00310              -8.00    -3600.00
00311              -2.00    -3800.00
00312               0.00    -3600.00
00313             -10.00    -3600.00
00314             -10.00    -3600.00
00315              -6.00    -3600.00
00316              -2.00    -3400.00
00317              -2.00    -3400.00
00318              -4.00    -3600.00
00319             -14.00    -3200.00
00320             -10.00    -3400.00
00321              -2.00    -3200.00
00322               0.00    -3200.00
00323              -8.00    -3200.00
00324              -8.00    -3200.00
00325             -10.00    -3200.00
00326              -6.00    -3000.00
00327               0.00    -3200.00
00328              -4.00    -3000.00
00329             -14.00    -3000.00
00330              -8.00    -3000.00
00331              -2.00    -2800.00
00332              -6.00    -3000.00
00333              -8.00    -3000.00
00334              -8.00    -2800.00
00335             -10.00    -2800.00
00336              -8.00    -2800.00
00337               0.00    -2600.00
00338              -6.00    -2800.00
00339             -10.00    -2800.00
00340              -8.00    -2600.00
00341              -4.00    -2600.00
00342              -2.00    -2400.00
00343              -2.00    -2400.00
00344              -6.00    -2400.00
00345              -8.00    -2400.00
00346              -4.00    -2200.00
00347              -4.00    -2000.00
00348              -8.00    -2000.00
00349              -8.00    -2000.00
00350               0.00    -2000.00
00351              -2.00    -2000.00
00352              -4.00    -2000.00
00353              -8.00    -1600.00
00354             -10.00    -1600.00
00355              -2.00    -1600.00
00356               0.00    -1600.00
00357              -2.00    -1600.00
00358              -8.00    -1600.00
00359             -10.00    -1400.00
00360              -4.00    -1400.00
00361              -6.00    -1400.00
00362              -2.00    -1000.00
00363               0.00    -1200.00
00364              -8.00    -1200.00
00365              -4.00    -1000.00
00366              -2.00    -1000.00
00367              -6.00     -800.00
00368              -6.00     -800.00
00369              -6.00     -800.00
00370              -2.00     -800.00
00371               0.00     -600.00
00372               0.00     -600.00
00373              -6.00     -600.00
00374             -10.00     -600.00
00375              -6.00     -400.00
00376               0.00     -400.00
00377               2.00     -400.00
00378              -2.00     -400.00
00379              -8.00     -200.00
00380             -10.00     -200.00
00381              -4.00        0.00
00382              -2.00        0.00
00383              -8.00        0.00
00384              -2.00      200.00
00385               0.00      200.00
00386               0.00      200.00
00387               2.00      200.00
00388               8.00      400.00
00389               0.00      400.00
00390              -8.00      400.00
00391              -8.00      400.00
00392               0.00      800.00
00393              12.00      800.00
00394             110.00     1000.00
00395             158.00     1000.00
00396            -198.00      800.00
00397            -270.00      800.00
00398              78.00     1000.00
00399             230.00     1200.00
00400             230.00     1200.00
00401            -270.00      800.00
00402            -256.00     1400.00
00403             230.00     1600.00
00404             144.00     1200.00
00405            -270.00     1200.00
00406              80.00     2000.00
00407             230.00     1600.00
00408            -248.00     1200.00
00409            -126.00     1800.00
00410             230.00     2400.00
00411            -140.00     1400.00
00412             -98.00     1800.00
00413             230.00     2400.00
00414            -106.00     1800.00
00415            -170.00     1600.00
00416             174.00     2400.00
00417              16.00     2400.00
00418             -98.00     1800.00
00419             104.00     2400.00
00420             -80.00     2800.00
00421             -80.00     2200.00
00422             204.00     2400.00
00423             -52.00     2800.00
00424            -196.00     2600.00
00425             160.00     2400.00
00426              90.00     2800.00
00427            -182.00     2600.00
00428              16.00     2600.00
00429             132.00     3200.00
00430             -74.00     2800.00
00431             -62.00     2600.00
00432              82.00     3200.00
00433              -2.00     3200.00
00434             -80.00     2800.00
00435              72.00     3400.00
00436              48.00     3400.00
00437            -112.00     3000.00
00438              10.00     3400.00
00439              80.00     3600.00
00440             -58.00     3200.00
00441              -6.00     3200.00
00442              50.00     3600.00
00443             -58.00     3400.00
00444              -6.00     3400.00
00445              56.00     3800.00
00446             -42.00     3600.00
00447             -22.00     3400.00
00448              64.00     4000.00
00449             -24.00     3600.00
00450             -50.00     3600.00
00451              48.00     3800.00
00452               2.00     4000.00
00453             -54.00     3600.00
00454              48.00     4000.00
00455              24.00     4000.00
00456             -74.00     3600.00
00457              14.00     4000.00
00458              48.00     4000.00
00459             -48.00     4000.00
00460               0.00     4000.00
00461              50.00     4200.00
00462             -38.00     4000.00
00463             -26.00     4000.00
00464              48.00     4000.00
00465             -10.00     4200.00
00466             -40.00     4000.00
00467              36.00     4200.00
00468              10.00     4200.00
00469             -38.00     4000.00
00470              16.00     4200.00
00471              16.00     4200.00
00472             -34.00     4000.00
00473              10.00     4000.00
00474              26.00     4200.00
00475             -24.00     4200.00
00476              -2.00     4200.00
00477              22.00     4200.00
00478             -22.00     4000.00
00479             -10.00     4200.00
00480              26.00     4200.00
00481              -8.00     4200.00
00482             -14.00     4200.00
00483              22.00     4200.00
00484              -6.00     4200.00
00485             -24.00     4000.00
00486              16.00     4200.00
00487              14.00     4200.00
00488             -18.00     4000.00
00489               8.00     4200.00
00490              10.00     4000.00
00491             -18.00     4200.00
00492               0.00     4000.00
00493              22.00     4000.00
00494             -10.00     4000.00
00495              -8.00     4000.00
00496              18.00     4200.00
00497              -2.00     4000.00
00498             -16.00     4000.00
00499              14.00     4000.00
00500               6.00     4000.00
00501             -10.00     4000.00
00502               8.00     4000.00
00503               6.00     4000.00
00504             -14.00     3800.00
00505               2.00     4000.00
00506              10.00     3800.00
00507              -8.00     3800.00
00508               0.00     3600.00
00509               8.00     3800.00
00510             -10.00     3600.00
00511              -6.00     3600.00
00512               8.00     3600.00
00513              -2.00     3600.00
00514              -6.00     3600.00
00515               6.00     3600.00
00516              -6.00     3600.00
00517              -8.00     3400.00
00518               6.00     3400.00
00519               0.00     3400.00
00520             -10.00     3400.00
00521               2.00     3200.00
00522               6.00     3200.00
00523             -10.00     3200.00
00524              -2.00     3200.00
00525               6.00     3200.00
00526              -8.00     3000.00
00527              -4.00     3000.00
00528               6.00     3000.00
00529              -2.00     2800.00
00530             -10.00     2800.00
00531               2.00     2800.00
00532              -2.00     2800.00
00533              -8.00     2800.00
00534               0.00     2600.00
00535               2.00     2600.00
00536              -6.00     2800.00
00537              -2.00     2600.00
00538               0.00     2600.00
00539              -6.00     2400.00
00540               2.00     2400.00
00541               6.00     2200.00
00542              -6.00     2400.00
00543              -6.00     2200.00
00544               0.00     2200.00
00545              -2.00     2000.00
00546              -2.00     2000.00
00547               6.00     2000.00
00548              -2.00     1800.00
00549              -6.00     1800.00
00550               4.00     1800.00
00551              -2.00     1800.00
00552             -10.00     1800.00
00553               2.00     1600.00
00554               6.00     1600.00
00555              -2.00     1600.00
00556               0.00     1400.00
00557              -2.00     1400.00
00558              -8.00     1600.00
00559              -2.00     1200.00
00560               6.00     1200.00
00561               2.00     1000.00
00562              -2.00     1000.00
00563               0.00     1200.00
00564              -6.00     1000.00
00565              -8.00      800.00
00566               0.00      800.00
00567               6.00      800.00
00568              -2.00      800.00
00569               0.00      800.00
00570              -2.00      600.00
00571              -4.00      400.00
00572               2.00      400.00
00573               2.00      400.00
00574             -12.00      400.00
00575              -6.00      200.00
00576               6.00      200.00
00577               2.00        0.00
00578              -4.00        0.00
00579               2.00        0.00
00580               6.00        0.00
00581               0.00     -400.00
00582              -6.00        0.00
00583              -6.00     -400.00
00584              -2.00     -400.00
00585              18.00     -400.00
00586              96.00     -400.00
00587             134.00     -600.00
00588            -130.00     -800.00
00589            -270.00     -800.00
00590             -64.00     -400.00
00591             230.00     -600.00
00592             230.00    -1000.00
00593            -270.00    -1200.00
00594            -270.00     -800.00
00595             230.00    -1000.00
00596             230.00    -1000.00
00597            -270.00    -1200.00
00598            -216.00    -1000.00
00599             230.00    -1200.00
00600              36.00    -1400.00
00601             -34.00    -1400.00
00602              -8.00    -1600.00
00603            -146.00    -1600.00
00604              24.00    -1600.00
00605             230.00    -1400.00
00606             -86.00    -1800.00
00607            -202.00    -2000.00
00608              64.00    -2000.00
00609             120.00    -1600.00
00610              -8.00    -2000.00
00611             -62.00    -2200.00
00612             -78.00    -2000.00
00613              26.00    -2200.00
00614             134.00    -2400.00
00615             -72.00    -2200.00
00616            -120.00    -2200.00
00617              64.00    -2600.00
00618              76.00    -2400.00
00619             -60.00    -2400.00
00620             -34.00    -2400.00
00621              14.00    -2400.00
00622              14.00    -2400.00
00623               6.00    -2800.00
00624             -24.00    -2600.00
00625             -20.00    -2800.00
00626              -2.00    -3000.00
00627              22.00    -2800.00
00628               8.00    -3000.00
00629             -28.00    -3000.00
00630             -30.00    -3000.00
00631              18.00    -3000.00
00632              18.00    -3200.00
00633             -16.00    -3000.00
00634             -14.00    -3000.00
00635              -6.00    -3200.00
00636              -2.00    -3200.00
00637             -10.00    -3200.00
00638              -8.00    -3200.00
00639               0.00    -3200.00
00640               6.00    -3400.00
00641              -8.00    -3600.00
00642             -22.00    -3600.00
00643              -2.00    -3400.00
00644               0.00    -3400.00
00645              -8.00    -3600.00
00646               0.00    -3600.00
00647              -2.00    -3600.00
00648             -18.00    -3600.00
00649              -8.00    -3600.00
00650               6.00    -3600.00
00651             -10.00    -3600.00
00652             -14.00    -3800.00
00653              -2.00    -3800.00
00654              -6.00    -3600.00
00655              -6.00    -3800.00
00656               2.00    -3800.00
00657              -8.00    -3600.00
00658             -18.00    -3800.00
00659              -8.00    -3800.00
00660               2.00    -3800.00
00661              -4.00    -3800.00
00662              -4.00    -3800.00
00663              -6.00    -4000.00
00664             -10.00    -3800.00
00665             -10.00    -3800.00
00666               0.00    -3800.00
00667               2.00    -3800.00
00668              -8.00    -3800.00
00669             -10.00    -3800.00
00670             -10.00    -3800.00
00671              -6.00    -3800.00
00672               6.00    -4000.00
00673               0.00    -3800.00
00674             -10.00    -4000.00
00675             -18.00    -4000.00
00676             -16.00    -3800.00
00677               0.00    -3800.00
00678              14.00    -3800.00
00679               6.00    -3800.00
00680             -20.00    -3800.00
00681             -26.00    -3800.00
00682              -6.00    -3800.00
00683              10.00    -3800.00
00684               6.00    -3800.00
00685             -10.00    -3800.00
00686             -18.00    -3600.00
00687              -8.00    -3800.00
00688               6.00    -3800.00
00689               0.00    -3600.00
00690             -18.00    -3800.00
00691             -14.00    -3600.00
00692               4.00    -3600.00
00693               6.00    -3800.00
00694              -6.00    -3600.00
00695             -12.00    -3600.00
00696             -10.00    -3600.00
00697               0.00    -3600.00
00698               0.00    -3600.00
00699              -8.00    -3600.00
00700             -10.00    -3400.00
00701              -6.00    -3200.00
00702              -2.00    -3200.00
00703              -2.00    -3400.00
00704             -12.00    -3400.00
00705             -14.00    -3200.00
00706              -6.00    -3200.00
00707               2.00    -3200.00
00708               0.00    -3200.00
00709             -14.00    -3200.00
00710             -16.00    -3200.00
00711              -8.00    -3200.00
00712               0.00    -3200.00
00713               0.00    -3000.00
00714              -8.00    -3000.00
00715             -14.00    -3000.00
00716              -8.00    -3000.00
00717               2.00    -2800.00
00718              -6.00    -2800.00
00719             -14.00    -2800.00
00720             -10.00    -2800.00
00721               0.00    -2800.00
00722               2.00    -2800.00
00723              -2.00    -2400.00
00724             -10.00    -2400.00
00725             -14.00    -2400.00
00726              -8.00    -2400.00
00727               0.00    -2200.00
00728               0.00    -2200.00
00729              -6.00    -2200.00
00730             -10.00    -2000.00
00731             -10.00    -2200.00
00732              -8.00    -2000.00
00733              -2.00    -2000.00
00734               0.00    -2000.00
00735              -6.00    -2000.00
00736              -8.00    -2000.00
00737              -6.00    -1800.00
00738              -2.00    -1600.00
00739               0.00    -1600.00
00740              -2.00    -1600.00
00741             -10.00    -1600.00
00742              -8.00    -1400.00
00743              -2.00    -1400.00
00744               0.00    -1200.00
00745              -2.00    -1000.00
00746              -6.00    -1000.00
00747              -8.00    -1200.00
00748              -6.00    -1000.00
00749               0.00    -1000.00
00750               0.00     -800.00
00751              -4.00     -800.00
00752              -8.00     -800.00
00753              -2.00     -800.00
00754               0.00     -800.00
00755               0.00     -600.00
00756              -6.00     -600.00
00757              -8.00     -400.00
00758              -2.00     -400.00
00759               0.00     -400.00
00760               0.00     -400.00
00761              -2.00     -200.00
00762              -6.00     -400.00
00763              -6.00        0.00
00764              -2.00        0.00
00765               0.00        0.00
00766              -2.00        0.00
00767               0.00      200.00
00768               0.00      200.00
00769              -4.00      200.00
00770              -2.00      400.00
00771               8.00      400.00
00772               6.00      400.00
00773              -6.00      400.00
00774             -12.00      600.00
00775              -8.00      400.00
00776               8.00      800.00
00777              92.00      800.00
00778             178.00     1000.00
00779            -114.00      800.00
00780            -270.00      800.00
00781             -68.00     1200.00
00782             230.00     1200.00
00783             230.00     1400.00
00784            -270.00      600.00
00785            -270.00     1600.00
00786             230.00     1600.00
00787             230.00     1200.00
00788            -270.00     1200.00
00789             -64.00     1800.00
00790             230.00     1600.00
00791            -172.00     1200.00
00792            -210.00     1600.00
00793             230.00     2200.00
00794             -72.00     1600.00
00795            -152.00     1800.00
00796             230.00     2400.00
00797             -32.00     2000.00
00798            -210.00     1600.00
00799             138.00     2400.00
00800              72.00     2400.00
00801            -122.00     1800.00
00802              88.00     2200.00
00803             -42.00     2600.00
00804            -122.00     2200.00
00805             186.00     2200.00
00806              22.00     2800.00
00807            -220.00     2600.00
00808             112.00     2600.00
00809             134.00     2800.00
00810            -174.00     2800.00
00811             -22.00     2800.00
00812             150.00     3000.00
00813             -46.00     2800.00
00814             -86.00     2800.00
00815              66.00     3200.00
00816              24.00     3200.00
00817             -86.00     2800.00
00818              50.00     3200.00
00819              72.00     3400.00
00820            -102.00     3000.00
00821             -18.00     3400.00
00822              90.00     3400.00
00823             -42.00     3200.00
00824             -24.00     3200.00
00825              62.00     3600.00
00826             -48.00     3400.00
00827             -26.00     3400.00
00828              64.00     3800.00
00829             -24.00     3600.00
00830             -34.00     3400.00
00831              56.00     3800.00
00832              -6.00     3800.00
00833             -58.00     3600.00
00834              40.00     3800.00
00835              18.00     4000.00
00836             -62.00     3600.00
00837              32.00     3800.00
00838              46.00     4000.00
00839             -70.00     3800.00
00840              -6.00     4000.00
00841              58.00     4200.00
00842             -32.00     4000.00
00843             -22.00     4000.00
00844              48.00     4000.00
00845             -30.00     4200.00
00846             -40.00     3600.00
00847              50.00     4000.00
00848               6.00     4200.00
00849             -50.00     4000.00
00850              22.00     4200.00
00851              26.00     4200.00
00852             -34.00     4000.00
00853               6.00     4200.00
00854              22.00     4400.00
00855             -32.00     4200.00
00856              -2.00     4000.00
00857              30.00     4400.00
00858             -18.00     4200.00
00859             -14.00     4200.00
00860              24.00     4200.00
00861              -8.00     4200.00
00862             -18.00     4000.00
00863              22.00     4400.00
00864              -2.00     4200.00
00865             -18.00     4200.00
00866              22.00     4200.00
00867               4.00     4000.00
00868             -32.00     4200.00
00869              10.00     4200.00
00870              18.00     4200.00
00871             -16.00     4200.00
00872               0.00     4200.00
00873              16.00     4200.00
00874             -16.00     4200.00
00875              -6.00     4200.00
00876              22.00     4200.00
00877              -8.00     4000.00
00878             -14.00     4200.00
00879              18.00     4200.00
00880               2.00     4000.00
00881             -18.00     4000.00
00882               2.00     4000.00
00883              10.00     4000.00
00884              -8.00     4000.00
00885               6.00     4000.00
00886               6.00     4000.00
00887             -16.00     4000.00
00888              -2.00     4000.00
00889              14.00     4000.00
00890              -2.00     3800.00
00891              -2.00     3800.00
00892               6.00     3800.00
00893              -6.00     3800.00
00894              -4.00     3600.00
00895              12.00     3600.00
00896              -2.00     3600.00
00897             -10.00     3400.00
00898               6.00     3600.00
00899               2.00     3400.00
00900              -6.00     3600.00
00901               4.00     3600.00
00902               0.00     3400.00
00903             -16.00     3400.00
00904               2.00     3400.00
00905               6.00     3200.00
00906              -2.00     3200.00
00907               0.00     3200.00
00908               4.00     3200.00
00909             -14.00     3200.00
00910             -10.00     3000.00
00911              10.00     2800.00
00912              10.00     3200.00
00913              -2.00     2800.00
00914              -4.00     2800.00
00915              -8.00     2800.00
00916              -8.00     2800.00
00917               6.00     2600.00
00918               8.00     2600.00
00919              -6.00     2600.00
00920             -10.00     2600.00
00921              -2.00     2600.00
00922              -2.00     2400.00
00923               6.00     2400.00
00924               8.00     2400.00
00925              -6.00     2200.00
00926              -8.00     2200.00
00927              -2.00     2000.00
00928               2.00     2200.00
00929               0.00     2000.00
00930               8.00     2000.00
00931              -6.00     1800.00
00932             -16.00     1800.00
00933               2.00     2000.00
00934               6.00     1600.00
00935               0.00     1600.00
00936              -2.00     1600.00
00937             -10.00     1600.00
00938              -4.00     1600.00
00939              14.00     1600.00
00940               6.00     1200.00
00941             -18.00     1400.00
00942             -14.00     1200.00
00943              10.00     1200.00
00944              14.00     1000.00
00945              -6.00     1200.00
00946             -16.00     1000.00
00947              -8.00     1000.00
00948              10.00      800.00
00949              16.00      800.00
00950              -2.00      800.00
00951             -26.00      800.00
00952             -18.00      600.00
00953              10.00      800.00
00954              22.00      400.00
00955               8.00      400.00
00956             -14.00      400.00
00957             -22.00      200.00
00958               0.00      400.00
00959              16.00      200.00
00960               2.00        0.00
00961              -8.00        0.00
00962               2.00        0.00
00963              14.00     -200.00
00964               6.00        0.00
00965             -12.00     -200.00
00966             -14.00     -400.00
00967              -2.00     -400.00
00968              22.00     -400.00
00969              80.00     -400.00
00970             140.00     -600.00
00971             -66.00     -800.00
00972            -270.00     -800.00
00973            -186.00     -400.00
00974             230.00     -600.00
00975             230.00    -1000.00
00976            -270.00    -1200.00
00977            -270.00     -800.00
00978             230.00     -800.00
00979             230.00    -1200.00
00980            -270.00    -1200.00
00981            -270.00    -1000.00
00982             230.00    -1000.00
00983              80.00    -1400.00
00984             -26.00    -1400.00
00985              -6.00    -1600.00
00986            -144.00    -1600.00
00987             -40.00    -1600.00
00988             230.00    -1600.00
00989             -10.00    -1600.00
00990            -214.00    -2000.00
00991              10.00    -2000.00
00992             134.00    -1600.00
00993               6.00    -2000.00
00994             -46.00    -2200.00
00995             -80.00    -1600.00
00996             -10.00    -2000.00
00997             136.00    -2400.00
00998             -30.00    -2400.00
00999            -128.00    -2200.00
01000              34.00    -2400.00
01001              88.00    -2400.00
01002             -50.00    -2400.00
01003             -42.00    -2400.00
01004              14.00    -2600.00
01005              22.00    -2600.00
01006               6.00    -2600.00
01007             -26.00    -2800.00
01008             -24.00    -2800.00
01009               0.00    -2800.00
01010              24.00    -2800.00
01011              14.00    -2800.00
01012             -28.00    -3000.00
01013             -40.00    -3000.00
01014              14.00    -3000.00
01015              22.00    -3000.00
01016             -10.00    -3000.00
01017             -14.00    -3000.00
01018              -2.00    -3200.00
01019              -8.00    -3200.00
01020              -8.00    -3000.00
01021              -2.00    -3200.00
01022              -4.00    -3400.00
01023               6.00    -3200.00
01024              -2.00    -3400.00
01025             -26.00    -3600.00
01026             -10.00    -3400.00
01027               6.00    -3600.00
01028              -6.00    -3600.00
01029               0.00    -3600.00
01030               4.00    -3600.00
01031             -22.00    -3600.00
01032             -18.00    -3800.00
01033               6.00    -3600.00
01034              -2.00    -3600.00
01035             -10.00    -3800.00
01036              10.00    -3800.00
01037              -8.00    -3600.00
01038             -26.00    -3600.00
01039              -2.00    -3800.00
01040               6.00    -3600.00
01041              -8.00    -3800.00
01042              -4.00    -3800.00
01043              -2.00    -3800.00
01044             -16.00    -4000.00
01045             -12.00    -4000.00
01046               2.00    -3800.00
01047              -6.00    -3800.00
01048             -10.00    -3800.00
01049              -2.00    -3800.00
01050              -8.00    -3800.00
01051             -12.00    -3800.00
01052              -6.00    -4000.00
01053              -6.00    -3800.00
01054             -10.00    -3800.00
01055              -6.00    -3800.00
01056               0.00    -3600.00
01057              -6.00    -4000.00
01058              -2.00    -3800.00
01059              -8.00    -3800.00
01060             -14.00    -3800.00
01061              -2.00    -4000.00
01062               6.00    -3800.00
01063              -6.00    -3800.00
01064             -14.00    -3800.00
01065              -8.00    -3800.00
01066              -6.00    -3800.00
01067              -6.00    -3800.00
01068               0.00    -3800.00
01069              -4.00    -3800.00
01070             -14.00    -3800.00
01071              -6.00    -3800.00
01072              -2.00    -3600.00
01073              -8.00    -3600.00
01074              -6.00    -3600.00
01075               0.00    -3600.00
01076              -6.00    -3600.00
01077              -8.00    -3600.00
01078               0.00    -3400.00
01079              -6.00    -3600.00
01080              -8.00    -3600.00
01081              -6.00    -3400.00
01082              -2.00    -3600.00
01083              -4.00    -3400.00
01084               0.00    -3400.00
01085              -8.00    -3400.00
01086              -8.00    -3200.00
01087              -4.00    -3200.00
01088              -2.00    -3200.00
01089              -8.00    -3200.00
01090               0.00    -3200.00
01091              -2.00    -3200.00
01092              -6.00    -3200.00
01093              -8.00    -3000.00
01094              -6.00    -3200.00
01095              -2.00    -3000.00
01096              -2.00    -3000.00
01097              -6.00    -3000.00
01098              -8.00    -3000.00
01099              -8.00    -2800.00
01100              -2.00    -2800.00
01101              -4.00    -2800.00
01102              -8.00    -2800.00
01103              -8.00    -2800.00
01104              -2.00    -2600.00
01105              -4.00    -2600.00
01106              -8.00    -2400.00
01107             -10.00    -2400.00
01108              -6.00    -2400.00
01109              -2.00    -2400.00
01110               0.00    -2400.00
01111              -6.00    -2400.00
01112             -12.00    -2200.00
01113              -8.00    -2200.00
01114              -4.00    -2000.00
01115               0.00    -2000.00
01116              -2.00    -2000.00
01117              -8.00    -2000.00
01118              -8.00    -2000.00
01119              -8.00    -2000.00
01120              -6.00    -1600.00
01121              -2.00    -1800.00
01122              -2.00    -1600.00
01123              -2.00    -1600.00
01124              -2.00    -1400.00
01125              -8.00    -1400.00
01126             -10.00    -1400.00
01127              -8.00    -1400.00
01128               0.00    -1200.00
01129               6.00    -1000.00
01130              -4.00    -1200.00
01131             -10.00    -1000.00
01132             -10.00    -1000.00
01133              -4.00    -1000.00
01134               2.00     -800.00
01135               0.00     -800.00
01136              -2.00     -600.00
01137              -6.00     -600.00
01138              -8.00     -600.00
01139              -2.00     -600.00
01140               0.00     -600.00
01141               0.00     -400.00
01142              -2.00     -400.00
01143              -6.00     -400.00
01144              -2.00     -200.00
01145               0.00     -200.00
01146              -2.00        0.00
01147              -2.00        0.00
01148              -6.00        0.00
01149              -8.00      200.00
01150               0.00      200.00
01151               8.00      200.00
01152               6.00      400.00
01153              -2.00      400.00
01154               0.00      400.00
01155               2.00      400.00
01156              -2.00      400.00
01157              -2.00      600.00
01158               0.00      600.00
01159               6.00      800.00
01160              64.00      800.00
01161             176.00     1000.00
01162             -40.00     1000.00
01163            -270.00      800.00
01164            -206.00     1000.00
01165             230.00     1200.00
01166             230.00     1200.00
01167            -270.00      800.00
01168            -270.00     1200.00
01169             230.00     1800.00
01170             230.00     1200.00
01171            -270.00     1200.00
01172            -210.00     1800.00
01173             230.00     1800.00
01174             -74.00     1200.00
01175            -270.00     1600.00
01176             216.00     2200.00
01177              -8.00     1600.00
01178            -194.00     1600.00
01179             206.00     2200.00
01180              62.00     2000.00
01181            -246.00     1600.00
01182              78.00     2400.00
01183             108.00     2400.00
01184            -122.00     1800.00
01185              96.00     2000.00
01186              10.00     2600.00
01187            -176.00     2400.00
01188             134.00     2200.00
01189              90.00     2800.00
01190            -208.00     2600.00
01191              72.00     2400.00
01192             166.00     2800.00
01193            -178.00     2800.00
01194             -74.00     2600.00
01195             170.00     3000.00
01196               2.00     3000.00
01197            -106.00     2600.00
01198              38.00     3200.00
01199              38.00     3200.00
01200             -82.00     2800.00
01201              32.00     3200.00
01202              92.00     3400.00
01203             -84.00     3200.00
01204             -42.00     3200.00
01205              94.00     3600.00
01206             -32.00     3400.00
01207             -46.00     3200.00
01208              70.00     3600.00
01209             -22.00     3400.00
01210             -38.00     3200.00
01211              56.00     3600.00
01212             -16.00     3600.00
01213             -46.00     3400.00
01214              56.00     3600.00
01215               6.00     3800.00
01216             -68.00     3600.00
01217              34.00     3800.00
01218              46.00     4000.00
01219             -58.00     3600.00
01220               2.00     3800.00
01221              42.00     4000.00
01222             -50.00     4000.00
01223               0.00     4000.00
01224              74.00     4000.00
01225             -42.00     4000.00
01226             -54.00     4000.00
01227              46.00     4200.00
01228               6.00     4000.00
01229             -32.00     4000.00
01230              38.00     4200.00
01231               6.00     4200.00
01232             -56.00     4000.00
01233              14.00     4200.00
01234              36.00     4200.00
01235             -34.00     4000.00
01236               0.00     4000.00
01237              32.00     4200.00
01238             -26.00     4200.00
01239             -10.00     4000.00
01240              28.00     4200.00
01241             -16.00     4200.00
01242             -16.00     4000.00
01243              26.00     4200.00
01244              -6.00     4200.00
01245             -22.00     4000.00
01246              22.00     4200.00
01247               2.00     4200.00
01248             -24.00     4200.00
01249              14.00     4200.00
01250              10.00     4200.00
01251             -26.00     4000.00
01252               6.00     4200.00
01253              18.00     4200.00
01254             -22.00     4200.00
01255              -2.00     4200.00
01256              20.00     4200.00
01257             -10.00     4000.00
01258             -10.00     4200.00
01259              22.00     4000.00
01260              -2.00     4000.00
01261             -16.00     4000.00
01262              14.00     4000.00
01263               2.00     4200.00
01264             -16.00     4000.00
01265               8.00     4000.00
01266              10.00     4000.00
01267             -12.00     4000.00
01268               2.00     4000.00
01269              10.00     4000.00
01270             -10.00     4000.00
01271              -4.00     3800.00
01272               8.00     3800.00
01273               2.00     4000.00
01274               2.00     3800.00
01275              10.00     3800.00
01276             -10.00     3800.00
01277             -10.00     3600.00
01278               6.00     3600.00
01279               6.00     3600.00
01280               0.00     3600.00
01281               6.00     3400.00
01282              -6.00     3600.00
01283             -10.00     3600.00
01284               6.00     3400.00
01285               6.00     3400.00
01286              -6.00     3400.00
01287               0.00     3200.00
01288               8.00     3200.00
01289              -6.00     3200.00
01290              -4.00     3200.00
01291               6.00     3200.00
01292              -2.00     3200.00
01293              -8.00     3000.00
01294               4.00     3000.00
01295               6.00     3000.00
01296              -6.00     2800.00
01297               0.00     2800.00
01298               0.00     2800.00
01299              -8.00     2800.00
01300               0.00     2800.00
01301               2.00     2600.00
01302              -2.00     2600.00
01303              -6.00     2600.00
01304               0.00     2600.00
01305              -6.00     2400.00
01306              -2.00     2400.00
01307               2.00     2400.00
01308              -2.00     2200.00
01309              -2.00     2400.00
01310               2.00     2000.00
01311              -4.00     2400.00
01312              -6.00     2000.00
01313               2.00     2000.00
01314               2.00     2000.00
01315              -4.00     1800.00
01316               0.00     1800.00
01317              -2.00     1800.00
01318              -6.00     1800.00
01319              -2.00     1600.00
01320               6.00     1600.00
01321               0.00     1600.00
01322              -2.00     1600.00
01323              -2.00     1400.00
01324              -8.00     1200.00
01325              -8.00     1200.00
01326               0.00     1200.00
01327               6.00     1200.00
01328              -4.00     1200.00
01329              -6.00     1000.00
01330              -2.00     1000.00
01331              -6.00     1000.00
01332               0.00      800.00
01333               0.00      800.00
01334              -6.00      600.00
01335              -2.00      600.00
01336               4.00      600.00
01337              -6.00      400.00
01338              -8.00      400.00
01339               0.00      400.00
01340               2.00      200.00
01341              -2.00      200.00
01342               0.00      200.00
01343               0.00      200.00
01344               0.00        0.00
01345               8.00      200.00
01346               8.00        0.00
01347              -6.00        0.00
01348             -10.00        0.00
01349              -6.00     -200.00
01350               8.00        0.00
01351              18.00     -400.00
01352              54.00     -400.00
01353             134.00     -600.00
01354              -8.00     -600.00
01355            -270.00     -800.00
01356            -270.00     -600.00
01357             230.00     -600.00
01358             230.00     -800.00
01359            -270.00    -1200.00
01360            -270.00     -800.00
01361             230.00     -800.00
01362             230.00    -1000.00
01363            -256.00    -1400.00
01364            -270.00    -1000.00
01365             178.00    -1200.00
01366             122.00    -1400.00
01367             -30.00    -1400.00
01368              -8.00    -1600.00
01369            -118.00    -1400.00
01370             -72.00    -1600.00
01371             218.00    -1400.00
01372              54.00    -1600.00
01373            -224.00    -2000.00
01374             -38.00    -1800.00
01375             144.00    -1600.00
01376              14.00    -2000.00
01377             -40.00    -2200.00
01378             -80.00    -2000.00
01379             -26.00    -2000.00
01380             130.00    -2400.00
01381               6.00    -2400.00
01382            -146.00    -2200.00
01383               0.00    -2400.00
01384             106.00    -2400.00
01385             -30.00    -2400.00
01386             -46.00    -2400.00
01387               0.00    -2600.00
01388              14.00    -2600.00
01389               6.00    -2600.00
01390             -16.00    -2600.00
01391             -22.00    -2800.00
01392              -2.00    -2600.00
01393              18.00    -2800.00
01394              10.00    -3000.00
01395             -22.00    -2800.00
01396             -34.00    -3000.00
01397               8.00    -3000.00
01398              22.00    -3000.00
01399              -8.00    -3200.00
01400             -18.00    -3200.00
01401               2.00    -3200.00
01402              -2.00    -3200.00
01403             -10.00    -3200.00
01404             -10.00    -3200.00
01405              -8.00    -3200.00
01406              10.00    -3200.00
01407               6.00    -3200.00
01408             -18.00    -3400.00
01409             -14.00    -3200.00
01410               0.00    -3400.00
01411              -8.00    -3600.00
01412               0.00    -3600.00
01413              10.00    -3600.00
01414             -16.00    -3600.00
01415             -18.00    -3600.00
01416               6.00    -3600.00
01417              -6.00    -3600.00
01418             -16.00    -3800.00
01419               6.00    -3800.00
01420               2.00    -3600.00
01421             -22.00    -3800.00
01422              -8.00    -3800.00
01423               0.00    -3800.00
01424             -14.00    -3800.00
01425              -6.00    -3800.00
01426               6.00    -3800.00
01427             -10.00    -4000.00
01428             -10.00    -3800.00
01429               0.00    -3800.00
01430             -10.00    -3800.00
01431             -10.00    -3800.00
01432               6.00    -3800.00
01433              -2.00    -3800.00
01434             -10.00    -4000.00
01435              -8.00    -3800.00
01436             -10.00    -3800.00
01437              -8.00    -4000.00
01438               0.00    -4000.00
01439               0.00    -3800.00
01440             -10.00    -3800.00
01441              -8.00    -4000.00
01442              -6.00    -3800.00
01443             -10.00    -3800.00
01444              -4.00    -4000.00
01445               0.00    -3800.00
01446              -6.00    -4000.00
01447              -8.00    -3800.00
01448              -4.00    -4000.00
01449             -10.00    -3800.00
01450             -10.00    -3800.00
01451               0.00    -3800.00
01452               0.00    -3600.00
01453              -8.00    -3800.00
01454              -6.00    -3600.00
01455              -4.00    -3800.00
01456             -10.00    -3600.00
01457              -8.00    -3600.00
01458               0.00    -3600.00
01459              -6.00    -3600.00
01460              -8.00    -3600.00
01461              -6.00    -3600.00
01462              -8.00    -3600.00
01463             -10.00    -3600.00
01464              -2.00    -3600.00
01465              -2.00    -3400.00
01466              -2.00    -3400.00
01467              -4.00    -3400.00
01468              -8.00    -3200.00
01469             -10.00    -3400.00
01470              -4.00    -3200.00
01471              -2.00    -3200.00
01472              -4.00    -3200.00
01473              -2.00    -3200.00
01474              -4.00    -3200.00
01475              -8.00    -3200.00
01476              -8.00    -3000.00
01477              -2.00    -3000.00
01478              -6.00    -3000.00
01479              -4.00    -3000.00
01480               0.00    -2800.00
01481              -6.00    -3000.00
01482              -8.00    -2800.00
01483              -2.00    -2800.00
01484              -2.00    -2800.00
01485              -6.00    -2800.00
01486               0.00    -2800.00
01487              -2.00    -2800.00
01488             -10.00    -2600.00
01489             -10.00    -2600.00
01490              -6.00    -2600.00
01491              -6.00    -2400.00
01492              -2.00    -2400.00
01493              -6.00    -2400.00
01494             -10.00    -2400.00
01495              -8.00    -2200.00
01496              -6.00    -2200.00
01497              -2.00    -2000.00
01498              -6.00    -2000.00
01499              -6.00    -2000.00
01500              -2.00    -2000.00
01501              -6.00    -2000.00
01502              -8.00    -2000.00
01503              -8.00    -1800.00
01504              -4.00    -1600.00
01505              -6.00    -1600.00
01506              -2.00    -1600.00
01507              -6.00    -1600.00
01508              -6.00    -1400.00
01509              -6.00    -1600.00
01510              -6.00    -1400.00
01511              -8.00    -1400.00
01512              -6.00    -1200.00
01513              -6.00    -1000.00
01514              -6.00    -1000.00
01515              -6.00     -800.00
01516              -6.00    -1000.00
01517              -6.00    -1000.00
01518              -4.00     -800.00
01519              -2.00     -800.00
01520              -2.00     -800.00
01521              -6.00     -600.00
01522              -2.00     -600.00
01523              -6.00     -600.00
01524              -6.00     -400.00
01525              -2.00     -400.00
01526               0.00     -400.00
01527               0.00     -200.00
01528              -6.00     -200.00
01529              -8.00        0.00
01530              -6.00        0.00
01531              -2.00      200.00
01532              -2.00        0.00
01533              -2.00        0.00
01534              -2.00      200.00
01535               0.00      200.00
01536               0.00      200.00
01537               6.00      400.00
01538               6.00      400.00
01539              -2.00      400.00
01540              -8.00      400.00
01541              -2.00      400.00
01542               2.00      600.00
01543              50.00      800.00
01544             174.00     1000.00
01545              26.00      800.00
01546            -270.00      800.00
01547            -270.00     1000.00
01548             230.00     1200.00
01549             230.00     1400.00
01550            -270.00      800.00
01551            -270.00     1000.00
01552             230.00     1600.00
01553             230.00     1400.00
01554            -270.00     1000.00
01555            -270.00     1600.00
01556             230.00     1800.00
01557              54.00     1200.00
01558            -270.00     1400.00
01559             154.00     2200.00
01560              78.00     1600.00
01561            -216.00     1400.00
01562             136.00     2000.00
01563             130.00     2200.00
01564            -246.00     1600.00
01565              24.00     2000.00
01566             160.00     2600.00
01567            -126.00     2000.00
01568              30.00     2000.00
01569              48.00     2600.00
01570            -158.00     2400.00
01571             100.00     2000.00
01572             138.00     2600.00
01573            -218.00     2800.00
01574             -14.00     2400.00
01575             202.00     2800.00
01576            -102.00     3000.00
01577            -114.00     2600.00
01578             134.00     2800.00
01579              26.00     3200.00
01580            -110.00     2800.00
01581              24.00     3000.00
01582              66.00     3200.00
01583             -80.00     3000.00
01584              -8.00     3200.00
01585             102.00     3400.00
01586             -56.00     3200.00
01587             -78.00     3200.00
01588              86.00     3600.00
01589               2.00     3400.00
01590             -56.00     3200.00
01591              56.00     3400.00
01592              -8.00     3600.00
01593             -58.00     3400.00
01594              50.00     3600.00
01595              12.00     3600.00
01596             -54.00     3400.00
01597              38.00     3600.00
01598              32.00     3800.00
01599             -60.00     3600.00
01600               6.00     3600.00
01601              50.00     4000.00
01602             -48.00     3600.00
01603              -8.00     3600.00
01604              68.00     4000.00
01605             -40.00     4000.00
01606             -42.00     3800.00
01607              60.00     4000.00
01608              -4.00     4000.00
01609             -46.00     3800.00
01610              46.00     4200.00
01611              16.00     4000.00
01612             -54.00     4000.00
01613              22.00     4000.00
01614              34.00     4200.00
01615             -42.00     4000.00
01616               0.00     4200.00
01617              40.00     4200.00
01618             -28.00     4000.00
01619             -16.00     4000.00
01620              38.00     4200.00
01621             -16.00     4200.00
01622             -22.00     4000.00
01623              30.00     4400.00
01624               0.00     4200.00
01625             -26.00     4200.00
01626              16.00     4200.00
01627               6.00     4200.00
01628             -24.00     4200.00
01629              12.00     4200.00
01630              14.00     4200.00
01631             -18.00     4200.00
01632               8.00     4200.00
01633              14.00     4200.00
01634             -24.00     4200.00
01635              -4.00     4200.00
01636              22.00     4000.00
01637             -10.00     4200.00
01638             -14.00     4000.00
01639              16.00     4200.00
01640              -6.00     4200.00
01641             -16.00     4000.00
01642              16.00     4200.00
01643               6.00     4000.00
01644             -16.00     4000.00
01645               8.00     4000.00
01646               8.00     4000.00
01647             -16.00     4000.00
01648              -2.00     4000.00
01649              16.00     4000.00
01650              -8.00     4000.00
01651              -2.00     4000.00
01652              10.00     4000.00
01653              -6.00     4000.00
01654              -8.00     3800.00
01655              10.00     3800.00
01656               0.00     3600.00
01657              -6.00     3600.00
01658               8.00     3800.00
01659               2.00     3600.00
01660              -8.00     3600.00
01661               4.00     3600.00
01662               0.00     3600.00
01663              -8.00     3400.00
01664               6.00     3600.00
01665               6.00     3600.00
01666              -8.00     3400.00
01667              -2.00     3400.00
01668               4.00     3400.00
01669              -6.00     3400.00
01670              -2.00     3400.00
01671              10.00     3400.00
01672              -2.00     3200.00
01673              -6.00     3200.00
01674               2.00     3200.00
01675               0.00     3200.00
01676              -6.00     3200.00
01677               6.00     3000.00
01678               6.00     3000.00
01679              -8.00     3200.00
01680              -4.00     3000.00
01681               2.00     2800.00
01682              -2.00     2800.00
01683               0.00     2600.00
01684               2.00     2600.00
01685              -6.00     2600.00
01686              -6.00     2400.00
01687               2.00     2600.00
01688              -6.00     2600.00
01689              -2.00     2600.00
01690               2.00     2400.00
01691               4.00     2400.00
01692              -6.00     2200.00
01693              -2.00     2000.00
01694              -6.00     2000.00
01695              -6.00     2000.00
01696               0.00     2000.00
01697               0.00     2000.00
01698              -6.00     2000.00
01699               0.00     1800.00
01700               0.00     1800.00
01701              -8.00     1600.00
01702              -6.00     1600.00
01703               6.00     1600.00
01704               0.00     1600.00
01705              -6.00     1600.00
01706              -2.00     1600.00
01707              -6.00     1200.00
01708              -6.00     1200.00
01709               0.00     1000.00
01710               2.00     1200.00
01711              -2.00     1200.00
01712               0.00     1000.00
01713               0.00     1000.00
01714              -6.00      800.00
01715              -4.00      800.00
01716               0.00      800.00
01717              -2.00      800.00
01718               0.00      600.00
01719               0.00      400.00
01720              -6.00      600.00
01721              -6.00      400.00
01722               2.00      400.00
01723              -2.00      200.00
01724              -2.00      200.00
01725               2.00      200.00
01726               2.00        0.00
01727              -2.00      200.00
01728               2.00        0.00
01729               8.00        0.00
01730               2.00        0.00
01731              -8.00        0.00
01732              -6.00     -200.00
01733               2.00     -400.00
01734               8.00     -200.00
01735              42.00     -400.00
01736             140.00     -400.00
01737              48.00     -800.00
01738            -270.00     -800.00
01739            -270.00     -400.00
01740             230.00     -600.00
01741             230.00     -800.00
01742            -230.00    -1200.00
01743            -270.00     -800.00
01744             112.00    -1000.00
01745             230.00    -1000.00
01746            -130.00    -1200.00
01747            -270.00    -1000.00
01748             110.00    -1200.00
01749             166.00    -1400.00
01750             -34.00    -1400.00
01751             -22.00    -1400.00
01752             -74.00    -1600.00
01753             -90.00    -1800.00
01754             184.00    -1600.00
01755             102.00    -1600.00
01756            -224.00    -1800.00
01757             -88.00    -2000.00
01758             160.00    -2000.00
01759              54.00    -2000.00
01760             -34.00    -2400.00
01761            -106.00    -2000.00
01762             -58.00    -2000.00
01763             128.00    -2400.00
01764              72.00    -2400.00
01765            -122.00    -2200.00
01766             -42.00    -2400.00
01767              72.00    -2600.00
01768             -24.00    -2400.00
01769             -34.00    -2400.00
01770              10.00    -2800.00
01771              22.00    -2600.00
01772              -2.00    -2600.00
01773             -26.00    -2800.00
01774             -26.00    -2800.00
01775               4.00    -2800.00
01776              20.00    -2800.00
01777              10.00    -2800.00
01778             -16.00    -2800.00
01779             -40.00    -3000.00
01780              -2.00    -3000.00
01781              32.00    -3000.00
01782               0.00    -3200.00
01783             -26.00    -3000.00
01784              -8.00    -3000.00
01785              -2.00    -3200.00
01786              -6.00    -3200.00
01787               2.00    -3200.00
01788               2.00    -3400.00
01789              -2.00    -3200.00
01790              -8.00    -3200.00
01791             -18.00    -3400.00
01792              -6.00    -3400.00
01793              12.00    -3400.00
01794               0.00    -3400.00
01795             -10.00    -3600.00
01796              -2.00    -3600.00
01797             -10.00    -3600.00
01798             -12.00    -3600.00
01799               6.00    -3600.00
01800               6.00    -3600.00
01801             -10.00    -3600.00
01802              -2.00    -3800.00
01803              -2.00    -3600.00
01804             -18.00    -3600.00
01805              -8.00    -3600.00
01806              14.00    -3800.00
01807               2.00    -3800.00
01808             -16.00    -3800.00
01809              -8.00    -3800.00
01810              -8.00    -3800.00
01811              -2.00    -3800.00
01812               2.00    -3800.00
01813              -6.00    -3800.00
01814             -10.00    -3800.00
01815              -6.00    -3800.00
01816              -2.00    -3800.00
01817             -10.00    -4000.00
01818              -8.00    -3800.00
01819              -6.00    -3800.00
01820              -8.00    -3800.00
01821              -6.00    -3800.00
01822               0.00    -3800.00
01823              -6.00    -3800.00
01824             -10.00    -3800.00
01825             -10.00    -3800.00
01826             -10.00    -3800.00
01827              -8.00    -3800.00
01828               4.00    -4000.00
01829              -2.00    -3800.00
01830             -12.00    -3800.00
01831             -10.00    -4000.00
01832              -8.00    -4000.00
01833              -6.00    -3800.00
01834               0.00    -3600.00
01835              -2.00    -3800.00
01836             -10.00    -4000.00
01837             -10.00    -3600.00
01838              -8.00    -3800.00
01839              -8.00    -3600.00
01840              -8.00    -3600.00
01841               0.00    -3800.00
01842              -2.00    -3800.00
01843             -10.00    -3800.00
01844              -8.00    -3600.00
01845              -2.00    -3600.00
01846              -8.00    -3600.00
01847              -6.00    -3600.00
01848              -6.00    -3600.00
01849              -8.00    -3600.00
01850              -6.00    -3400.00
01851               0.00    -3200.00
01852              -6.00    -3400.00
01853              -6.00    -3200.00
01854              -8.00    -3200.00
01855              -6.00    -3200.00
01856              -2.00    -3200.00
01857               0.00    -3200.00
01858              -6.00    -3200.00
01859             -10.00    -3200.00
01860              -8.00    -3000.00
01861              -8.00    -3000.00
01862              -2.00    -3000.00
01863               0.00    -3000.00
01864              -2.00    -3000.00
01865             -10.00    -2800.00
01866              -8.00    -2800.00
01867              -2.00    -2800.00
01868              -4.00    -2800.00
01869              -6.00    -2800.00
01870              -2.00    -2800.00
01871              -8.00    -2600.00
01872              -8.00    -2600.00
01873              -4.00    -2600.00
01874              -2.00    -2400.00
01875              -2.00    -2400.00
01876              -2.00    -2400.00
01877               0.00    -2200.00
01878              -6.00    -2400.00
01879              -8.00    -2200.00
01880              -6.00    -2200.00
01881              -6.00    -2200.00
01882              -6.00    -2200.00
01883              -4.00    -2000.00
01884              -6.00    -2000.00
01885             -10.00    -2000.00
01886              -6.00    -1600.00
01887              -4.00    -2000.00
01888              -6.00    -1600.00
01889              -2.00    -1600.00
01890              -8.00    -1600.00
01891              -8.00    -1400.00
01892              -6.00    -1400.00
01893              -6.00    -1400.00
01894              -8.00    -1400.00
01895              -6.00    -1000.00
01896              -2.00    -1200.00
01897              -6.00    -1000.00
01898              -8.00    -1000.00
01899              -6.00     -800.00
01900              -8.00    -1000.00
01901              -6.00     -800.00
01902              -2.00     -800.00
01903              -6.00     -800.00
01904              -8.00     -800.00
01905              -6.00     -600.00
01906              -6.00     -600.00
01907              -2.00     -400.00
01908              -2.00     -400.00
01909              -6.00     -600.00
01910              -2.00     -400.00
01911              -2.00     -400.00
01912              -6.00     -200.00
01913              -6.00        0.00
01914              -6.00        0.00
01915              -6.00        0.00
01916              -4.00      200.00
01917               2.00      200.00
01918               2.00      200.00
01919              -2.00      400.00
01920               0.00      400.00
01921               8.00      400.00
01922              -2.00      400.00
01923              -6.00      600.00
01924              -6.00      600.00
01925               0.00      600.00
01926              32.00      800.00
01927             158.00     1000.00
01928              82.00     1000.00
01929            -270.00      800.00
01930            -270.00      800.00
01931             230.00     1400.00
01932             230.00     1200.00
01933            -270.00      800.00
01934            -270.00      800.00
01935             230.00     1600.00
01936             230.00     1600.00
01937            -270.00     1000.00
01938            -270.00     1600.00
01939             230.00     2000.00
01940             174.00     1400.00
01941            -270.00     1400.00
01942              82.00     2000.00
01943             152.00     1800.00
01944            -214.00     1400.00
01945              58.00     2000.00
01946             192.00     2400.00
01947            -226.00     1600.00
01948             -32.00     2000.00
01949             192.00     2600.00
01950            -102.00     2000.00
01951             -22.00     1800.00
01952              80.00     2600.00
01953            -142.00     2400.00
01954              54.00     2000.00
01955             178.00     2600.00
01956            -190.00     2800.00
01957             -82.00     2400.00
01958             210.00     2600.00
01959             -48.00     3000.00
01960            -146.00     2600.00
01961             110.00     2800.00
01962              64.00     3200.00
01963            -110.00     2800.00
01964              -2.00     2800.00
01965              80.00     3200.00
01966             -66.00     3000.00
01967             -32.00     3000.00
01968             110.00     3400.00
01969             -18.00     3200.00
01970            -106.00     3200.00
01971              62.00     3400.00
01972              30.00     3200.00
01973             -58.00     3200.00
01974              48.00     3600.00
01975              16.00     3600.00
01976             -66.00     3400.00
01977              32.00     3600.00
01978              24.00     3600.00
01979             -58.00     3600.00
01980              30.00     3600.00
01981              48.00     3800.00
01982             -56.00     3600.00
01983             -14.00     3600.00
01984              54.00     3800.00
01985             -34.00     3800.00
01986             -18.00     3800.00
01987              70.00     4000.00
01988             -18.00     3800.00
01989             -58.00     4000.00
01990              50.00     4000.00
01991               8.00     4000.00
01992             -50.00     4000.00
01993              40.00     4200.00
01994              30.00     4200.00
01995             -54.00     4000.00
01996               2.00     4200.00
01997              38.00     4200.00
01998             -32.00     4000.00
01999              -8.00     4000.00
02000              42.00     4200.00
02001             -22.00     4200.00
02002             -26.00     4000.00
02003              32.00     4200.00
02004               0.00     4200.00
02005             -24.00     4000.00
02006              24.00     4400.00
02007               6.00     4200.00
02008             -26.00     4200.00
02009              14.00     4200.00
02010              12.00     4200.00
02011             -24.00     4000.00
02012               8.00     4200.00
02013              18.00     4200.00
02014             -22.00     4000.00
02015              -2.00     4200.00
02016              20.00     4200.00
02017             -20.00     4200.00
02018             -12.00     4200.00
02019              22.00     4200.00
02020              -6.00     4200.00
02021             -16.00     4000.00
02022              16.00     4200.00
02023              -2.00     4200.00
02024             -24.00     4200.00
02025              10.00     4000.00
02026              10.00     4000.00
02027             -14.00     4200.00
02028               2.00     4000.00
02029               6.00     4000.00
02030             -22.00     4000.00
02031              -2.00     4000.00
02032              20.00     4000.00
02033              -6.00     4000.00
02034             -10.00     4000.00
02035               6.00     4000.00
02036              -6.00     3800.00
02037              -6.00     4000.00
02038              10.00     3800.00
02039               0.00     3800.00
02040             -10.00     3600.00
02041               6.00     3800.00
02042               2.00     3600.00
02043              -8.00     3600.00
02044               2.00     3600.00
02045               6.00     3600.00
02046              -8.00     3600.00
02047              -2.00     3600.00
02048               6.00     3400.00
02049              -6.00     3600.00
02050               0.00     3600.00
02051               8.00     3400.00
02052              -6.00     3600.00
02053              -6.00     3400.00
02054               8.00     3200.00
02055               0.00     3400.00
02056              -8.00     3200.00
02057               6.00     3200.00
02058               0.00     3200.00
02059             -10.00     3200.00
02060               2.00     3000.00
02061               6.00     3200.00
02062              -6.00     2800.00
02063              -6.00     2800.00
02064               6.00     3000.00
02065              -2.00     2800.00
02066               0.00     2800.00
02067               4.00     2800.00
02068              -2.00     2600.00
02069              -8.00     2600.00
02070               4.00     2600.00
02071              -6.00     2600.00
02072              -2.00     2400.00
02073               2.00     2400.00
02074               0.00     2400.00
02075              -6.00     2400.00
02076               0.00     2000.00
02077               0.00     2200.00
02078              -2.00     2000.00
02079               0.00     2000.00
02080              -2.00     2000.00
02081              -8.00     1800.00
02082               0.00     1800.00
02083               2.00     1800.00
02084              -8.00     1800.00
02085              -6.00     1600.00
02086               2.00     1600.00
02087              -2.00     1600.00
02088              -6.00     1400.00
02089               0.00     1400.00
02090               0.00     1400.00
02091              -8.00     1200.00
02092              -2.00     1200.00
02093              -2.00     1000.00
02094              -4.00     1000.00
02095              -2.00     1200.00
02096               0.00     1000.00
02097              -6.00      800.00
02098              -2.00      800.00
02099               0.00      800.00
02100              -2.00      800.00
02101               0.00      800.00
02102               0.00      600.00
02103              -2.00      600.00
02104              -6.00      400.00
02105               0.00      400.00
02106              -2.00      400.00
02107              -4.00      200.00
02108               0.00      200.00
02109               2.00      200.00
02110              -2.00        0.00
02111               2.00        0.00
02112               8.00        0.00
02113               4.00        0.00
02114              -6.00     -200.00
02115              -8.00     -200.00
02116              -2.00     -200.00
02117               6.00     -400.00
02118              38.00     -400.00
02119             130.00     -600.00
02120              78.00     -600.00
02121            -270.00     -800.00
02122            -270.00     -600.00
02123             230.00     -400.00
02124             230.00     -600.00
02125             -10.00    -1200.00
02126            -270.00    -1000.00
02127             -58.00     -800.00
02128             230.00    -1000.00
02129              10.00    -1200.00
02130            -270.00    -1000.00
02131              14.00    -1200.00
02132             214.00    -1400.00
02133             -16.00    -1400.00
02134             -18.00    -1400.00
02135             -50.00    -1400.00
02136            -136.00    -1600.00
02137             144.00    -1600.00
02138             168.00    -1600.00
02139            -192.00    -2000.00
02140            -128.00    -2000.00
02141             142.00    -2000.00
02142              58.00    -1800.00
02143             -22.00    -2200.00
02144             -78.00    -2200.00
02145             -64.00    -2000.00
02146              96.00    -2200.00
02147              88.00    -2400.00
02148            -130.00    -2200.00
02149             -64.00    -2400.00
02150             102.00    -2400.00
02151              10.00    -2400.00
02152             -56.00    -2400.00
02153             -16.00    -2800.00
02154              18.00    -2600.00
02155               4.00    -2800.00
02156              -2.00    -2800.00
02157             -26.00    -2800.00
02158             -14.00    -2800.00
02159               8.00    -2800.00
02160              16.00    -2800.00
02161              -6.00    -3000.00
02162             -40.00    -3000.00
02163             -10.00    -2800.00
02164              24.00    -3000.00
02165               6.00    -3000.00
02166             -22.00    -3000.00
02167             -10.00    -3200.00
02168              -6.00    -3200.00
02169              -2.00    -3200.00
02170              -2.00    -3200.00
02171              -8.00    -3200.00
02172               0.00    -3200.00
02173               6.00    -3200.00
02174             -14.00    -3400.00
02175             -14.00    -3400.00
02176               2.00    -3600.00
02177              -8.00    -3400.00
02178             -10.00    -3600.00
02179              10.00    -3600.00
02180               0.00    -3600.00
02181             -18.00    -3600.00
02182              -2.00    -3600.00
02183               0.00    -3600.00
02184             -14.00    -3600.00
02185               6.00    -3800.00
02186              10.00    -3600.00
02187             -16.00    -3800.00
02188             -16.00    -3800.00
02189               2.00    -3800.00
02190              -6.00    -3800.00
02191              -8.00    -3800.00
02192               6.00    -3800.00
02193              -6.00    -3800.00
02194             -10.00    -3800.00
02195               0.00    -3800.00
02196              -2.00    -3800.00
02197             -10.00    -3800.00
02198               0.00    -3800.00
02199              -2.00    -3800.00
02200              -8.00    -3800.00
02201              -2.00    -4000.00
02202              -6.00    -3800.00
02203             -10.00    -3800.00
02204              -8.00    -4000.00
02205              -2.00    -3800.00
02206              -8.00    -3800.00
02207              -6.00    -4000.00
02208              -2.00    -3800.00
02209             -12.00    -3800.00
02210             -14.00    -3800.00
02211              -2.00    -3800.00
02212              -4.00    -3800.00
02213              -8.00    -3800.00
02214              -4.00    -3800.00
02215              -8.00    -3800.00
02216             -10.00    -3800.00
02217              -6.00    -3800.00
02218              -2.00    -3800.00
02219              -8.00    -3800.00
02220             -10.00    -3800.00
02221              -8.00    -3800.00
02222              -8.00    -3600.00
02223              -8.00    -3600.00
02224               0.00    -3800.00
02225              -6.00    -3600.00
02226             -14.00    -3600.00
02227             -10.00    -3600.00
02228              -2.00    -3600.00
02229              -8.00    -3600.00
02230              -2.00    -3400.00
02231              -6.00    -3600.00
02232              -8.00    -3400.00
02233              -2.00    -3600.00
02234              -2.00    -3200.00
02235             -10.00    -3400.00
02236              -8.00    -3200.00
02237              -2.00    -3400.00
02238              -6.00    -3200.00
02239              -8.00    -3200.00
02240              -8.00    -3200.00
02241             -10.00    -3000.00
02242              -6.00    -3200.00
02243              -2.00    -2800.00
02244              -6.00    -3000.00
02245              -8.00    -3000.00
02246              -2.00    -3000.00
02247              -6.00    -2800.00
02248              -8.00    -3000.00
02249              -8.00    -2800.00
02250              -6.00    -2800.00
02251              -2.00    -2800.00
02252              -2.00    -2600.00
02253               0.00    -2600.00
02254              -8.00    -2800.00
02255             -14.00    -2600.00
02256              -8.00    -2600.00
02257              -2.00    -2400.00
02258              -2.00    -2400.00
02259               0.00    -2400.00
02260              -2.00    -2400.00
02261             -10.00    -2400.00
02262              -8.00    -2200.00
02263              -8.00    -2200.00
02264               0.00    -2000.00
02265               0.00    -2000.00
02266              -6.00    -2000.00
02267              -8.00    -2000.00
02268             -14.00    -1800.00
02269              -6.00    -1800.00
02270               0.00    -1800.00
02271              -2.00    -1600.00
02272              -8.00    -1800.00
02273              -8.00    -1600.00
02274              -6.00    -1600.00
02275              -6.00    -1600.00
02276              -8.00    -1400.00
02277              -6.00    -1400.00
02278              -6.00    -1000.00
02279               0.00    -1200.00
02280              -2.00    -1000.00
02281              -8.00    -1000.00
02282              -8.00    -1000.00
02283              -6.00     -800.00
02284              -6.00     -800.00
02285              -2.00     -800.00
02286              -2.00     -600.00
02287              -6.00     -600.00
02288              -8.00     -800.00
02289              -2.00     -600.00
02290              -2.00     -400.00
02291             -10.00     -400.00
02292              -6.00     -400.00
02293               0.00     -400.00
02294              -2.00     -200.00
02295              -2.00        0.00
02296              -8.00        0.00
02297              -8.00        0.00
02298              -4.00        0.00
02299               0.00      200.00
02300              -2.00      200.00
02301               0.00      200.00
02302               0.00      200.00
02303               0.00      400.00
02304               8.00      400.00
02305               2.00      400.00
02306             -10.00      400.00
02307              -8.00      600.00
02308               4.00      800.00
02309              30.00      800.00
02310             142.00      800.00
02311             122.00     1000.00
02312            -270.00      800.00
02313            -270.00      800.00
02314             230.00     1200.00
02315             230.00     1400.00
02316             -48.00     1200.00
02317            -270.00      800.00
02318              20.00     1800.00
02319             230.00     1600.00
02320            -128.00     1000.00
02321            -270.00     1600.00
02322             230.00     2000.00
02323             230.00     1200.00
02324            -270.00     1200.00
02325             -10.00     2000.00
02326             208.00     2000.00
02327            -192.00     1400.00
02328              -6.00     2000.00
02329             230.00     2400.00
02330            -186.00     1600.00
02331             -96.00     1800.00
02332             192.00     2600.00
02333             -56.00     2200.00
02334             -54.00     1800.00
02335             100.00     2600.00
02336            -130.00     2600.00
02337             -10.00     2200.00
02338             202.00     2400.00
02339            -134.00     2800.00
02340            -136.00     2600.00
02341             198.00     2600.00
02342               6.00     3000.00
02343            -174.00     2600.00
02344              78.00     2800.00
02345             102.00     3200.00
02346            -106.00     2800.00
02347             -32.00     2800.00
02348              86.00     3200.00
02349             -40.00     3000.00
02350             -58.00     2800.00
02351              90.00     3400.00
02352               8.00     3200.00
02353            -110.00     3000.00
02354              48.00     3400.00
02355              54.00     3400.00
02356             -66.00     3200.00
02357              26.00     3400.00
02358              30.00     3600.00
02359             -70.00     3400.00
02360              18.00     3400.00
02361              46.00     3800.00
02362             -56.00     3600.00
02363               6.00     3600.00
02364              54.00     3800.00
02365             -42.00     3800.00
02366             -26.00     3600.00
02367              54.00     4000.00
02368             -24.00     4000.00
02369             -38.00     3600.00
02370              64.00     3800.00
02371               0.00     4000.00
02372             -64.00     3800.00
02373              38.00     4000.00
02374              24.00     4000.00
02375             -58.00     4000.00
02376              24.00     4000.00
02377              42.00     4000.00
02378             -48.00     4000.00
02379              -8.00     4000.00
02380              42.00     4200.00
02381             -26.00     4000.00
02382             -24.00     4000.00
02383              42.00     4200.00
02384              -6.00     4200.00
02385             -30.00     4000.00
02386              26.00     4400.00
02387               0.00     4200.00
02388             -32.00     4000.00
02389              22.00     4200.00
02390              16.00     4200.00
02391             -26.00     4200.00
02392               6.00     4200.00
02393              16.00     4400.00
02394             -20.00     4200.00
02395               2.00     4200.00
02396              22.00     4400.00
02397             -16.00     4200.00
02398              -8.00     4200.00
02399              22.00     4200.00
02400             -12.00     4200.00
02401             -16.00     4000.00
02402              20.00     4200.00
02403               0.00     4200.00
02404             -20.00     4000.00
02405              14.00     4200.00
02406               6.00     4200.00
02407             -24.00     4000.00
02408               6.00     4000.00
02409              14.00     4000.00
02410             -16.00     4000.00
02411              -2.00     4000.00
02412              12.00     4000.00
02413             -14.00     4000.00
02414              -8.00     4000.00
02415              16.00     4000.00
02416              -2.00     4000.00
02417             -12.00     4000.00
02418               8.00     4000.00
02419               0.00     4000.00
02420             -16.00     3800.00
02421               2.00     4000.00
02422               2.00     3800.00
02423              -8.00     3800.00
02424               2.00     3800.00
02425               2.00     3600.00
02426             -12.00     3600.00
02427              -2.00     3600.00
02428               6.00     3600.00
02429              -6.00     3400.00
02430              -2.00     3600.00
02431               8.00     3600.00
02432              -6.00     3600.00
02433             -10.00     3600.00
02434               6.00     3400.00
02435              -2.00     3400.00
02436              -2.00     3200.00
02437               6.00     3200.00
02438              -2.00     3200.00
02439             -12.00     3400.00
02440               4.00     3200.00
02441               8.00     3200.00
02442              -8.00     3200.00
02443               0.00     3000.00
02444               8.00     3200.00
02445              -6.00     3000.00
02446              -6.00     2800.00
02447               6.00     2800.00
02448              -6.00     2800.00
02449              -2.00     2800.00
02450               6.00     2800.00
02451              -2.00     2800.00
02452              -8.00     2600.00
02453               0.00     2600.00
02454               0.00     2600.00
02455               0.00     2600.00
02456               2.00     2400.00
02457               2.00     2400.00
02458              -6.00     2400.00
02459               0.00     2200.00
02460               0.00     2200.00
02461              -4.00     2000.00
02462              -2.00     2000.00
02463               0.00     2000.00
02464              -6.00     2000.00
02465               0.00     1800.00
02466               0.00     1800.00
02467              -6.00     1800.00
02468              -8.00     1600.00
02469               4.00     1600.00
02470               2.00     1600.00
02471              -6.00     1600.00
02472              -2.00     1600.00
02473              -2.00     1200.00
02474              -8.00     1200.00
02475              -2.00     1200.00
02476               2.00     1200.00
02477               0.00     1000.00
02478              -2.00     1000.00
02479              -2.00     1000.00
02480              -8.00     1000.00
02481              -6.00      800.00
02482               0.00      800.00
02483              -2.00      800.00
02484              -2.00      800.00
02485              -2.00      600.00
02486              -6.00      400.00
02487              -6.00      400.00
02488               0.00      400.00
02489              -2.00      400.00
02490              -6.00      200.00
02491               0.00      200.00
02492               0.00      200.00
02493              -2.00      200.00
02494               2.00        0.00
02495              10.00        0.00
02496               6.00        0.00
02497              -6.00        0.00
02498             -10.00     -200.00
02499              -8.00     -400.00
02500               6.00     -200.00
02501              32.00     -400.00
02502             116.00     -600.00
02503             110.00     -600.00
02504            -218.00     -800.00
02505            -270.00     -800.00
02506             106.00     -400.00
02507             230.00     -600.00
02508             202.00    -1000.00
02509            -270.00     -800.00
02510            -234.00     -800.00
02511             230.00    -1200.00
02512             166.00    -1200.00
02513            -270.00    -1200.00
02514             -88.00    -1000.00
02515             230.00    -1400.00
02516               2.00    -1400.00
02517             -26.00    -1400.00
02518             -28.00    -1400.00
02519            -152.00    -1600.00
02520              94.00    -1400.00
02521             216.00    -1600.00
02522            -152.00    -1600.00
02523            -170.00    -2000.00
02524             110.00    -1800.00
02525              86.00    -2000.00
02526              -8.00    -2200.00
02527             -64.00    -2200.00
02528             -76.00    -2000.00
02529              58.00    -2200.00
02530             118.00    -2400.00
02531            -106.00    -2200.00
02532             -92.00    -2200.00
02533              88.00    -2400.00
02534              38.00    -2400.00
02535             -62.00    -2400.00
02536             -22.00    -2800.00
02537              20.00    -2600.00
02538               6.00    -2600.00
02539               0.00    -2800.00
02540             -26.00    -2800.00
02541             -22.00    -2800.00
02542               2.00    -2800.00
02543              24.00    -2800.00
02544               0.00    -2800.00
02545             -38.00    -3000.00
02546             -20.00    -3000.00
02547              18.00    -3000.00
02548               6.00    -3000.00
02549             -16.00    -3200.00
02550              -6.00    -3000.00
02551              -2.00    -3200.00
02552              -2.00    -3200.00
02553              -8.00    -3200.00
02554             -10.00    -3200.00
02555               0.00    -3400.00
02556              10.00    -3400.00
02557             -16.00    -3400.00
02558             -24.00    -3400.00
02559               2.00    -3600.00
02560               2.00    -3400.00
02561              -8.00    -3600.00
02562               6.00    -3600.00
02563              -2.00    -3600.00
02564             -24.00    -3600.00
02565              -2.00    -3600.00
02566              -2.00    -3600.00
02567             -22.00    -3600.00
02568               2.00    -3800.00
02569              22.00    -3600.00
02570             -10.00    -3600.00
02571             -28.00    -3800.00
02572             -10.00    -3600.00
02573              -6.00    -3800.00
02574               2.00    -3600.00
02575              14.00    -3800.00
02576              -6.00    -3800.00
02577             -24.00    -3800.00
02578              -8.00    -3800.00
02579               0.00    -3800.00
02580              -6.00    -3800.00
02581              -2.00    -3800.00
02582               0.00    -4000.00
02583             -12.00    -4000.00
02584              -4.00    -3800.00
02585              -2.00    -3800.00
02586             -14.00    -4000.00
02587              -8.00    -3800.00
02588              -2.00    -3800.00
02589              -4.00    -3800.00
02590               0.00    -3800.00
02591               0.00    -3800.00
02592              -8.00    -4000.00
02593             -16.00    -3800.00
02594              -8.00    -4000.00
02595              -6.00    -3800.00
02596               0.00    -3800.00
02597               2.00    -3800.00
02598             -10.00    -3800.00
02599             -24.00    -3800.00
02600              -8.00    -3800.00
02601               6.00    -4000.00
02602              -2.00    -3800.00
02603             -16.00    -3600.00
02604             -10.00    -3800.00
02605              -6.00    -3600.00
02606              -6.00    -3800.00
02607              -6.00    -3600.00
02608              -8.00    -3600.00
02609              -8.00    -3600.00
02610              -6.00    -3600.00
02611              -2.00    -3600.00
02612             -16.00    -3600.00
02613              -8.00    -3600.00
02614               2.00    -3600.00
02615               0.00    -3600.00
02616             -10.00    -3600.00
02617             -18.00    -3400.00
02618             -18.00    -3400.00
02619               2.00    -3200.00
02620              10.00    -3200.00
02621              -2.00    -3200.00
02622             -22.00    -3200.00
02623             -14.00    -3200.00
02624               0.00    -3200.00
02625               4.00    -3200.00
02626              -6.00    -3200.00
02627             -16.00    -3200.00
02628             -14.00    -3000.00
02629               2.00    -3000.00
02630               6.00    -3000.00
02631              -8.00    -2800.00
02632             -16.00    -2800.00
02633              -8.00    -2800.00
02634               0.00    -2800.00
02635               2.00    -2800.00
02636              -2.00    -2800.00
02637             -10.00    -2400.00
02638             -10.00    -2600.00
02639              -2.00    -2600.00
02640               0.00    -2400.00
02641             -10.00    -2400.00
02642              -8.00    -2200.00
02643               0.00    -2400.00
02644               2.00    -2200.00
02645              -4.00    -2200.00
02646             -14.00    -2200.00
02647             -10.00    -2000.00
02648               0.00    -2000.00
02649               8.00    -2000.00
02650               0.00    -2000.00
02651             -10.00    -1800.00
02652             -16.00    -1600.00
02653              -2.00    -1800.00
02654               2.00    -1600.00
02655               0.00    -1600.00
02656              -6.00    -1600.00
02657              -8.00    -1600.00
02658              -2.00    -1400.00
02659               0.00    -1400.00
02660              -2.00    -1400.00
02661              -8.00    -1000.00
02662             -10.00    -1000.00
02663              -4.00    -1000.00
02664               0.00    -1000.00
02665               0.00     -800.00
02666              -8.00    -1000.00
02667             -14.00     -800.00
02668              -6.00     -800.00
02669               2.00     -600.00
02670               0.00     -800.00
02671              -8.00     -600.00
02672              -8.00     -600.00
02673              -6.00     -400.00
02674              -2.00     -600.00
02675              -4.00     -400.00
02676              -6.00     -400.00
02677              -6.00     -200.00
02678              -2.00     -400.00
02679              -2.00     -200.00
02680              -2.00        0.00
02681              -6.00        0.00
02682             -10.00        0.00
02683              -2.00      200.00
02684               6.00      200.00
02685               2.00      400.00
02686              -2.00      400.00
02687               0.00      200.00
02688               0.00      400.00
02689              -2.00      400.00
02690              -2.00      400.00
02691               0.00      600.00
02692              14.00      800.00
02693             112.00      800.00
02694             158.00     1000.00
02695            -218.00      800.00
02696            -270.00      800.00
02697             114.00     1200.00
02698             230.00     1400.00
02699             198.00     1200.00
02700            -270.00      800.00
02701            -192.00     1600.00
02702             230.00     1600.00
02703              80.00     1200.00
02704            -270.00     1200.00
02705             126.00     2000.00
02706             230.00     1600.00
02707            -264.00     1200.00
02708            -102.00     2000.00
02709             230.00     2200.00
02710            -154.00     1200.00
02711             -74.00     1800.00
02712             230.00     2400.00
02713            -128.00     1800.00
02714            -158.00     1800.00
02715             176.00     2600.00
02716              -2.00     2400.00
02717             -88.00     2000.00
02718             110.00     2600.00
02719             -98.00     2800.00
02720             -68.00     2200.00
02721             206.00     2400.00
02722             -66.00     2800.00
02723            -184.00     2400.00
02724             174.00     2600.00
02725              66.00     2800.00
02726            -186.00     2600.00
02727              34.00     2600.00
02728             126.00     3200.00
02729             -86.00     2800.00
02730             -58.00     2800.00
02731              82.00     3200.00
02732             -16.00     3000.00
02733             -74.00     2800.00
02734              78.00     3200.00
02735              38.00     3200.00
02736            -114.00     3200.00
02737              16.00     3400.00
02738              70.00     3400.00
02739             -58.00     3200.00
02740               6.00     3400.00
02741              46.00     3600.00
02742             -64.00     3400.00
02743              -4.00     3400.00
02744              56.00     3600.00
02745             -48.00     3600.00
02746             -18.00     3400.00
02747              62.00     3800.00
02748             -32.00     3600.00
02749             -46.00     3600.00
02750              54.00     4000.00
02751              -2.00     3800.00
02752             -46.00     3600.00
02753              50.00     3800.00
02754              14.00     4000.00
02755             -72.00     3800.00
02756              22.00     4000.00
02757              48.00     4200.00
02758             -54.00     3800.00
02759               2.00     4000.00
02760              48.00     4200.00
02761             -40.00     4000.00
02762             -22.00     4000.00
02763              48.00     4200.00
02764             -16.00     4000.00
02765             -32.00     4000.00
02766              36.00     4200.00
02767               8.00     4200.00
02768             -34.00     4000.00
02769              22.00     4400.00
02770              16.00     4200.00
02771             -32.00     4200.00
02772              14.00     4200.00
02773              22.00     4200.00
02774             -28.00     4200.00
02775               0.00     4000.00
02776              24.00     4200.00
02777             -20.00     4200.00
02778             -10.00     4200.00
02779              24.00     4400.00
02780              -8.00     4000.00
02781              -8.00     4200.00
02782              18.00     4200.00
02783             -10.00     4200.00
02784             -18.00     4200.00
02785              34.00     4200.00
02786              16.00     4200.00
02787             -30.00     4000.00
02788              -2.00     4000.00
02789              10.00     4000.00
02790             -10.00     4200.00
02791               8.00     4200.00
02792              16.00     4000.00
02793             -22.00     4000.00
02794             -10.00     4000.00
02795              22.00     4200.00
02796              -6.00     4200.00
02797             -14.00     4000.00
02798              10.00     4000.00
02799               0.00     4000.00
02800             -10.00     4000.00
02801              10.00     4000.00
02802               0.00     3800.00
02803             -18.00     3800.00
02804               0.00     4000.00
02805              14.00     3800.00
02806              -6.00     3600.00
02807               0.00     3800.00
02808               6.00     3600.00
02809             -12.00     3800.00
02810              -6.00     3600.00
02811               6.00     3600.00
02812              -2.00     3600.00
02813               0.00     3600.00
02814               8.00     3600.00
02815              -6.00     3400.00
02816             -16.00     3400.00
02817               2.00     3400.00
02818               0.00     3400.00
02819              -6.00     3400.00
02820               6.00     3400.00
02821               4.00     3200.00
02822              -8.00     3200.00
02823               2.00     3200.00
02824               0.00     3200.00
02825             -14.00     3000.00
02826              -2.00     3200.00
02827              18.00     3200.00
02828               8.00     2800.00
02829             -10.00     3000.00
02830             -10.00     2800.00
02831               0.00     2800.00
02832              -2.00     2800.00
02833               6.00     2800.00
02834               6.00     2600.00
02835              -6.00     2800.00
02836              -2.00     2600.00
02837               0.00     2600.00
02838              -8.00     2400.00
02839               0.00     2400.00
02840              16.00     2400.00
02841               2.00     2400.00
02842             -16.00     2200.00
02843             -10.00     2200.00
02844               0.00     2000.00
02845              16.00     2000.00
02846              14.00     2000.00
02847             -18.00     1800.00
02848             -26.00     2000.00
02849               8.00     1800.00
02850              26.00     1800.00
02851               6.00     1600.00
02852             -22.00     1600.00
02853             -24.00     1600.00
02854              -6.00     1400.00
02855              24.00     1400.00
02856              24.00     1400.00
02857             -16.00     1200.00
02858             -34.00     1200.00
02859              -8.00     1200.00
02860              16.00     1200.00
02861              14.00     1000.00
02862              -6.00      800.00
02863             -14.00     1000.00
02864             -10.00      800.00
02865               6.00      800.00
02866               8.00      800.00
02867              -6.00      800.00
02868              -8.00      600.00
02869              -2.00      600.00
02870              -2.00      600.00
02871               0.00      400.00
02872               2.00      400.00
02873              -6.00      200.00
02874              -6.00      200.00
02875               6.00      200.00
02876               0.00        0.00
02877              -6.00      200.00
02878               6.00        0.00
02879              14.00        0.00
02880               0.00        0.00
02881             -10.00     -400.00
02882             -10.00     -400.00
02883              -2.00     -400.00
02884              26.00     -400.00
02885             110.00     -400.00
02886             134.00     -800.00
02887            -152.00     -800.00
02888            -270.00     -800.00
02889             -30.00     -400.00
02890             230.00     -600.00
02891             230.00    -1000.00
02892            -270.00    -1200.00
02893            -270.00     -800.00
02894             230.00    -1000.00
02895             230.00    -1000.00
02896            -270.00    -1200.00
02897            -194.00    -1000.00
02898             230.00    -1400.00
02899              24.00    -1400.00
02900             -32.00    -1400.00
02901              -8.00    -1400.00
02902            -144.00    -1400.00
02903              40.00    -1600.00
02904             230.00    -1600.00
02905            -106.00    -1600.00
02906            -198.00    -1800.00
02907              80.00    -2000.00
02908             120.00    -1600.00
02909              -6.00    -2200.00
02910             -62.00    -2200.00
02911             -82.00    -2000.00
02912              30.00    -2200.00
02913             138.00    -2400.00
02914             -70.00    -2200.00
02915            -116.00    -2200.00
02916              64.00    -2400.00
02917              66.00    -2400.00
02918             -56.00    -2400.00
02919             -26.00    -2600.00
02920              16.00    -2400.00
02921               6.00    -2600.00
02922               0.00    -2800.00
02923             -22.00    -2800.00
02924             -14.00    -2800.00
02925               0.00    -2800.00
02926              18.00    -2800.00
02927               0.00    -3000.00
02928             -34.00    -3000.00
02929             -24.00    -3000.00
02930              26.00    -3000.00
02931              14.00    -3200.00
02932             -24.00    -3200.00
02933             -14.00    -3000.00
02934              -2.00    -3200.00
02935              -6.00    -3200.00
02936              -2.00    -3200.00
02937              -4.00    -3400.00
02938              -6.00    -3200.00
02939               6.00    -3200.00
02940             -10.00    -3200.00
02941             -24.00    -3400.00
02942               0.00    -3600.00
02943               6.00    -3200.00
02944             -14.00    -3600.00
02945               0.00    -3600.00
02946               0.00    -3600.00
02947             -24.00    -3600.00
02948              -8.00    -3600.00
02949              10.00    -3600.00
02950             -14.00    -3600.00
02951             -10.00    -3600.00
02952              10.00    -3600.00
02953              -8.00    -3600.00
02954             -18.00    -3800.00
02955               0.00    -3800.00
02956               0.00    -3800.00
02957             -16.00    -3600.00
02958               0.00    -3800.00
02959               0.00    -3800.00
02960             -14.00    -3600.00
02961              -2.00    -3800.00
02962              -2.00    -3800.00
02963             -16.00    -3800.00
02964              -8.00    -3800.00
02965               6.00    -3800.00
02966              -8.00    -3800.00
02967             -10.00    -3800.00
02968              -2.00    -3800.00
02969              -6.00    -4000.00
02970              -8.00    -3800.00
02971               0.00    -3800.00
02972              -2.00    -3800.00
02973              -8.00    -3800.00
02974              -2.00    -3800.00
02975              -6.00    -3800.00
02976             -16.00    -3800.00
02977              -2.00    -3800.00
02978               2.00    -3800.00
02979              -6.00    -3800.00
02980              -6.00    -3600.00
02981              -6.00    -3800.00
02982             -10.00    -3800.00
02983              -8.00    -3600.00
02984               0.00    -3800.00
02985              -2.00    -3600.00
02986             -10.00    -3800.00
02987              -6.00    -3800.00
02988              -8.00    -3800.00
02989             -10.00    -3800.00
02990              -4.00    -3600.00
02991               0.00    -3600.00
02992              -8.00    -3800.00
02993              -8.00    -3600.00
02994              -2.00    -3600.00
02995             -10.00    -3600.00
02996              -8.00    -3600.00
02997              -4.00    -3600.00
02998              -4.00    -3400.00
02999              -6.00    -3400.00
03000              -2.00    -3400.00
03001             -10.00    -3400.00
03002              -8.00    -3200.00
03003              -8.00    -3400.00
03004              -2.00    -3200.00
03005              -6.00    -3200.00
03006              -6.00    -3200.00
03007              -6.00    -3200.00
03008              -8.00    -3000.00
03009              -6.00    -3000.00
03010              -2.00    -3000.00
03011              -8.00    -3000.00
03012              -6.00    -3000.00
03013               0.00    -2800.00
03014              -6.00    -3000.00
03015              -6.00    -2800.00
03016              -8.00    -2800.00
03017             -10.00    -2800.00
03018              -8.00    -2800.00
03019               2.00    -2600.00
03020              -2.00    -2800.00
03021             -14.00    -2600.00
03022             -10.00    -2400.00
03023              -2.00    -2400.00
03024              -2.00    -2400.00
03025              -2.00    -2400.00
03026               0.00    -2400.00
03027             -10.00    -2200.00
03028             -10.00    -2200.00
03029               0.00    -2000.00
03030              -2.00    -2200.00
03031              -6.00    -2200.00
03032              -2.00    -2000.00
03033              -6.00    -2000.00
03034              -6.00    -2000.00
03035              -6.00    -1800.00
03036              -4.00    -1600.00
03037              -2.00    -1600.00
03038               0.00    -1400.00
03039              -2.00    -1600.00
03040             -10.00    -1400.00
03041             -10.00    -1400.00
03042              -2.00    -1200.00
03043               2.00    -1400.00
03044              -2.00    -1400.00
03045              -6.00    -1000.00
03046              -8.00    -1000.00
03047              -8.00    -1000.00
03048               4.00    -1000.00
03049               0.00     -800.00
03050              -8.00     -800.00
03051              -6.00     -800.00
03052              -4.00     -800.00
03053              -6.00     -800.00
03054              -6.00     -800.00
03055              -2.00     -400.00
03056              -6.00     -600.00
03057              -8.00     -400.00
03058              -6.00     -400.00
03059              -2.00     -400.00
03060               0.00     -200.00
03061              -4.00     -400.00
03062             -10.00     -200.00
03063             -10.00        0.00
03064              -2.00        0.00
03065               0.00        0.00
03066               0.00      200.00
03067               0.00      200.00
03068              -6.00      400.00
03069              -8.00      200.00
03070               6.00      400.00
03071               6.00      400.00
03072               0.00      400.00
03073              -8.00      400.00
03074              -8.00      600.00
03075               2.00      800.00
03076              94.00      800.00
03077             176.00     1000.00
03078            -130.00     1000.00
03079            -270.00      800.00
03080             -32.00     1200.00
03081             230.00     1400.00
03082             230.00     1200.00
03083            -270.00      800.00
03084            -270.00     1600.00
03085             230.00     1600.00
03086             230.00     1200.00
03087            -270.00     1200.00
03088             -34.00     1800.00
03089             230.00     1600.00
03090            -192.00     1200.00
03091            -194.00     1600.00
03092             230.00     2400.00
03093             -72.00     1400.00
03094            -138.00     1600.00
03095             226.00     2400.00
03096             -66.00     1800.00
03097            -210.00     1600.00
03098             166.00     2400.00
03099              86.00     2600.00
03100            -122.00     2000.00
03101              64.00     2200.00
03102             -64.00     2800.00
03103            -104.00     2200.00
03104             214.00     2200.00
03105              10.00     2800.00
03106            -232.00     2600.00
03107             102.00     2400.00
03108             128.00     2800.00
03109            -154.00     2800.00
03110              -6.00     2600.00
03111             138.00     3000.00
03112             -62.00     3000.00
03113             -90.00     2800.00
03114              70.00     3200.00
03115              24.00     3200.00
03116             -84.00     2800.00
03117              58.00     3400.00
03118              72.00     3200.00
03119            -112.00     3200.00
03120             -30.00     3400.00
03121              86.00     3600.00
03122             -34.00     3200.00
03123              -6.00     3200.00
03124              60.00     3600.00
03125             -64.00     3400.00
03126             -32.00     3200.00
03127              66.00     3800.00
03128             -24.00     3600.00
03129             -34.00     3400.00
03130              58.00     3800.00
03131              -8.00     3600.00
03132             -54.00     3600.00
03133              38.00     3800.00
03134               6.00     4000.00
03135             -60.00     3600.00
03136              46.00     4000.00
03137              54.00     4000.00
03138             -68.00     4000.00
03139             -14.00     3800.00
03140              44.00     4000.00
03141             -40.00     4000.00
03142              -2.00     3800.00
03143              62.00     4200.00
03144             -26.00     4200.00
03145             -42.00     4000.00
03146              40.00     4000.00
03147               2.00     4200.00
03148             -46.00     4000.00
03149              22.00     4200.00
03150              24.00     4200.00
03151             -26.00     4000.00
03152              10.00     4000.00
03153              16.00     4200.00
03154             -40.00     4200.00
03155              -2.00     4200.00
03156              36.00     4200.00
03157              -6.00     4200.00
03158             -10.00     4200.00
03159              18.00     4200.00
03160             -14.00     4000.00
03161             -22.00     4200.00
03162              22.00     4200.00
03163               6.00     4200.00
03164              -8.00     4000.00
03165              18.00     4200.00
03166              -2.00     4200.00
03167             -26.00     4000.00
03168               8.00     4200.00
03169              24.00     4200.00
03170             -14.00     4200.00
03171              -6.00     4200.00
03172               8.00     4200.00
03173             -14.00     4200.00
03174              -2.00     4000.00
03175              30.00     4200.00
03176              -2.00     4000.00
03177             -26.00     4000.00
03178               8.00     4000.00
03179               6.00     4200.00
03180             -10.00     4000.00
03181              12.00     4000.00
03182               8.00     4000.00
03183             -26.00     4000.00
03184              -4.00     4000.00
03185              18.00     4000.00
03186               0.00     3800.00
03187              -2.00     4000.00
03188               2.00     3800.00
03189             -16.00     3800.00
03190              -6.00     3600.00
03191              18.00     3800.00
03192              -2.00     3600.00
03193             -16.00     3600.00
03194               2.00     3600.00
03195               0.00     3600.00
03196              -2.00     3600.00
03197              10.00     3600.00
03198               0.00     3400.00
03199             -16.00     3600.00
03200               0.00     3400.00
03201              10.00     3400.00
03202              -6.00     3400.00
03203               2.00     3400.00
03204               6.00     3200.00
03205             -12.00     3200.00
03206              -8.00     3200.00
03207               6.00     3200.00
03208              -6.00     3200.00
03209              -2.00     3200.00
03210              14.00     3200.00
03211               6.00     3000.00
03212             -10.00     2800.00
03213              -2.00     2800.00
03214               0.00     2800.00
03215              -8.00     2800.00
03216               6.00     2800.00
03217              10.00     2600.00
03218              -6.00     2600.00
03219              -8.00     2600.00
03220               0.00     2400.00
03221              -2.00     2400.00
03222               6.00     2400.00
03223              10.00     2400.00
03224              -6.00     2400.00
03225             -10.00     2200.00
03226               2.00     2200.00
03227               2.00     2000.00
03228              -2.00     2000.00
03229              -2.00     2000.00
03230              -6.00     2000.00
03231               0.00     1800.00
03232              10.00     2000.00
03233               2.00     1800.00
03234             -14.00     1600.00
03235             -10.00     1600.00
03236               6.00     1600.00
03237               4.00     1600.00
03238               4.00     1200.00
03239               0.00     1400.00
03240             -10.00     1200.00
03241              -8.00     1200.00
03242               6.00     1200.00
03243               6.00     1000.00
03244              -2.00     1000.00
03245              -2.00     1000.00
03246              -2.00      800.00
03247              -6.00     1000.00
03248              -2.00      800.00
03249              -2.00      800.00
03250              -4.00      800.00
03251               0.00      600.00
03252              -2.00      600.00
03253             -10.00      600.00
03254              -2.00      400.00
03255               0.00      400.00
03256              -6.00      200.00
03257              -6.00      200.00
03258               0.00      200.00
03259               2.00      200.00
03260               0.00        0.00
03261               6.00        0.00
03262               6.00     -200.00
03263              -8.00        0.00
03264             -14.00     -200.00
03265              -6.00        0.00
03266               0.00     -400.00
03267              18.00     -400.00
03268              80.00     -600.00
03269             138.00     -400.00
03270             -80.00     -800.00
03271            -270.00     -800.00
03272            -160.00     -600.00
03273             230.00     -800.00
03274             230.00     -800.00
03275            -270.00    -1200.00
03276            -270.00     -800.00
03277             230.00    -1000.00
03278             230.00    -1000.00
03279            -270.00    -1200.00
03280            -270.00    -1000.00
03281             230.00    -1200.00
03282              64.00    -1600.00
03283             -32.00    -1400.00
03284              -2.00    -1400.00
03285            -138.00    -1600.00
03286             -16.00    -1600.00
03287             230.00    -1400.00
03288             -38.00    -1600.00
03289            -218.00    -2000.00
03290              32.00    -1800.00
03291             138.00    -1600.00
03292               0.00    -2000.00
03293             -54.00    -2200.00
03294             -86.00    -2000.00
03295               0.00    -2000.00
03296             146.00    -2200.00
03297             -38.00    -2200.00
03298            -134.00    -2200.00
03299              38.00    -2400.00
03300              88.00    -2600.00
03301             -48.00    -2400.00
03302             -32.00    -2400.00
03303              10.00    -2800.00
03304              10.00    -2400.00
03305               6.00    -2800.00
03306             -18.00    -2600.00
03307             -22.00    -2800.00
03308              -2.00    -2800.00
03309              22.00    -2800.00
03310               8.00    -3000.00
03311             -30.00    -3000.00
03312             -34.00    -3000.00
03313              14.00    -3000.00
03314              22.00    -3200.00
03315             -16.00    -3000.00
03316             -18.00    -3200.00
03317              -6.00    -3200.00
03318              -4.00    -3200.00
03319              -8.00    -3200.00
03320              -6.00    -3200.00
03321              -2.00    -3400.00
03322               8.00    -3200.00
03323              -6.00    -3400.00
03324             -24.00    -3600.00
03325              -6.00    -3600.00
03326               2.00    -3600.00
03327             -10.00    -3400.00
03328               0.00    -3600.00
03329               2.00    -3600.00
03330             -22.00    -3600.00
03331             -12.00    -3800.00
03332               8.00    -3600.00
03333              -8.00    -3600.00
03334             -14.00    -3600.00
03335               6.00    -3800.00
03336              -6.00    -3800.00
03337             -24.00    -3800.00
03338              -2.00    -3800.00
03339               2.00    -3800.00
03340             -10.00    -3800.00
03341              -6.00    -3800.00
03342               0.00    -3800.00
03343             -10.00    -3800.00
03344              -6.00    -3800.00
03345              -2.00    -3800.00
03346             -10.00    -3800.00
03347              -8.00    -3800.00
03348               0.00    -3800.00
03349              -2.00    -4000.00
03350             -10.00    -3800.00
03351              -6.00    -3800.00
03352              -8.00    -3800.00
03353              -8.00    -4000.00
03354               2.00    -3800.00
03355              -2.00    -3800.00
03356              -6.00    -3800.00
03357              -6.00    -3800.00
03358              -8.00    -3800.00
03359             -12.00    -4000.00
03360              -2.00    -4000.00
03361               0.00    -3800.00
03362              -6.00    -3800.00
03363              -6.00    -3800.00
03364              -6.00    -3800.00
03365             -10.00    -3800.00
03366              -8.00    -3600.00
03367               0.00    -3800.00
03368              -2.00    -3800.00
03369             -10.00    -3800.00
03370              -6.00    -3800.00
03371              -6.00    -3800.00
03372             -10.00    -3600.00
03373              -6.00    -3600.00
03374               0.00    -3600.00
03375              -6.00    -3600.00
03376              -8.00    -3600.00
03377              -6.00    -3600.00
03378             -10.00    -3600.00
03379              -6.00    -3600.00
03380              -2.00    -3600.00
03381              -2.00    -3600.00
03382              -8.00    -3400.00
03383              -6.00    -3400.00
03384              -8.00    -3400.00
03385              -8.00    -3400.00
03386              -8.00    -3200.00
03387              -6.00    -3200.00
03388              -8.00    -3200.00
03389              -2.00    -3200.00
03390              -8.00    -3200.00
03391             -10.00    -3200.00
03392             -10.00    -3200.00
03393              -6.00    -3000.00
03394              -6.00    -3000.00
03395              -4.00    -3000.00
03396              -2.00    -3000.00
03397             -10.00    -3000.00
03398             -10.00    -2800.00
03399              -8.00    -2800.00
03400              -6.00    -2800.00
03401              -6.00    -2600.00
03402              -2.00    -2800.00
03403              -8.00    -2800.00
03404             -10.00    -2400.00
03405              -8.00    -2400.00
03406              -6.00    -2400.00
03407              -2.00    -2400.00
03408              -6.00    -2400.00
03409              -6.00    -2400.00
03410              -6.00    -2200.00
03411              -8.00    -2200.00
03412              -6.00    -2200.00
03413              -6.00    -2000.00
03414              -6.00    -2000.00
03415              -2.00    -2000.00
03416              -2.00    -2000.00
03417              -6.00    -2000.00
03418              -6.00    -2000.00
03419              -8.00    -1800.00
03420              -2.00    -1600.00
03421              -2.00    -1400.00
03422              -2.00    -1400.00
03423              -8.00    -1400.00
03424              -8.00    -1400.00
03425              -6.00    -1400.00
03426              -4.00    -1200.00
03427              -2.00    -1200.00
03428               0.00    -1000.00
03429              -8.00    -1200.00
03430              -6.00    -1000.00
03431              -6.00    -1000.00
03432              -4.00     -800.00
03433              -6.00     -800.00
03434              -6.00     -800.00
03435              -2.00     -600.00
03436              -2.00     -800.00
03437              -6.00     -600.00
03438              -6.00     -600.00
03439              -6.00     -400.00
03440              -6.00     -400.00
03441              -2.00     -400.00
03442              -2.00     -400.00
03443              -2.00     -200.00
03444              -4.00     -200.00
03445              -8.00        0.00
03446              -6.00     -200.00
03447               0.00        0.00
03448              -6.00      200.00
03449              -2.00      200.00
03450               0.00      200.00
03451               0.00      200.00
03452              -2.00      400.00
03453               4.00      400.00
03454               2.00      400.00
03455              -4.00      400.00
03456              -8.00      600.00
03457              -6.00      600.00
03458               4.00      600.00
03459              72.00      800.00
03460             182.00     1000.00
03461             -56.00     1000.00
03462            -270.00      800.00
03463            -178.00     1000.00
03464             230.00     1400.00
03465             230.00     1200.00
03466            -270.00      800.00
03467            -270.00     1200.00
03468             230.00     1600.00
03469             230.00     1200.00
03470            -270.00     1000.00
03471            -184.00     1800.00
03472             230.00     1800.00
03473             -90.00     1000.00
03474            -258.00     1800.00
03475             226.00     2400.00
03476             -18.00     1600.00
03477            -186.00     1600.00
03478             204.00     2400.00
03479              34.00     2200.00
03480            -232.00     1600.00
03481             102.00     2200.00
03482             106.00     2600.00
03483            -132.00     2000.00
03484              72.00     2000.00
03485              -2.00     2600.00
03486            -144.00     2200.00
03487             160.00     2400.00
03488              70.00     2800.00
03489            -232.00     2800.00
03490              72.00     2400.00
03491             168.00     2800.00
03492            -152.00     2800.00
03493             -60.00     2600.00
03494             150.00     2800.00
03495             -22.00     3000.00
03496             -96.00     2800.00
03497              54.00     3200.00
03498              40.00     3400.00
03499             -88.00     2800.00
03500              30.00     3200.00
03501              86.00     3400.00
03502             -86.00     3000.00
03503             -42.00     3200.00
03504              94.00     3600.00
03505             -26.00     3200.00
03506             -38.00     3200.00
03507              62.00     3600.00
03508             -36.00     3400.00
03509             -40.00     3400.00
03510              64.00     3800.00
03511             -16.00     3600.00
03512             -48.00     3400.00
03513              56.00     3600.00
03514               6.00     3600.00
03515             -66.00     3600.00
03516              30.00     3800.00
03517              32.00     4000.00
03518             -58.00     3600.00
03519              18.00     3800.00
03520              50.00     4000.00
03521             -62.00     4000.00
03522             -14.00     4000.00
03523              64.00     4000.00
03524             -32.00     4000.00
03525             -32.00     4000.00
03526              54.00     4000.00
03527             -14.00     4000.00
03528             -48.00     4000.00
03529              38.00     4200.00
03530              16.00     4200.00
03531             -46.00     4000.00
03532              18.00     4200.00
03533              24.00     4200.00
03534             -32.00     4200.00
03535               6.00     4000.00
03536              22.00     4200.00
03537             -32.00     4000.00
03538              -2.00     4200.00
03539              38.00     4200.00
03540             -18.00     4200.00
03541             -18.00     4200.00
03542              26.00     4200.00
03543              -6.00     4200.00
03544             -22.00     4200.00
03545              16.00     4200.00
03546              -2.00     4200.00
03547             -14.00     4000.00
03548              30.00     4400.00
03549               8.00     4200.00
03550             -32.00     4200.00
03551               0.00     4200.00
03552              16.00     4200.00
03553             -16.00     4200.00
03554              16.00     4200.00
03555              26.00     4200.00
03556             -24.00     4000.00
03557             -18.00     4200.00
03558              16.00     4200.00
03559               0.00     4200.00
03560               4.00     4000.00
03561              20.00     4000.00
03562             -16.00     4000.00
03563             -38.00     4000.00
03564              16.00     4200.00
03565              32.00     4200.00
03566              10.00     4000.00
03567               6.00     4000.00
03568             -18.00     4000.00
03569             -38.00     3800.00
03570               8.00     3800.00
03571              34.00     3800.00
03572               6.00     3800.00
03573              -6.00     3600.00
03574              -8.00     3800.00
03575             -16.00     3600.00
03576               6.00     3600.00
03577              16.00     3600.00
03578              -4.00     3600.00
03579             -10.00     3600.00
03580               6.00     3600.00
03581              -4.00     3600.00
03582              -8.00     3400.00
03583               8.00     3400.00
03584               2.00     3600.00
03585             -14.00     3400.00
03586               0.00     3200.00
03587              10.00     3400.00
03588              -2.00     3200.00
03589               2.00     3200.00
03590               2.00     3200.00
03591             -16.00     3000.00
03592             -14.00     3200.00
03593              14.00     2800.00
03594               6.00     3000.00
03595               0.00     2800.00
03596               4.00     2800.00
03597              -8.00     2800.00
03598             -24.00     2800.00
03599               6.00     2800.00
03600               6.00     2600.00
03601              -2.00     2800.00
03602             -10.00     2600.00
03603              10.00     2600.00
03604              -2.00     2400.00
03605              14.00     2400.00
03606              -8.00     2400.00
03607              -2.00     2200.00
03608               6.00     2000.00
03609              -2.00     2000.00
03610             -26.00     2000.00
03611              -8.00     2000.00
03612              18.00     2000.00
03613              14.00     2000.00
03614               0.00     1800.00
03615              -6.00     2000.00
03616               0.00     1800.00
03617              -6.00     1800.00
03618               6.00     1600.00
03619              -2.00     1600.00
03620             -10.00     1600.00
03621             -10.00     1600.00
03622               6.00     1400.00
03623               6.00     1400.00
03624              -6.00     1200.00
03625              -6.00     1200.00
03626              -6.00     1000.00
03627              10.00     1000.00
03628              14.00     1000.00
03629              -2.00      800.00
03630             -24.00      800.00
03631             -14.00      800.00
03632              -2.00      800.00
03633               8.00      800.00
03634               6.00      600.00
03635               2.00      600.00
03636              -8.00      400.00
03637              -2.00      400.00
03638               2.00      400.00
03639             -12.00      200.00
03640             -10.00      400.00
03641              -2.00      200.00
03642               8.00      200.00
03643               4.00        0.00
03644               0.00        0.00
03645               0.00        0.00
03646              -2.00        0.00
03647              -2.00     -200.00
03648              -6.00        0.00
03649              -6.00     -400.00
03650               6.00     -400.00
03651              64.00     -400.00
03652             148.00     -600.00
03653             -14.00     -800.00
03654            -270.00     -800.00
03655            -270.00     -600.00
03656             230.00     -600.00
03657             230.00     -800.00
03658            -270.00    -1200.00
03659            -270.00     -800.00
03660             230.00    -1000.00
03661             230.00    -1000.00
03662            -270.00    -1200.00
03663            -270.00    -1000.00
03664             200.00    -1200.00
03665             114.00    -1400.00
03666             -30.00    -1400.00
03667              -8.00    -1400.00
03668            -118.00    -1600.00
03669             -62.00    -1600.00
03670             224.00    -1600.00
03671              32.00    -1600.00
03672            -230.00    -2000.00
03673             -22.00    -2000.00
03674             154.00    -1600.00
03675              16.00    -2000.00
03676             -42.00    -2200.00
03677             -86.00    -2000.00
03678             -26.00    -2200.00
03679             142.00    -2400.00
03680               8.00    -2200.00
03681            -144.00    -2000.00
03682               6.00    -2400.00
03683             102.00    -2400.00
03684             -32.00    -2400.00
03685             -42.00    -2400.00
03686               2.00    -2800.00
03687              18.00    -2600.00
03688               8.00    -2800.00
03689             -18.00    -2800.00
03690             -22.00    -2800.00
03691              -8.00    -2800.00
03692              22.00    -2800.00
03693              14.00    -3000.00
03694             -18.00    -3000.00
03695             -34.00    -3000.00
03696               8.00    -2800.00
03697              22.00    -3000.00
03698              -8.00    -3000.00
03699             -16.00    -3200.00
03700              -2.00    -3200.00
03701              -6.00    -3200.00
03702              -8.00    -3200.00
03703              -6.00    -3200.00
03704              -2.00    -3200.00
03705               6.00    -3400.00
03706              -2.00    -3400.00
03707             -22.00    -3400.00
03708              -8.00    -3600.00
03709               6.00    -3600.00
03710              -6.00    -3600.00
03711              -4.00    -3600.00
03712               6.00    -3600.00
03713             -16.00    -3600.00
03714             -14.00    -3600.00
03715               8.00    -3800.00
03716              -8.00    -3600.00
03717             -16.00    -3800.00
03718               4.00    -3600.00
03719               0.00    -3600.00
03720             -18.00    -3800.00
03721              -6.00    -3600.00
03722               2.00    -3800.00
03723             -10.00    -3800.00
03724              -8.00    -3600.00
03725               2.00    -3800.00
03726             -10.00    -3800.00
03727             -10.00    -4000.00
03728              -2.00    -3800.00
03729             -10.00    -3800.00
03730             -10.00    -3800.00
03731               0.00    -3800.00
03732              -6.00    -3800.00
03733              -8.00    -3800.00
03734              -6.00    -3800.00
03735              -8.00    -3800.00
03736              -8.00    -3800.00
03737               0.00    -3800.00
03738              -4.00    -3800.00
03739              -6.00    -3800.00
03740              -2.00    -3800.00
03741              -6.00    -3800.00
03742             -12.00    -3800.00
03743              -6.00    -3800.00
03744               2.00    -3600.00
03745              -2.00    -3800.00
03746              -2.00    -4000.00
03747              -6.00    -3800.00
03748             -10.00    -3800.00
03749              -8.00    -3800.00
03750               0.00    -3600.00
03751               0.00    -3800.00
03752              -8.00    -3800.00
03753              -6.00    -3600.00
03754              -6.00    -3800.00
03755             -10.00    -3800.00
03756              -6.00    -3600.00
03757               2.00    -3600.00
03758              -2.00    -3800.00
03759              -8.00    -3600.00
03760              -8.00    -3600.00
03761              -6.00    -3600.00
03762              -8.00    -3600.00
03763              -4.00    -3600.00
03764              -6.00    -3400.00
03765              -2.00    -3400.00
03766              -4.00    -3600.00
03767             -10.00    -3400.00
03768              -8.00    -3400.00
03769             -10.00    -3200.00
03770              -4.00    -3200.00
03771              -6.00    -3200.00
03772              -2.00    -3200.00
03773              -8.00    -3200.00
03774             -10.00    -3200.00
03775              -8.00    -3200.00
03776              -2.00    -3000.00
03777              -6.00    -3000.00
03778              -6.00    -3000.00
03779              -4.00    -3000.00
03780             -10.00    -2800.00
03781              -8.00    -2800.00
03782              -8.00    -2800.00
03783              -8.00    -2800.00
03784              -8.00    -2800.00
03785              -6.00    -2800.00
03786              -6.00    -2600.00
03787              -8.00    -2600.00
03788              -8.00    -2600.00
03789              -6.00    -2600.00
03790              -8.00    -2400.00
03791              -4.00    -2400.00
03792              -4.00    -2400.00
03793              -6.00    -2200.00
03794              -8.00    -2200.00
03795              -8.00    -2400.00
03796              -4.00    -2000.00
03797              -2.00    -2000.00
03798              -2.00    -2000.00
03799              -2.00    -2000.00
03800              -6.00    -2000.00
03801              -8.00    -1800.00
03802              -8.00    -1600.00
03803              -6.00    -1600.00
03804              -2.00    -1600.00
03805              -8.00    -1600.00
03806             -14.00    -1600.00
03807               0.00    -1400.00
03808               2.00    -1600.00
03809              -2.00    -1400.00
03810             -10.00    -1200.00
03811             -12.00    -1000.00
03812              -6.00    -1000.00
03813               6.00    -1000.00
03814               2.00    -1000.00
03815             -10.00    -1000.00
03816             -14.00     -800.00
03817              -4.00     -800.00
03818               0.00     -800.00
03819               2.00     -600.00
03820              -6.00     -600.00
03821             -10.00     -600.00
03822               0.00     -600.00
03823               2.00     -400.00
03824             -10.00     -400.00
03825              -8.00     -200.00
03826              -2.00     -200.00
03827               2.00        0.00
03828               0.00        0.00
03829              -4.00        0.00
03830             -14.00        0.00
03831              -8.00      200.00
03832               6.00      200.00
03833               6.00      400.00
03834               0.00      200.00
03835              -6.00      400.00
03836               0.00      200.00
03837               6.00      400.00
03838               2.00      400.00
03839              -6.00      600.00
03840             -10.00      600.00
03841               0.00      800.00
03842              54.00      800.00
03843             174.00     1000.00
03844              16.00     1000.00
03845            -270.00      800.00
03846            -270.00      800.00
03847             230.00     1200.00
03848             230.00     1400.00
03849            -270.00      800.00
03850            -270.00     1000.00
03851             230.00     1800.00
03852             230.00     1400.00
03853            -270.00     1000.00
03854            -270.00     1600.00
03855             230.00     2000.00
03856              18.00     1200.00
03857            -270.00     1600.00
03858             176.00     2200.00
03859              56.00     1800.00
03860            -212.00     1400.00
03861             150.00     2000.00
03862             118.00     2200.00
03863            -240.00     1600.00
03864              42.00     2200.00
03865             144.00     2600.00
03866            -126.00     2000.00
03867              50.00     2000.00
03868              40.00     2600.00
03869            -162.00     2400.00
03870             112.00     2000.00
03871             126.00     2800.00
03872            -224.00     2600.00
03873               6.00     2400.00
03874             198.00     2800.00
03875            -114.00     2800.00
03876             -96.00     2600.00
03877             144.00     2800.00
03878              10.00     3200.00
03879            -118.00     2800.00
03880              30.00     3200.00
03881              72.00     3400.00
03882             -70.00     2800.00
03883               6.00     3200.00
03884              86.00     3400.00
03885             -78.00     3200.00
03886             -66.00     3200.00
03887             100.00     3600.00
03888               6.00     3400.00
03889             -50.00     3200.00
03890              48.00     3400.00
03891             -22.00     3600.00
03892             -54.00     3400.00
03893              58.00     3600.00
03894               8.00     3800.00
03895             -56.00     3400.00
03896              40.00     3600.00
03897              26.00     3800.00
03898             -62.00     3600.00
03899              14.00     3600.00
03900              42.00     3800.00
03901             -54.00     3600.00
03902              -2.00     3800.00
03903              62.00     4000.00
03904             -40.00     3800.00
03905             -32.00     3600.00
03906              60.00     4000.00
03907             -18.00     4000.00
03908             -46.00     3800.00
03909              50.00     4000.00
03910              10.00     4000.00
03911             -50.00     4000.00
03912              24.00     4000.00
03913              24.00     4000.00
03914             -48.00     4000.00
03915               2.00     4000.00
03916              38.00     4200.00
03917             -26.00     4200.00
03918              -8.00     4000.00
03919              32.00     4200.00
03920             -18.00     4200.00
03921             -20.00     4000.00
03922              30.00     4200.00
03923              -2.00     4200.00
03924             -18.00     4000.00
03925              22.00     4200.00
03926              -2.00     4400.00
03927             -26.00     4200.00
03928              16.00     4200.00
03929              14.00     4200.00
03930             -18.00     4200.00
03931               8.00     4000.00
03932              10.00     4200.00
03933             -30.00     4000.00
03934               2.00     4200.00
03935              30.00     4200.00
03936              -8.00     4200.00
03937             -10.00     4200.00
03938              14.00     4200.00
03939             -10.00     4200.00
03940             -14.00     4200.00
03941              24.00     4200.00
03942               8.00     4200.00
03943             -16.00     4000.00
03944               8.00     4000.00
03945               6.00     4000.00
03946             -18.00     4000.00
03947               6.00     4000.00
03948              16.00     4000.00
03949              -6.00     4000.00
03950              -2.00     4000.00
03951              10.00     4000.00
03952             -12.00     4000.00
03953             -10.00     3800.00
03954              12.00     4000.00
03955               0.00     3800.00
03956               0.00     3800.00
03957               6.00     3800.00
03958              -2.00     3800.00
03959             -14.00     3600.00
03960               6.00     3600.00
03961               4.00     3600.00
03962              -2.00     3600.00
03963               6.00     3400.00
03964               6.00     3600.00
03965             -14.00     3400.00
03966              -4.00     3400.00
03967               6.00     3400.00
03968              -4.00     3400.00
03969               0.00     3200.00
03970               8.00     3400.00
03971              -8.00     3400.00
03972             -14.00     3200.00
03973               6.00     3200.00
03974               0.00     3200.00
03975              -6.00     3000.00
03976               6.00     3200.00
03977               0.00     3000.00
03978             -14.00     3200.00
03979              -2.00     2800.00
03980               6.00     2800.00
03981              -2.00     2800.00
03982              -2.00     2600.00
03983               0.00     2800.00
03984              -6.00     2800.00
03985              -8.00     2400.00
03986               2.00     2600.00
03987              -2.00     2400.00
03988               0.00     2400.00
03989               2.00     2200.00
03990               0.00     2400.00
03991              -6.00     2400.00
03992               0.00     2000.00
03993              -2.00     2000.00
03994              -6.00     2000.00
03995               0.00     2000.00
03996              -2.00     2000.00
03997              -6.00     1800.00
03998               2.00     1800.00
03999               4.00     1800.00
04000              -8.00     1600.00
04001              -6.00     1600.00
04002               2.00     1800.00
04003              -2.00     1600.00
04004              -2.00     1400.00
04005               6.00     1600.00
04006              -2.00     1400.00
04007             -10.00     1200.00
04008              -2.00     1200.00
04009               2.00     1200.00
04010               0.00     1200.00
04011               0.00     1000.00
04012               0.00     1000.00
04013              -2.00     1000.00
04014              -2.00      800.00
04015               0.00      800.00
04016              -2.00      800.00
04017               0.00      800.00
04018              -2.00      600.00
04019              -6.00      600.00
04020               0.00      400.00
04021               6.00      400.00
04022               0.00      400.00
04023              -6.00      400.00
04024              -2.00      200.00
04025               2.00        0.00
04026               4.00      200.00
04027               2.00        0.00
04028               6.00     -200.00
04029               0.00        0.00
04030             -10.00        0.00
04031              -6.00     -200.00
04032              -2.00     -200.00
04033               8.00     -400.00
04034              50.00     -400.00
04035             144.00     -400.00
04036              32.00     -800.00
04037            -270.00     -800.00
04038            -270.00     -600.00
04039             230.00     -400.00
04040             230.00     -600.00
04041            -270.00    -1200.00
04042            -270.00     -800.00
04043             158.00    -1000.00
04044             230.00    -1000.00
04045            -166.00    -1200.00
04046            -270.00    -1000.00
04047             126.00    -1000.00
04048             158.00    -1400.00
04049             -26.00    -1400.00
04050              -8.00    -1400.00
04051             -88.00    -1400.00
04052            -106.00    -1600.00
04053             192.00    -1600.00
04054              98.00    -1600.00
04055            -222.00    -1800.00
04056             -70.00    -2000.00
04057             158.00    -1600.00
04058              32.00    -2000.00
04059             -34.00    -2200.00
04060             -82.00    -2000.00
04061             -48.00    -2000.00
04062             126.00    -2400.00
04063              46.00    -2400.00
04064            -144.00    -2200.00
04065             -28.00    -2400.00
04066             110.00    -2400.00
04067             -10.00    -2400.00
04068             -48.00    -2400.00
04069              -8.00    -2600.00
04070              18.00    -2600.00
04071               6.00    -2800.00
04072              -8.00    -2800.00
04073             -24.00    -2600.00
04074              -8.00    -2800.00
04075              14.00    -2800.00
04076              14.00    -3000.00
04077             -16.00    -3000.00
04078             -38.00    -3000.00
04079               2.00    -3000.00
04080              28.00    -3000.00
04081              -6.00    -3000.00
04082             -22.00    -3000.00
04083               0.00    -3200.00
04084              -2.00    -3200.00
04085              -8.00    -3200.00
04086              -6.00    -3000.00
04087              -6.00    -3200.00
04088               6.00    -3200.00
04089               6.00    -3200.00
04090             -20.00    -3400.00
04091             -16.00    -3400.00
04092               6.00    -3400.00
04093              -6.00    -3400.00
04094              -6.00    -3600.00
04095               4.00    -3600.00
04096             -10.00    -3600.00
04097             -16.00    -3600.00
04098               2.00    -3600.00
04099              -6.00    -3600.00
04100             -18.00    -3600.00
04101               6.00    -3800.00
04102               6.00    -3600.00
04103             -18.00    -3800.00
04104             -14.00    -3800.00
04105               2.00    -3800.00
04106              -8.00    -3800.00
04107             -10.00    -3800.00
04108               6.00    -3800.00
04109              -8.00    -4000.00
04110             -12.00    -3800.00
04111              -2.00    -3800.00
04112              -8.00    -3800.00
04113             -12.00    -4000.00
04114              -2.00    -4000.00
04115              -2.00    -3800.00
04116             -10.00    -3800.00
04117              -8.00    -3800.00
04118              -8.00    -3800.00
04119             -10.00    -3800.00
04120               0.00    -4000.00
04121              -2.00    -3800.00
04122              -8.00    -3800.00
04123              -6.00    -4000.00
04124              -8.00    -4000.00
04125             -14.00    -3800.00
04126              -8.00    -3800.00
04127               0.00    -3800.00
04128              -6.00    -3800.00
04129             -10.00    -3800.00
04130              -6.00    -3800.00
04131              -6.00    -3800.00
04132             -10.00    -3800.00
04133              -2.00    -3600.00
04134               2.00    -3800.00
04135              -8.00    -3800.00
04136              -8.00    -3600.00
04137              -6.00    -3800.00
04138              -6.00    -3800.00
04139              -6.00    -3800.00
04140              -2.00    -3600.00
04141              -6.00    -3600.00
04142              -8.00    -3600.00
04143              -4.00    -3600.00
04144              -6.00    -3600.00
04145             -12.00    -3600.00
04146              -6.00    -3400.00
04147               0.00    -3600.00
04148              -2.00    -3600.00
04149              -6.00    -3600.00
04150              -6.00    -3400.00
04151             -10.00    -3400.00
04152              -8.00    -3400.00
04153               2.00    -3200.00
04154              -2.00    -3200.00
04155              -8.00    -3200.00
04156              -8.00    -3200.00
04157              -8.00    -3200.00
04158              -2.00    -3200.00
04159              -2.00    -3200.00
04160              -8.00    -3000.00
04161              -8.00    -3000.00
04162              -2.00    -2800.00
04163              -4.00    -2800.00
04164             -10.00    -3000.00
04165             -16.00    -2800.00
04166             -10.00    -2800.00
04167               0.00    -2800.00
04168               4.00    -2600.00
04169              -2.00    -2800.00
04170             -18.00    -2600.00
04171             -16.00    -2400.00
04172              -2.00    -2400.00
04173               0.00    -2400.00
04174              -2.00    -2400.00
04175             -10.00    -2200.00
04176             -14.00    -2400.00
04177              -8.00    -2200.00
04178              -2.00    -2200.00
04179              -4.00    -2200.00
04180              -8.00    -2000.00
04181              -8.00    -2000.00
04182              -4.00    -2000.00
04183              -2.00    -2000.00
04184             -10.00    -1600.00
04185             -12.00    -1800.00
04186              -8.00    -1800.00
04187               0.00    -1600.00
04188               0.00    -1600.00
04189              -2.00    -1600.00
04190              -8.00    -1400.00
04191              -8.00    -1400.00
04192              -6.00    -1400.00
04193              -6.00    -1400.00
04194              -2.00    -1200.00
04195              -2.00    -1000.00
04196              -6.00    -1200.00
04197              -2.00    -1000.00
04198              -6.00    -1000.00
04199              -6.00    -1000.00
04200              -2.00     -800.00
04201              -2.00     -800.00
04202              -2.00     -800.00
04203              -2.00     -600.00
04204              -8.00     -600.00
04205              -2.00     -400.00
04206              -2.00     -600.00
04207              -8.00     -400.00
04208               0.00     -400.00
04209               6.00     -200.00
04210              -2.00     -200.00
04211             -10.00        0.00
04212              -6.00        0.00
04213              -2.00        0.00
04214              -2.00        0.00
04215               0.00      200.00
04216               2.00      200.00
04217               0.00      400.00
04218              -2.00      400.00
04219               6.00      200.00
04220               8.00      400.00
04221               0.00      400.00
04222              -8.00      400.00
04223             -10.00      600.00
04224               2.00      600.00
04225              40.00      800.00
04226             166.00     1000.00
04227              72.00     1200.00
04228            -270.00      800.00
04229            -270.00      800.00
04230             230.00     1200.00
04231             230.00     1400.00
04232            -270.00     1000.00
04233            -270.00      800.00
04234             230.00     1800.00
04235             230.00     1600.00
04236            -270.00     1000.00
04237            -270.00     1600.00
04238             230.00     1800.00
04239             152.00     1200.00
04240            -270.00     1200.00
04241              96.00     2000.00
04242             132.00     1800.00
04243            -218.00     1400.00
04244              86.00     2000.00
04245             184.00     2400.00
04246            -234.00     1600.00
04247             -22.00     2000.00
04248             182.00     2600.00
04249            -106.00     2000.00
04250              -2.00     2000.00
04251              76.00     2600.00
04252            -156.00     2400.00
04253              60.00     2200.00
04254             174.00     2600.00
04255            -190.00     2800.00
04256             -64.00     2400.00
04257             210.00     2600.00
04258             -64.00     2800.00
04259            -144.00     2600.00
04260             118.00     2800.00
04261              58.00     3200.00
04262            -110.00     2800.00
04263               2.00     2800.00
04264              78.00     3200.00
04265             -66.00     3200.00
04266             -32.00     3200.00
04267             106.00     3400.00
04268             -28.00     3200.00
04269             -90.00     3000.00
04270              78.00     3600.00
04271              22.00     3400.00
04272             -66.00     3200.00
04273              48.00     3400.00
04274              14.00     3600.00
04275             -62.00     3200.00
04276              40.00     3600.00
04277              22.00     3600.00
04278             -64.00     3400.00
04279              28.00     3600.00
04280              46.00     4000.00
04281             -56.00     3600.00
04282              -6.00     3800.00
04283              54.00     4000.00
04284             -40.00     3600.00
04285             -18.00     3800.00
04286              66.00     4000.00
04287             -26.00     4000.00
04288             -54.00     3800.00
04289              54.00     4000.00
04290               2.00     4000.00
04291             -50.00     4000.00
04292              40.00     4000.00
04293              24.00     4200.00
04294             -58.00     4000.00
04295               8.00     4000.00
04296              38.00     4000.00
04297             -34.00     4000.00
04298              -8.00     4000.00
04299              40.00     4200.00
04300             -24.00     4000.00
04301             -22.00     4000.00
04302              32.00     4200.00
04303              -8.00     4200.00
04304             -26.00     4200.00
04305              30.00     4200.00
04306               6.00     4200.00
04307             -26.00     4200.00
04308              14.00     4200.00
04309               6.00     4200.00
04310             -30.00     4200.00
04311              10.00     4200.00
04312              22.00     4200.00
04313             -22.00     4200.00
04314               0.00     4200.00
04315              18.00     4200.00
04316             -22.00     4200.00
04317             -10.00     4000.00
04318              26.00     4400.00
04319              -2.00     4200.00
04320             -14.00     4200.00
04321              18.00     4200.00
04322              -2.00     4000.00
04323             -26.00     4000.00
04324              14.00     4000.00
04325              14.00     4200.00
04326             -14.00     4000.00
04327               6.00     4000.00
04328               8.00     4000.00
04329             -18.00     4000.00
04330              -2.00     4000.00
04331              18.00     4000.00
04332              -6.00     4000.00
04333              -6.00     3800.00
04334              12.00     4000.00
04335              -6.00     4000.00
04336             -14.00     3800.00
04337              10.00     3800.00
04338               6.00     3800.00
04339              -6.00     4000.00
04340              10.00     4000.00
04341               0.00     4000.00
04342             -12.00     3600.00
04343               2.00     3600.00
04344               8.00     3800.00
04345              -6.00     3400.00
04346               2.00     3600.00
04347               8.00     3600.00
04348              -8.00     3600.00
04349              -2.00     3400.00
04350              10.00     3400.00
04351              -8.00     3400.00
04352              -6.00     3400.00
04353              12.00     3400.00
04354               0.00     3400.00
04355             -10.00     3200.00
04356               0.00     3200.00
04357               2.00     3200.00
04358             -14.00     3200.00
04359               2.00     3000.00
04360               8.00     3000.00
04361              -6.00     2800.00
04362              -8.00     2800.00
04363               2.00     2800.00
04364              -6.00     2800.00
04365               0.00     2800.00
04366               6.00     2800.00
04367              -2.00     2600.00
04368             -10.00     2600.00
04369               0.00     2600.00
04370               0.00     2600.00
04371               2.00     2400.00
04372               2.00     2400.00
04373              -4.00     2400.00
04374             -10.00     2400.00
04375               4.00     2200.00
04376               0.00     2200.00
04377              -2.00     2000.00
04378              -6.00     2000.00
04379              -2.00     2000.00
04380              -2.00     2000.00
04381               2.00     1800.00
04382               6.00     1800.00
04383             -10.00     1800.00
04384             -12.00     1600.00
04385               6.00     1600.00
04386               6.00     1600.00
04387               0.00     1600.00
04388               0.00     1600.00
04389              -2.00     1400.00
04390              -8.00     1200.00
04391               0.00     1200.00
04392               6.00     1200.00
04393               0.00     1000.00
04394              -2.00     1000.00
04395              -2.00     1200.00
04396              -2.00      800.00
04397               0.00     1000.00
04398               6.00     1000.00
04399               0.00      800.00
04400               0.00      800.00
04401               0.00      600.00
04402              -8.00      600.00
04403              -2.00      400.00
04404               4.00      400.00
04405               2.00      400.00
04406              -8.00      200.00
04407              -2.00      200.00
04408               2.00      200.00
04409               2.00      200.00
04410               6.00        0.00
04411              10.00      200.00
04412               0.00        0.00
04413             -10.00        0.00
04414              -8.00        0.00
04415               0.00     -200.00
04416              10.00     -400.00
04417              40.00     -400.00
04418             130.00     -400.00
04419              70.00     -800.00
04420            -270.00     -800.00
04421            -270.00     -800.00
04422             230.00     -600.00
04423             230.00     -800.00
04424             -58.00    -1000.00
04425            -270.00     -800.00
04426             -22.00     -800.00
04427             230.00    -1000.00
04428             -26.00    -1200.00
04429            -270.00    -1000.00
04430              40.00    -1200.00
04431             202.00    -1200.00
04432             -22.00    -1400.00
04433             -18.00    -1400.00
04434             -56.00    -1600.00
04435            -130.00    -1600.00
04436             150.00    -1600.00
04437             154.00    -1400.00
04438            -202.00    -2000.00
04439            -118.00    -2000.00
04440             150.00    -1600.00
04441              58.00    -2000.00
04442             -26.00    -2400.00
04443             -82.00    -2000.00
04444             -66.00    -2000.00
04445             102.00    -2200.00
04446              86.00    -2400.00
04447            -128.00    -2200.00
04448             -58.00    -2200.00
04449             102.00    -2400.00
04450               8.00    -2200.00
04451             -56.00    -2400.00
04452             -14.00    -2600.00
04453              18.00    -2400.00
04454               2.00    -2800.00
04455              -6.00    -2600.00
04456             -26.00    -2800.00
04457             -14.00    -2800.00
04458              12.00    -2800.00
04459              20.00    -3000.00
04460              -8.00    -2800.00
04461             -40.00    -3000.00
04462              -6.00    -3000.00
04463              30.00    -3000.00
04464               2.00    -3200.00
04465             -26.00    -3000.00
04466             -10.00    -3200.00
04467              -2.00    -3200.00
04468               0.00    -3200.00
04469              -6.00    -3200.00
04470              -2.00    -3200.00
04471               0.00    -3200.00
04472               6.00    -3200.00
04473             -16.00    -3400.00
04474             -18.00    -3600.00
04475               2.00    -3400.00
04476               0.00    -3400.00
04477              -6.00    -3600.00
04478               0.00    -3600.00
04479             -10.00    -3600.00
04480             -16.00    -3600.00
04481               8.00    -3600.00
04482               6.00    -3600.00
04483             -18.00    -3600.00
04484              -8.00    -3800.00
04485               8.00    -3600.00
04486             -10.00    -3800.00
04487             -14.00    -3800.00
04488              -4.00    -3800.00
04489              -6.00    -3800.00
04490             -10.00    -3800.00
04491               4.00    -3600.00
04492              -8.00    -3800.00
04493             -16.00    -3800.00
04494              -2.00    -4000.00
04495               2.00    -3800.00
04496              -8.00    -3800.00
04497              -8.00    -3800.00
04498              -8.00    -3800.00
04499              -8.00    -3800.00
04500              -2.00    -3800.00
04501               2.00    -3800.00
04502             -10.00    -4000.00
04503             -16.00    -3800.00
04504              -2.00    -3800.00
04505               0.00    -3800.00
04506             -14.00    -4000.00
04507             -16.00    -4000.00
04508              -8.00    -3800.00
04509               6.00    -3800.00
04510               8.00    -3800.00
04511             -14.00    -3800.00
04512             -30.00    -3800.00
04513             -14.00    -3800.00
04514              12.00    -3800.00
04515               6.00    -3800.00
04516             -10.00    -3800.00
04517             -16.00    -3800.00
04518             -14.00    -3800.00
04519               2.00    -3800.00
04520               6.00    -3800.00
04521             -10.00    -3600.00
04522             -26.00    -3600.00
04523              -8.00    -3600.00
04524              10.00    -3600.00
04525               6.00    -3400.00
04526             -10.00    -3600.00
04527             -18.00    -3600.00
04528             -22.00    -3400.00
04529               0.00    -3400.00
04530              16.00    -3400.00
04531               6.00    -3600.00
04532             -14.00    -3600.00
04533             -16.00    -3400.00
04534             -16.00    -3200.00
04535              -2.00    -3200.00
04536               6.00    -3200.00
04537               2.00    -3200.00
04538              -8.00    -3200.00
04539              -6.00    -3200.00
04540              -8.00    -3200.00
04541             -10.00    -3000.00
04542              -8.00    -3000.00
04543              -4.00    -3000.00
04544               0.00    -3000.00
04545               2.00    -2800.00
04546               0.00    -3000.00
04547             -10.00    -2800.00
04548             -16.00    -2800.00
04549              -8.00    -2800.00
04550              -2.00    -2800.00
04551               0.00    -2800.00
04552               0.00    -2800.00
04553              -8.00    -2400.00
04554             -14.00    -2400.00
04555              -8.00    -2600.00
04556              -6.00    -2400.00
04557              -6.00    -2400.00
04558              -6.00    -2400.00
04559              -2.00    -2200.00
04560              -8.00    -2200.00
04561              -8.00    -2000.00
04562              -8.00    -2200.00
04563             -14.00    -2000.00
04564              -8.00    -2000.00
04565              -2.00    -2000.00
04566               0.00    -2000.00
04567              -6.00    -1800.00
04568             -10.00    -1600.00
04569             -10.00    -1800.00
04570              -8.00    -1600.00
04571              -6.00    -1600.00
04572              -6.00    -1600.00
04573              -6.00    -1600.00
04574               0.00    -1400.00
04575              -2.00    -1400.00
04576              -8.00    -1400.00
04577             -10.00    -1000.00
04578              -6.00    -1200.00
04579              -2.00    -1000.00
04580              -6.00    -1000.00
04581              -2.00     -800.00
04582              -6.00     -800.00
04583              -6.00     -800.00
04584              -8.00     -800.00
04585              -6.00     -600.00
04586              -8.00     -600.00
04587               2.00     -600.00
04588               6.00     -600.00
04589              -2.00     -600.00
04590             -10.00     -600.00
04591             -14.00     -400.00
04592             -10.00     -400.00
04593               0.00     -200.00
04594               4.00        0.00
04595               0.00        0.00
04596               0.00        0.00
04597               0.00        0.00
04598              -2.00      200.00
04599               0.00      200.00
04600               0.00      400.00
04601              -4.00      400.00
04602              -2.00      400.00
04603               6.00      400.00
04604               2.00      400.00
04605              -6.00      600.00
04606              -6.00      600.00
04607               6.00      800.00
04608              26.00      800.00
04609             144.00     1000.00
04610             122.00     1000.00
04611            -270.00      800.00
04612            -270.00      800.00
04613             230.00     1200.00
04614             230.00     1600.00
04615             -96.00     1200.00
04616            -270.00      800.00
04617              70.00     1600.00
04618             230.00     1600.00
04619            -174.00     1200.00
04620            -270.00     1400.00
04621             230.00     1800.00
04622             230.00     1600.00
04623            -270.00     1200.00
04624               6.00     2000.00
04625             194.00     2000.00
04626            -200.00     1400.00
04627              14.00     1800.00
04628             230.00     2400.00
04629            -194.00     1800.00
04630             -86.00     1800.00
04631             190.00     2600.00
04632             -70.00     2000.00
04633             -50.00     1800.00
04634              96.00     2600.00
04635            -132.00     2600.00
04636               6.00     2000.00
04637             200.00     2400.00
04638            -150.00     2800.00
04639            -126.00     2400.00
04640             202.00     2400.00
04641              -2.00     2800.00
04642            -168.00     2600.00
04643              82.00     2800.00
04644              88.00     3000.00
04645            -104.00     3000.00
04646             -26.00     2800.00
04647              82.00     3400.00
04648             -44.00     3200.00
04649             -48.00     3000.00
04650              98.00     3400.00
04651               0.00     3200.00
04652            -114.00     3200.00
04653              48.00     3400.00
04654              54.00     3400.00
04655             -58.00     3200.00
04656              28.00     3400.00
04657              22.00     3600.00
04658             -66.00     3200.00
04659              28.00     3600.00
04660              46.00     3800.00
04661             -56.00     3600.00
04662               6.00     3600.00
04663              52.00     4000.00
04664             -44.00     3600.00
04665             -24.00     3600.00
04666              54.00     4000.00
04667             -24.00     4000.00
04668             -32.00     3800.00
04669              66.00     4000.00
04670              -2.00     4000.00
04671             -64.00     3800.00
04672              38.00     4200.00
04673              22.00     4000.00
04674             -54.00     4000.00
04675              22.00     4000.00
04676              38.00     4200.00
04677             -48.00     4000.00
04678               2.00     4000.00
04679              48.00     4200.00
04680             -32.00     4000.00
04681             -32.00     4000.00
04682              34.00     4200.00
04683               2.00     4200.00
04684             -20.00     4000.00
04685              26.00     4400.00
04686              -6.00     4000.00
04687             -30.00     4000.00
04688              22.00     4200.00
04689              16.00     4200.00
04690             -26.00     4200.00
04691               0.00     4200.00
04692              10.00     4200.00
04693             -22.00     4200.00
04694               4.00     4200.00
04695              24.00     4200.00
04696             -16.00     4200.00
04697             -14.00     4200.00
04698              16.00     4200.00
04699             -10.00     4200.00
04700              -8.00     4200.00
04701              24.00     4200.00
04702              -2.00     4000.00
04703             -26.00     4000.00
04704              14.00     4000.00
04705              10.00     4200.00
04706             -18.00     4000.00
04707               2.00     4200.00
04708              10.00     4000.00
04709             -12.00     4000.00
04710               2.00     4200.00
04711              16.00     4200.00
04712             -14.00     4000.00
04713             -16.00     4000.00
04714              14.00     4000.00
04715               2.00     4000.00
04716              -8.00     4000.00
04717               8.00     4000.00
04718               0.00     4000.00
04719             -14.00     3800.00
04720              12.00     4000.00
04721               6.00     3800.00
04722             -14.00     3800.00
04723               8.00     3800.00
04724              16.00     3800.00
04725             -16.00     3800.00
04726             -14.00     3600.00
04727               8.00     3600.00
04728              10.00     3600.00
04729              20.00     3400.00
04730               0.00     3600.00
04731             -38.00     3400.00
04732             -16.00     3400.00
04733              38.00     3600.00
04734              26.00     3400.00
04735             -10.00     3400.00
04736             -22.00     3400.00
04737             -18.00     3400.00
04738               6.00     3200.00
04739              36.00     3200.00
04740              14.00     3200.00
04741             -30.00     3200.00
04742             -22.00     3000.00
04743              12.00     3200.00
04744              16.00     2800.00
04745               6.00     2800.00
04746              -2.00     2800.00
04747             -14.00     2800.00
04748              -6.00     2800.00
04749              14.00     2800.00
04750               2.00     2600.00
04751              -8.00     2600.00
04752              -2.00     2400.00
04753              -2.00     2400.00
04754              -6.00     2400.00
04755               0.00     2400.00
04756               6.00     2200.00
04757              -6.00     2200.00
04758              -2.00     2200.00
04759               0.00     2000.00
04760              -8.00     2000.00
04761              -2.00     2000.00
04762               8.00     2000.00
04763               0.00     1800.00
04764              -6.00     1800.00
04765              -2.00     2000.00
04766              -8.00     1600.00
04767              -6.00     1600.00
04768              10.00     1600.00
04769               6.00     1600.00
04770             -10.00     1400.00
04771             -10.00     1400.00
04772              -6.00     1400.00
04773               0.00     1200.00
04774               8.00     1200.00
04775               8.00     1000.00
04776              -8.00     1200.00
04777              -8.00     1000.00
04778               2.00     1000.00
04779               0.00     1000.00
04780              -2.00      800.00
04781              -4.00      800.00
04782              -2.00      800.00
04783               0.00      800.00
04784               2.00      800.00
04785              -2.00      600.00
04786              -8.00      400.00
04787               0.00      400.00
04788               0.00      400.00
04789              -6.00      200.00
04790               0.00      200.00
04791               6.00      200.00
04792               0.00      200.00
04793              -2.00      200.00
04794               8.00        0.00
04795               6.00        0.00
04796              -2.00        0.00
04797              -6.00     -400.00
04798              -2.00     -400.00
04799               6.00     -400.00
04800              28.00     -400.00
04801             118.00     -400.00
04802             106.00     -800.00
04803            -232.00     -800.00
04804            -270.00     -800.00
04805             136.00     -400.00
04806             230.00     -800.00
04807             150.00     -800.00
04808            -270.00    -1000.00
04809            -194.00     -800.00
04810             230.00    -1000.00
04811             130.00    -1200.00
04812            -270.00    -1200.00
04813             -68.00    -1000.00
04814             230.00    -1200.00
04815              -2.00    -1400.00
04816             -24.00    -1400.00
04817             -34.00    -1400.00
04818            -150.00    -1600.00
04819             102.00    -1600.00
04820             202.00    -1600.00
04821            -166.00    -1800.00
04822            -160.00    -2000.00
04823             118.00    -2000.00
04824              80.00    -2000.00
04825             -16.00    -2200.00
04826             -72.00    -2000.00
04827             -74.00    -2000.00
04828              70.00    -2200.00
04829             110.00    -2400.00
04830            -114.00    -2200.00
04831             -88.00    -2200.00
04832              90.00    -2600.00
04833              34.00    -2400.00
04834             -58.00    -2400.00
04835             -24.00    -2600.00
04836              16.00    -2800.00
04837               6.00    -2400.00
04838               2.00    -2800.00
04839             -26.00    -2800.00
04840             -14.00    -2800.00
04841               8.00    -2800.00
04842              18.00    -2800.00
04843              -6.00    -2800.00
04844             -34.00    -3000.00
04845             -18.00    -2800.00
04846              22.00    -3000.00
04847               6.00    -3000.00
04848             -22.00    -3000.00
04849              -8.00    -3200.00
04850               0.00    -3200.00
04851              -6.00    -3200.00
04852              -8.00    -3200.00
04853              -2.00    -3200.00
04854               0.00    -3200.00
04855               6.00    -3400.00
04856             -14.00    -3400.00
04857             -18.00    -3600.00
04858               2.00    -3400.00
04859               0.00    -3600.00
04860             -10.00    -3600.00
04861               6.00    -3600.00
04862              -2.00    -3600.00
04863             -18.00    -3600.00
04864              -2.00    -3600.00
04865               4.00    -3600.00
04866             -14.00    -3600.00
04867              -2.00    -3600.00
04868               8.00    -3600.00
04869             -14.00    -3800.00
04870             -16.00    -3600.00
04871               4.00    -3800.00
04872               0.00    -3600.00
04873             -14.00    -3800.00
04874               0.00    -3800.00
04875               0.00    -3800.00
04876             -10.00    -3800.00
04877              -6.00    -3800.00
04878              -6.00    -4000.00
04879             -14.00    -3800.00
04880              -2.00    -3800.00
04881               2.00    -3800.00
04882              -6.00    -3800.00
04883             -10.00    -3800.00
04884              -6.00    -3800.00
04885             -10.00    -3800.00
04886              -8.00    -4000.00
04887               0.00    -4000.00
04888               0.00    -4000.00
04889              -8.00    -3800.00
04890              -8.00    -4000.00
04891             -10.00    -3600.00
04892             -10.00    -4000.00
04893               0.00    -3800.00
04894              -2.00    -3800.00
04895             -10.00    -3800.00
04896              -8.00    -3800.00
04897              -6.00    -3800.00
04898             -10.00    -3800.00
04899              -8.00    -3800.00
04900              -2.00    -3800.00
04901              -8.00    -3600.00
04902              -8.00    -3800.00
04903              -6.00    -3800.00
04904              -6.00    -3600.00
04905             -14.00    -3800.00
04906              -6.00    -3800.00
04907               0.00    -3600.00
04908              -4.00    -3600.00
04909             -10.00    -3600.00
04910              -2.00    -3600.00
04911             -10.00    -3600.00
04912             -10.00    -3400.00
04913               0.00    -3600.00
04914              -2.00    -3400.00
04915              -8.00    -3400.00
04916              -2.00    -3600.00
04917             -10.00    -3400.00
04918              -8.00    -3200.00
04919              -2.00    -3200.00
04920               0.00    -3200.00
04921              -2.00    -3200.00
04922              -6.00    -3200.00
04923              -6.00    -3200.00
04924              -8.00    -3000.00
04925              -6.00    -3000.00
04926               0.00    -3000.00
04927              -6.00    -3000.00
04928              -2.00    -3000.00
04929              -2.00    -3000.00
04930              -8.00    -2800.00
04931              -8.00    -2800.00
04932               0.00    -2800.00
04933              -4.00    -2800.00
04934              -6.00    -2800.00
04935               0.00    -2400.00
04936              -2.00    -2800.00
04937              -8.00    -2400.00
04938              -8.00    -2400.00
04939              -6.00    -2400.00
04940              -4.00    -2400.00
04941               0.00    -2400.00
04942              -2.00    -2200.00
04943              -8.00    -2200.00
04944             -10.00    -2200.00
04945              -8.00    -2200.00
04946              -8.00    -2200.00
04947              -4.00    -2000.00
04948               2.00    -2000.00
04949              -2.00    -2000.00
04950              -8.00    -1800.00
04951              -8.00    -2000.00
04952             -10.00    -1600.00
04953              -4.00    -1600.00
04954               6.00    -1600.00
04955              -2.00    -1400.00
04956             -16.00    -1400.00
04957             -10.00    -1600.00
04958              -8.00    -1400.00
04959              -2.00    -1400.00
04960               6.00    -1200.00
04961              -8.00    -1200.00
04962             -14.00    -1000.00
04963              -2.00    -1000.00
04964              -6.00    -1000.00
04965             -12.00     -800.00
04966               0.00     -800.00
04967               6.00     -800.00
04968             -10.00     -800.00
04969             -14.00     -600.00
04970              -8.00     -600.00
04971              -2.00     -600.00
04972              16.00     -400.00
04973              10.00     -600.00
04974             -28.00     -400.00
04975             -30.00     -200.00
04976              -2.00     -200.00
04977              16.00        0.00
04978              16.00        0.00
04979               0.00        0.00
04980             -32.00        0.00
04981             -30.00      200.00
04982              16.00      400.00
04983              32.00      200.00
04984               4.00      200.00
04985             -10.00      400.00
04986             -14.00      400.00
04987              -2.00      400.00
04988               6.00      400.00
04989               6.00      800.00
04990             -10.00      800.00
04991              10.00      800.00
04992             128.00     1000.00
04993             150.00     1200.00
04994            -246.00     1000.00
04995            -270.00      800.00
04996             154.00     1200.00
04997             230.00     1400.00
04998             144.00     1200.00
04999            -270.00      800.00
05000            -146.00     1600.00
