Unit:(mV)
                     CH1         CH2
Frequency              ? 260.971 kHz
00001              -8.00        0.00
00002               2.00      200.00
00003               0.00      200.00
00004               2.00      200.00
00005               6.00      400.00
00006               2.00      400.00
00007              -8.00      400.00
00008              -2.00      400.00
00009              -6.00      400.00
00010               0.00      600.00
00011              66.00      800.00
00012             198.00     1000.00
00013              -4.00     1000.00
00014            -270.00      800.00
00015            -270.00      800.00
00016             230.00     1200.00
00017             230.00     1200.00
00018            -270.00      800.00
00019            -270.00     1200.00
00020             230.00     1800.00
00021             230.00     1400.00
00022            -270.00     1000.00
00023            -270.00     1600.00
00024             230.00     2000.00
00025             -38.00     1200.00
00026            -270.00     1600.00
00027             230.00     2200.00
00028              48.00     1600.00
00029            -270.00     1600.00
00030             176.00     2000.00
00031             128.00     2000.00
00032            -270.00     1800.00
00033              48.00     2400.00
00034             176.00     2600.00
00035            -152.00     2000.00
00036              14.00     2000.00
00037              56.00     2800.00
00038            -144.00     2400.00
00039              88.00     2200.00
00040             112.00     2800.00
00041            -206.00     2800.00
00042             -10.00     2400.00
00043             190.00     2800.00
00044             -96.00     2800.00
00045            -122.00     2600.00
00046             126.00     2800.00
00047              34.00     3200.00
00048            -134.00     2800.00
00049              16.00     2800.00
00050              96.00     3200.00
00051            -110.00     2800.00
00052             -30.00     3200.00
00053             126.00     3200.00
00054             -80.00     3200.00
00055            -102.00     3000.00
00056             114.00     3600.00
00057              -8.00     3400.00
00058             -94.00     3200.00
00059              60.00     3600.00
00060               0.00     3600.00
00061             -76.00     3200.00
00062              40.00     3600.00
00063               6.00     3600.00
00064             -70.00     3400.00
00065              32.00     3800.00
00066              32.00     3800.00
00067             -76.00     3600.00
00068             -12.00     3600.00
00069              38.00     3800.00
00070             -58.00     3600.00
00071             -14.00     3600.00
00072              64.00     4000.00
00073             -56.00     4000.00
00074             -58.00     3800.00
00075              50.00     4000.00
00076             -18.00     4000.00
00077             -54.00     4000.00
00078              42.00     4000.00
00079               4.00     4000.00
00080             -74.00     4000.00
00081              10.00     4000.00
00082              26.00     4200.00
00083             -58.00     4000.00
00084             -14.00     4000.00
00085              32.00     4200.00
00086             -42.00     4200.00
00087             -30.00     4200.00
00088              24.00     4200.00
00089             -30.00     4200.00
00090             -34.00     4000.00
00091              22.00     4400.00
00092              -8.00     4200.00
00093             -42.00     4200.00
00094               6.00     4200.00
00095              -8.00     4200.00
00096             -40.00     4200.00
00097               0.00     4200.00
00098               6.00     4200.00
00099             -40.00     4200.00
00100             -10.00     4400.00
00101               6.00     4200.00
00102             -42.00     4200.00
00103             -24.00     4200.00
00104              10.00     4200.00
00105             -26.00     4200.00
00106             -30.00     4200.00
00107               6.00     4200.00
00108             -26.00     4200.00
00109             -40.00     4000.00
00110               2.00     4200.00
00111             -10.00     4200.00
00112             -42.00     4000.00
00113              -2.00     4200.00
00114              -2.00     4000.00
00115             -50.00     4000.00
00116             -26.00     4000.00
00117               4.00     4000.00
00118             -24.00     4000.00
00119             -24.00     4000.00
00120             -12.00     4000.00
00121             -42.00     3800.00
00122             -38.00     4000.00
00123               6.00     4000.00
00124             -10.00     3800.00
00125             -38.00     3600.00
00126             -22.00     3600.00
00127             -26.00     3600.00
00128             -34.00     3600.00
00129              -2.00     3800.00
00130              -8.00     3600.00
00131             -34.00     3600.00
00132             -26.00     3600.00
00133             -16.00     3600.00
00134             -32.00     3400.00
00135             -10.00     3400.00
00136               0.00     3400.00
00137             -38.00     3400.00
00138             -46.00     3400.00
00139              -8.00     3400.00
00140              -2.00     3200.00
00141              -6.00     3200.00
00142               0.00     3200.00
00143             -38.00     3200.00
00144             -58.00     3200.00
00145             -10.00     3200.00
00146              18.00     3200.00
00147              -8.00     2800.00
00148             -18.00     3000.00
00149             -24.00     2800.00
00150             -30.00     2800.00
00151              -8.00     2800.00
00152              10.00     2800.00
00153             -18.00     2800.00
00154             -30.00     2600.00
00155             -12.00     2600.00
00156              -6.00     2600.00
00157             -14.00     2400.00
00158               0.00     2400.00
00159             -10.00     2400.00
00160             -24.00     2200.00
00161             -10.00     2200.00
00162              -6.00     2000.00
00163             -12.00     2000.00
00164               4.00     2000.00
00165               0.00     1800.00
00166             -24.00     2000.00
00167             -22.00     1600.00
00168              -2.00     1800.00
00169              -6.00     1600.00
00170              -2.00     1600.00
00171               2.00     1800.00
00172             -16.00     1600.00
00173             -26.00     1400.00
00174              -6.00     1400.00
00175               2.00     1200.00
00176              -2.00     1400.00
00177               2.00     1200.00
00178               0.00     1200.00
00179             -22.00     1200.00
00180             -16.00     1000.00
00181               0.00     1000.00
00182              -2.00     1000.00
00183               0.00      800.00
00184              -2.00      800.00
00185             -10.00      600.00
00186             -10.00      800.00
00187               0.00      800.00
00188              -2.00      600.00
00189              -8.00      400.00
00190               0.00      400.00
00191              -8.00      400.00
00192             -14.00      200.00
00193              -2.00      200.00
00194               6.00      200.00
00195              -2.00        0.00
00196              -2.00      200.00
00197              10.00        0.00
00198               4.00        0.00
00199              -8.00        0.00
00200              -8.00     -400.00
00201              -8.00     -200.00
00202               6.00     -400.00
00203              58.00     -400.00
00204             166.00     -600.00
00205              28.00     -800.00
00206            -270.00     -800.00
00207            -270.00     -400.00
00208             230.00     -600.00
00209             230.00     -800.00
00210            -270.00    -1000.00
00211            -270.00     -800.00
00212             230.00     -800.00
00213             230.00    -1000.00
00214            -260.00    -1200.00
00215            -270.00    -1000.00
00216             208.00    -1200.00
00217             170.00    -1400.00
00218             -60.00    -1400.00
00219               2.00    -1400.00
00220             -82.00    -1400.00
00221            -118.00    -1600.00
00222             230.00    -1600.00
00223             128.00    -1600.00
00224            -264.00    -1800.00
00225             -94.00    -2000.00
00226             218.00    -1600.00
00227              42.00    -2000.00
00228             -82.00    -2200.00
00229             -64.00    -2000.00
00230             -14.00    -2000.00
00231             104.00    -2400.00
00232              52.00    -2200.00
00233            -110.00    -2000.00
00234             -54.00    -2400.00
00235             108.00    -2400.00
00236              32.00    -2400.00
00237             -70.00    -2400.00
00238             -22.00    -2600.00
00239              68.00    -2600.00
00240               4.00    -2400.00
00241             -34.00    -2800.00
00242              10.00    -2600.00
00243              -8.00    -2800.00
00244              -6.00    -2800.00
00245              58.00    -2800.00
00246               8.00    -2800.00
00247             -74.00    -3000.00
00248              16.00    -3000.00
00249              50.00    -3000.00
00250             -18.00    -3200.00
00251              -8.00    -3000.00
00252              24.00    -3200.00
00253             -18.00    -3200.00
00254              -8.00    -3200.00
00255              26.00    -3200.00
00256              -6.00    -3400.00
00257               4.00    -3400.00
00258              22.00    -3400.00
00259             -14.00    -3600.00
00260             -10.00    -3400.00
00261              24.00    -3600.00
00262              -2.00    -3600.00
00263             -16.00    -3600.00
00264              24.00    -3600.00
00265               8.00    -3600.00
00266             -20.00    -3600.00
00267              14.00    -3600.00
00268              14.00    -3600.00
00269             -14.00    -3800.00
00270              14.00    -3600.00
00271              24.00    -3600.00
00272             -18.00    -3800.00
00273              -6.00    -3800.00
00274              24.00    -3800.00
00275               0.00    -3800.00
00276               0.00    -3800.00
00277              24.00    -3800.00
00278               0.00    -3800.00
00279             -16.00    -3800.00
00280              16.00    -3800.00
00281              16.00    -4000.00
00282              -6.00    -3800.00
00283               8.00    -3800.00
00284              16.00    -3800.00
00285               0.00    -3800.00
00286               6.00    -4000.00
00287              14.00    -3800.00
00288               6.00    -4000.00
00289              14.00    -3800.00
00290              22.00    -3800.00
00291               0.00    -3800.00
00292              -2.00    -3800.00
00293              16.00    -3800.00
00294              10.00    -3800.00
00295               8.00    -3800.00
00296              22.00    -3800.00
00297              14.00    -3800.00
00298              -2.00    -3800.00
00299              16.00    -3800.00
00300              18.00    -3800.00
00301               6.00    -3800.00
00302              16.00    -3800.00
00303              24.00    -3800.00
00304              10.00    -3800.00
00305               6.00    -3600.00
00306              16.00    -3800.00
00307              14.00    -3600.00
00308              14.00    -3600.00
00309              24.00    -3600.00
00310              14.00    -3600.00
00311               6.00    -3600.00
00312              14.00    -3600.00
00313              16.00    -3600.00
00314               8.00    -3600.00
00315              16.00    -3600.00
00316              16.00    -3600.00
00317              10.00    -3600.00
00318              14.00    -3400.00
00319              16.00    -3400.00
00320               8.00    -3400.00
00321               8.00    -3400.00
00322              14.00    -3200.00
00323              12.00    -3200.00
00324              14.00    -3200.00
00325              14.00    -3200.00
00326               8.00    -3200.00
00327               6.00    -3000.00
00328              14.00    -3000.00
00329              10.00    -2800.00
00330              10.00    -3000.00
00331              14.00    -3000.00
00332              10.00    -2800.00
00333               4.00    -3000.00
00334               6.00    -2800.00
00335              10.00    -2800.00
00336               8.00    -2800.00
00337               8.00    -2800.00
00338              16.00    -2600.00
00339               6.00    -2800.00
00340               2.00    -2400.00
00341               6.00    -2600.00
00342               6.00    -2400.00
00343               8.00    -2400.00
00344              10.00    -2400.00
00345               8.00    -2400.00
00346               2.00    -2200.00
00347               6.00    -2200.00
00348               6.00    -2000.00
00349               2.00    -2200.00
00350               8.00    -2000.00
00351               8.00    -2000.00
00352               2.00    -2000.00
00353               2.00    -2000.00
00354               2.00    -2000.00
00355               2.00    -1800.00
00356               6.00    -1600.00
00357               8.00    -1600.00
00358               2.00    -1600.00
00359               0.00    -1400.00
00360               2.00    -1400.00
00361               0.00    -1400.00
00362               0.00    -1200.00
00363               6.00    -1200.00
00364               6.00    -1400.00
00365               0.00    -1000.00
00366               0.00    -1000.00
00367               0.00    -1000.00
00368               0.00    -1000.00
00369               0.00     -800.00
00370               2.00     -800.00
00371               2.00     -600.00
00372               0.00     -600.00
00373               0.00     -600.00
00374               0.00     -600.00
00375               0.00     -600.00
00376               0.00     -400.00
00377              -2.00     -400.00
00378              -2.00     -200.00
00379              -2.00     -200.00
00380               0.00     -200.00
00381              -2.00        0.00
00382              -2.00        0.00
00383              -2.00        0.00
00384              -2.00        0.00
00385               0.00      200.00
00386               6.00      200.00
00387              -2.00      200.00
00388              -2.00      400.00
00389               8.00      400.00
00390               2.00      400.00
00391             -10.00      400.00
00392              -8.00      600.00
00393               0.00      800.00
00394              40.00      800.00
00395             184.00     1000.00
00396              86.00     1000.00
00397            -270.00      800.00
00398            -270.00      800.00
00399             230.00     1200.00
00400             230.00     1400.00
00401            -270.00      800.00
00402            -270.00     1000.00
00403             230.00     1800.00
00404             230.00     1400.00
00405            -270.00     1000.00
00406            -270.00     1600.00
00407             230.00     1800.00
00408             138.00     1200.00
00409            -270.00     1600.00
00410             134.00     2000.00
00411             150.00     1800.00
00412            -264.00     1400.00
00413              90.00     2000.00
00414             220.00     2400.00
00415            -262.00     1800.00
00416             -50.00     2000.00
00417             210.00     2600.00
00418            -102.00     2000.00
00419             -34.00     1800.00
00420              80.00     2600.00
00421            -134.00     2600.00
00422              30.00     2200.00
00423             154.00     2600.00
00424            -166.00     2800.00
00425             -78.00     2400.00
00426             192.00     2800.00
00427             -38.00     3200.00
00428            -154.00     2600.00
00429              90.00     2800.00
00430              80.00     3200.00
00431            -122.00     2800.00
00432             -30.00     2800.00
00433             106.00     3200.00
00434             -70.00     3200.00
00435             -66.00     3000.00
00436             126.00     3400.00
00437             -30.00     3200.00
00438            -136.00     3200.00
00439              90.00     3400.00
00440              38.00     3400.00
00441            -104.00     3200.00
00442              34.00     3600.00
00443              24.00     3600.00
00444             -80.00     3200.00
00445              22.00     3600.00
00446              30.00     3600.00
00447             -70.00     3400.00
00448              10.00     3600.00
00449              46.00     3800.00
00450             -64.00     3600.00
00451             -30.00     3600.00
00452              50.00     4000.00
00453             -42.00     3600.00
00454             -40.00     3800.00
00455              62.00     4000.00
00456             -30.00     4000.00
00457             -72.00     3800.00
00458              42.00     4000.00
00459               2.00     4000.00
00460             -66.00     4000.00
00461              26.00     4000.00
00462              24.00     4200.00
00463             -70.00     4000.00
00464             -14.00     4000.00
00465              32.00     4200.00
00466             -54.00     4000.00
00467             -22.00     4000.00
00468              48.00     4400.00
00469             -26.00     4000.00
00470             -54.00     4000.00
00471              12.00     4200.00
00472             -14.00     4200.00
00473             -34.00     4000.00
00474              24.00     4200.00
00475               0.00     4200.00
00476             -50.00     4200.00
00477             -10.00     4200.00
00478               2.00     4200.00
00479             -34.00     4200.00
00480              -2.00     4200.00
00481              10.00     4400.00
00482             -40.00     4200.00
00483             -18.00     4200.00
00484              10.00     4200.00
00485             -34.00     4200.00
00486             -34.00     4200.00
00487              10.00     4200.00
00488             -18.00     4200.00
00489             -32.00     4200.00
00490               2.00     4200.00
00491             -16.00     4200.00
00492             -48.00     4000.00
00493              -2.00     4200.00
00494              -2.00     4200.00
00495             -38.00     4000.00
00496             -16.00     4200.00
00497               0.00     4000.00
00498             -40.00     4000.00
00499             -30.00     4000.00
00500               0.00     4000.00
00501             -26.00     4000.00
00502             -30.00     4000.00
00503              -6.00     4000.00
00504             -24.00     4000.00
00505             -38.00     4000.00
00506             -10.00     4000.00
00507             -16.00     4000.00
00508             -32.00     3600.00
00509             -14.00     3800.00
00510             -18.00     3800.00
00511             -32.00     3600.00
00512             -18.00     3600.00
00513             -14.00     3600.00
00514             -28.00     3600.00
00515             -18.00     3600.00
00516              -8.00     3600.00
00517             -26.00     3400.00
00518             -24.00     3400.00
00519             -10.00     3400.00
00520             -22.00     3400.00
00521             -26.00     3400.00
00522              -8.00     3400.00
00523             -18.00     3400.00
00524             -30.00     3200.00
00525             -16.00     3200.00
00526             -10.00     3200.00
00527             -24.00     3000.00
00528             -14.00     3000.00
00529              -6.00     3000.00
00530             -22.00     2800.00
00531             -24.00     3000.00
00532             -12.00     2800.00
00533             -22.00     2800.00
00534              -8.00     2800.00
00535               0.00     2600.00
00536             -16.00     2600.00
00537             -32.00     2600.00
00538             -10.00     2800.00
00539              -4.00     2600.00
00540              -4.00     2600.00
00541              -8.00     2400.00
00542             -16.00     2400.00
00543             -22.00     2400.00
00544              -2.00     2400.00
00545              -2.00     2000.00
00546             -18.00     2000.00
00547             -14.00     2000.00
00548               0.00     2000.00
00549              -2.00     1800.00
00550              -6.00     2000.00
00551             -10.00     1600.00
00552             -18.00     1800.00
00553              -8.00     1600.00
00554               6.00     1600.00
00555              -6.00     1600.00
00556             -16.00     1600.00
00557              -4.00     1400.00
00558               0.00     1600.00
00559             -10.00     1200.00
00560             -10.00     1200.00
00561              -8.00     1200.00
00562              -2.00     1200.00
00563               6.00     1000.00
00564               0.00     1000.00
00565             -16.00     1000.00
00566             -16.00      800.00
00567               2.00     1000.00
00568               8.00      800.00
00569               0.00      800.00
00570             -10.00      800.00
00571             -16.00      600.00
00572              -6.00      400.00
00573               8.00      400.00
00574              -2.00      400.00
00575             -14.00      200.00
00576              -6.00      200.00
00577               6.00      200.00
00578               0.00      200.00
00579              -2.00        0.00
00580               6.00        0.00
00581               6.00        0.00
00582              -2.00     -200.00
00583             -10.00     -400.00
00584             -10.00     -200.00
00585               8.00     -400.00
00586              48.00     -400.00
00587             150.00     -600.00
00588              80.00     -800.00
00589            -270.00     -800.00
00590            -270.00     -600.00
00591             230.00     -600.00
00592             230.00     -800.00
00593            -124.00    -1200.00
00594            -270.00     -800.00
00595              30.00     -800.00
00596             230.00    -1200.00
00597             -72.00    -1200.00
00598            -270.00    -1000.00
00599              88.00    -1000.00
00600             230.00    -1400.00
00601             -48.00    -1400.00
00602             -16.00    -1400.00
00603             -40.00    -1600.00
00604            -156.00    -1600.00
00605             160.00    -1600.00
00606             202.00    -1600.00
00607            -226.00    -1800.00
00608            -160.00    -2000.00
00609             198.00    -1800.00
00610              86.00    -2000.00
00611             -74.00    -2200.00
00612             -74.00    -2000.00
00613             -18.00    -2000.00
00614              82.00    -2200.00
00615              74.00    -2200.00
00616             -94.00    -2200.00
00617             -80.00    -2400.00
00618              88.00    -2600.00
00619              64.00    -2200.00
00620             -56.00    -2400.00
00621             -54.00    -2600.00
00622              54.00    -2600.00
00623              22.00    -2600.00
00624             -30.00    -2800.00
00625              10.00    -2800.00
00626              10.00    -2800.00
00627             -26.00    -2800.00
00628              32.00    -2800.00
00629              24.00    -3000.00
00630             -58.00    -3000.00
00631               2.00    -3000.00
00632              62.00    -3200.00
00633             -16.00    -3200.00
00634             -26.00    -3000.00
00635              32.00    -3200.00
00636               0.00    -3200.00
00637             -22.00    -3200.00
00638              14.00    -3200.00
00639               6.00    -3200.00
00640               0.00    -3200.00
00641              22.00    -3200.00
00642               0.00    -3400.00
00643             -24.00    -3600.00
00644              18.00    -3600.00
00645              14.00    -3400.00
00646             -16.00    -3600.00
00647              10.00    -3600.00
00648              16.00    -3600.00
00649             -14.00    -3600.00
00650               6.00    -3800.00
00651              14.00    -3600.00
00652             -12.00    -3600.00
00653               2.00    -3800.00
00654              32.00    -3600.00
00655              -6.00    -3600.00
00656             -18.00    -3800.00
00657              16.00    -3800.00
00658               6.00    -3800.00
00659              -8.00    -3800.00
00660              22.00    -3800.00
00661              18.00    -3800.00
00662             -10.00    -3800.00
00663              -2.00    -3800.00
00664              10.00    -3800.00
00665              -2.00    -3800.00
00666               8.00    -4000.00
00667              22.00    -3800.00
00668               2.00    -4000.00
00669              -2.00    -4000.00
00670              16.00    -3800.00
00671               2.00    -3800.00
00672               0.00    -4000.00
00673              20.00    -3800.00
00674              14.00    -3800.00
00675               2.00    -4000.00
00676              14.00    -3800.00
00677               8.00    -3800.00
00678               2.00    -3800.00
00679              16.00    -3600.00
00680              22.00    -3800.00
00681               6.00    -4000.00
00682               8.00    -3800.00
00683              16.00    -4000.00
00684               6.00    -3800.00
00685              12.00    -3800.00
00686              24.00    -3800.00
00687              14.00    -3800.00
00688               6.00    -3800.00
00689              18.00    -3800.00
00690              18.00    -3800.00
00691              10.00    -3800.00
00692              20.00    -3600.00
00693              16.00    -3600.00
00694               8.00    -3600.00
00695              16.00    -3600.00
00696              22.00    -3600.00
00697              10.00    -3600.00
00698              16.00    -3600.00
00699              14.00    -3400.00
00700              14.00    -3600.00
00701              12.00    -3400.00
00702              20.00    -3600.00
00703              14.00    -3400.00
00704              14.00    -3200.00
00705              14.00    -3400.00
00706              12.00    -3200.00
00707              10.00    -3200.00
00708              16.00    -3200.00
00709              16.00    -3200.00
00710               8.00    -3200.00
00711              12.00    -3200.00
00712              10.00    -3000.00
00713               8.00    -3200.00
00714              14.00    -3000.00
00715              12.00    -3000.00
00716               6.00    -2800.00
00717               8.00    -3000.00
00718              14.00    -2800.00
00719               6.00    -2800.00
00720               8.00    -3000.00
00721              10.00    -2800.00
00722               8.00    -2800.00
00723               2.00    -2600.00
00724              10.00    -2400.00
00725               6.00    -2400.00
00726               0.00    -2400.00
00727               6.00    -2400.00
00728              12.00    -2400.00
00729               8.00    -2200.00
00730               6.00    -2200.00
00731               6.00    -2200.00
00732               2.00    -2200.00
00733               6.00    -2200.00
00734               8.00    -2000.00
00735               4.00    -2000.00
00736               6.00    -2000.00
00737               2.00    -1800.00
00738               2.00    -2000.00
00739               0.00    -1600.00
00740               6.00    -1600.00
00741               6.00    -1600.00
00742               6.00    -1400.00
00743               2.00    -1400.00
00744               0.00    -1400.00
00745              -2.00    -1400.00
00746               2.00    -1200.00
00747               6.00    -1000.00
00748               2.00    -1200.00
00749               0.00    -1000.00
00750               2.00    -1000.00
00751              -2.00    -1000.00
00752              -2.00     -800.00
00753               2.00     -800.00
00754               2.00     -800.00
00755               0.00     -800.00
00756              -2.00     -600.00
00757              -2.00     -600.00
00758              -2.00     -400.00
00759               0.00     -400.00
00760               2.00     -400.00
00761               2.00     -400.00
00762              -2.00     -400.00
00763              -2.00        0.00
00764              -2.00        0.00
00765               0.00        0.00
00766              -2.00        0.00
00767              -2.00        0.00
00768              -2.00        0.00
00769               6.00      400.00
00770               0.00      400.00
00771              -2.00      400.00
00772               8.00      400.00
00773               2.00      400.00
00774              -6.00      400.00
00775              -8.00      400.00
00776              -2.00      800.00
00777              22.00      800.00
00778             154.00     1000.00
00779             144.00     1000.00
00780            -270.00      800.00
00781            -270.00      800.00
00782             230.00     1200.00
00783             230.00     1200.00
00784            -130.00     1000.00
00785            -270.00      800.00
00786              94.00     1600.00
00787             230.00     1600.00
00788            -222.00     1000.00
00789            -270.00     1400.00
00790             230.00     1800.00
00791             230.00     1400.00
00792            -270.00     1200.00
00793              10.00     2000.00
00794             230.00     2000.00
00795            -234.00     1400.00
00796             -20.00     2000.00
00797             230.00     2400.00
00798            -208.00     1800.00
00799            -132.00     1800.00
00800             218.00     2600.00
00801             -42.00     2200.00
00802             -90.00     2000.00
00803              90.00     2600.00
00804            -104.00     2600.00
00805             -30.00     2000.00
00806             176.00     2400.00
00807            -110.00     3000.00
00808            -142.00     2400.00
00809             170.00     2800.00
00810              26.00     3000.00
00811            -174.00     2800.00
00812              44.00     2600.00
00813             114.00     3200.00
00814             -98.00     2800.00
00815             -70.00     2800.00
00816             106.00     3200.00
00817             -30.00     3200.00
00818            -100.00     3000.00
00819             104.00     3400.00
00820              24.00     3400.00
00821            -154.00     3000.00
00822              48.00     3400.00
00823              74.00     3400.00
00824             -94.00     3200.00
00825               6.00     3400.00
00826              48.00     3600.00
00827             -80.00     3400.00
00828              -4.00     3400.00
00829              48.00     3600.00
00830             -56.00     3600.00
00831             -16.00     3400.00
00832              50.00     4000.00
00833             -42.00     3600.00
00834             -48.00     3600.00
00835              46.00     4000.00
00836             -24.00     4000.00
00837             -54.00     3600.00
00838              50.00     4000.00
00839              -6.00     4000.00
00840             -82.00     3600.00
00841              24.00     4000.00
00842              24.00     4000.00
00843             -66.00     4000.00
00844               2.00     4000.00
00845              36.00     4000.00
00846             -62.00     4000.00
00847             -30.00     4000.00
00848              42.00     4200.00
00849             -32.00     4000.00
00850             -50.00     4000.00
00851              26.00     4200.00
00852              -6.00     4200.00
00853             -44.00     4200.00
00854               6.00     4200.00
00855             -10.00     4200.00
00856             -44.00     4200.00
00857               2.00     4200.00
00858              10.00     4200.00
00859             -32.00     4200.00
00860             -18.00     4200.00
00861               0.00     4200.00
00862             -32.00     4200.00
00863             -22.00     4200.00
00864               6.00     4200.00
00865             -18.00     4200.00
00866             -18.00     4200.00
00867               0.00     4200.00
00868             -40.00     4000.00
00869             -42.00     4200.00
00870              16.00     4200.00
00871              16.00     4200.00
00872             -34.00     4200.00
00873             -38.00     4200.00
00874             -18.00     4200.00
00875             -22.00     4000.00
00876               2.00     4200.00
00877               4.00     4000.00
00878             -40.00     4200.00
00879             -44.00     4200.00
00880              -6.00     4200.00
00881             -10.00     4000.00
00882             -24.00     4000.00
00883             -14.00     4200.00
00884             -22.00     4000.00
00885             -32.00     4000.00
00886             -10.00     4000.00
00887             -16.00     4000.00
00888             -32.00     4000.00
00889             -14.00     4000.00
00890              -4.00     3800.00
00891             -30.00     3800.00
00892             -32.00     3800.00
00893             -14.00     4000.00
00894             -16.00     3600.00
00895             -16.00     3600.00
00896             -18.00     3600.00
00897             -28.00     3600.00
00898             -24.00     3600.00
00899              -6.00     3400.00
00900             -18.00     3600.00
00901             -36.00     3400.00
00902             -22.00     3400.00
00903              -8.00     3400.00
00904             -16.00     3400.00
00905             -20.00     3400.00
00906             -24.00     3200.00
00907             -24.00     3200.00
00908              -8.00     3200.00
00909               0.00     3200.00
00910             -24.00     3200.00
00911             -26.00     3000.00
00912             -10.00     3000.00
00913             -14.00     3200.00
00914             -22.00     2800.00
00915              -8.00     2800.00
00916             -14.00     2800.00
00917             -18.00     2800.00
00918             -10.00     2800.00
00919             -14.00     2600.00
00920             -24.00     2600.00
00921             -14.00     2600.00
00922              -8.00     2600.00
00923             -10.00     2400.00
00924              -8.00     2400.00
00925              -8.00     2400.00
00926             -18.00     2200.00
00927             -22.00     2200.00
00928             -10.00     2200.00
00929               0.00     2000.00
00930              -4.00     1800.00
00931             -10.00     2000.00
00932             -14.00     2000.00
00933             -10.00     1800.00
00934              -6.00     1800.00
00935             -10.00     1800.00
00936             -14.00     1600.00
00937              -8.00     1600.00
00938               6.00     1600.00
00939               2.00     1400.00
00940             -24.00     1600.00
00941             -24.00     1400.00
00942               6.00     1400.00
00943              10.00     1200.00
00944              -2.00     1200.00
00945             -18.00     1200.00
00946             -22.00     1000.00
00947               2.00     1000.00
00948              20.00     1000.00
00949               0.00      800.00
00950             -24.00      800.00
00951             -22.00      800.00
00952              -6.00      800.00
00953              14.00      600.00
00954              16.00      800.00
00955             -14.00      400.00
00956             -26.00      400.00
00957             -10.00      400.00
00958              10.00      400.00
00959               2.00      200.00
00960              -6.00      200.00
00961               0.00      200.00
00962              -2.00        0.00
00963               2.00        0.00
00964               6.00        0.00
00965               0.00     -200.00
00966              -8.00     -400.00
00967              -2.00        0.00
00968               2.00     -400.00
00969              18.00     -400.00
00970             122.00     -400.00
00971             138.00     -600.00
00972            -238.00     -800.00
00973            -270.00     -600.00
00974             134.00     -600.00
00975             230.00     -600.00
00976             174.00    -1000.00
00977            -270.00    -1000.00
00978            -216.00     -800.00
00979             230.00    -1200.00
00980             144.00    -1200.00
00981            -270.00    -1000.00
00982             -56.00    -1200.00
00983             230.00    -1200.00
00984             -14.00    -1600.00
00985             -54.00    -1400.00
00986             -14.00    -1400.00
00987            -164.00    -1600.00
00988              94.00    -1600.00
00989             230.00    -1600.00
00990            -166.00    -1600.00
00991            -222.00    -2000.00
00992             150.00    -1800.00
00993             136.00    -1600.00
00994             -56.00    -2200.00
00995             -88.00    -2200.00
00996             -24.00    -2000.00
00997              56.00    -2200.00
00998              90.00    -2400.00
00999             -70.00    -2000.00
01000             -92.00    -2200.00
01001              64.00    -2600.00
01002              82.00    -2200.00
01003             -46.00    -2400.00
01004             -66.00    -2600.00
01005              54.00    -2600.00
01006              40.00    -2400.00
01007             -38.00    -2800.00
01008             -16.00    -2800.00
01009              24.00    -2800.00
01010             -18.00    -2800.00
01011              24.00    -3000.00
01012              38.00    -3000.00
01013             -54.00    -3000.00
01014             -26.00    -3000.00
01015              62.00    -3000.00
01016               8.00    -3200.00
01017             -34.00    -3200.00
01018              22.00    -3000.00
01019               6.00    -3200.00
01020             -24.00    -3200.00
01021              14.00    -3200.00
01022              16.00    -3200.00
01023              -8.00    -3200.00
01024              18.00    -3200.00
01025               8.00    -3400.00
01026             -26.00    -3600.00
01027               6.00    -3200.00
01028              22.00    -3400.00
01029              -8.00    -3600.00
01030               6.00    -3600.00
01031              16.00    -3600.00
01032             -16.00    -3600.00
01033              -2.00    -3800.00
01034              24.00    -3600.00
01035               0.00    -3800.00
01036              -8.00    -3800.00
01037              26.00    -3600.00
01038               2.00    -3800.00
01039             -18.00    -3800.00
01040              16.00    -3600.00
01041              18.00    -3800.00
01042              -8.00    -3800.00
01043               8.00    -3800.00
01044              18.00    -3800.00
01045              -8.00    -3800.00
01046               2.00    -3800.00
01047              22.00    -3800.00
01048              -2.00    -3800.00
01049              -2.00    -3800.00
01050              22.00    -3800.00
01051              10.00    -4000.00
01052              -2.00    -4000.00
01053               8.00    -4000.00
01054               8.00    -4000.00
01055               2.00    -4000.00
01056              18.00    -3800.00
01057              16.00    -3800.00
01058               0.00    -4000.00
01059              10.00    -4000.00
01060              14.00    -3800.00
01061               2.00    -4000.00
01062              14.00    -3800.00
01063              22.00    -3800.00
01064               8.00    -3800.00
01065               6.00    -4000.00
01066              16.00    -3800.00
01067               8.00    -3800.00
01068               6.00    -3800.00
01069              22.00    -3800.00
01070              16.00    -3800.00
01071              10.00    -3800.00
01072              16.00    -3800.00
01073              16.00    -3800.00
01074               4.00    -3800.00
01075              18.00    -3600.00
01076              24.00    -3600.00
01077              16.00    -3600.00
01078              14.00    -3600.00
01079              16.00    -3600.00
01080              10.00    -3600.00
01081              16.00    -3600.00
01082              18.00    -3400.00
01083              18.00    -3600.00
01084              14.00    -3600.00
01085              16.00    -3600.00
01086              12.00    -3200.00
01087              10.00    -3400.00
01088              14.00    -3400.00
01089              18.00    -3200.00
01090              12.00    -3200.00
01091              16.00    -3200.00
01092              14.00    -3200.00
01093               6.00    -3200.00
01094              10.00    -3000.00
01095              12.00    -3200.00
01096              14.00    -3000.00
01097              10.00    -3000.00
01098              14.00    -3000.00
01099               4.00    -3000.00
01100               6.00    -2800.00
01101              14.00    -3000.00
01102               8.00    -2800.00
01103               6.00    -2800.00
01104              10.00    -2800.00
01105               8.00    -2600.00
01106               2.00    -2600.00
01107               6.00    -2600.00
01108              10.00    -2400.00
01109               6.00    -2400.00
01110               8.00    -2400.00
01111               6.00    -2200.00
01112               2.00    -2400.00
01113               2.00    -2400.00
01114               6.00    -2200.00
01115               6.00    -2200.00
01116               2.00    -2000.00
01117               6.00    -2000.00
01118               2.00    -2000.00
01119               0.00    -2000.00
01120               2.00    -1800.00
01121               2.00    -2000.00
01122               4.00    -1600.00
01123               6.00    -1600.00
01124               4.00    -1600.00
01125               2.00    -1600.00
01126               2.00    -1400.00
01127              -2.00    -1400.00
01128              -2.00    -1400.00
01129               4.00    -1400.00
01130               6.00    -1000.00
01131               2.00    -1000.00
01132              -2.00    -1200.00
01133               0.00    -1000.00
01134               0.00     -800.00
01135               0.00     -800.00
01136               0.00     -800.00
01137               2.00     -800.00
01138               0.00     -600.00
01139              -2.00     -600.00
01140              -2.00     -600.00
01141              -2.00     -400.00
01142              -2.00     -400.00
01143               0.00     -200.00
01144               0.00     -400.00
01145              -2.00     -200.00
01146              -2.00     -200.00
01147              -2.00        0.00
01148               0.00        0.00
01149              -2.00      200.00
01150              -2.00      200.00
01151              -2.00        0.00
01152               6.00      200.00
01153               2.00      200.00
01154               0.00      400.00
01155               6.00      400.00
01156               6.00      400.00
01157              -2.00      600.00
01158              -8.00      400.00
01159              -4.00      800.00
01160              10.00      800.00
01161             122.00     1000.00
01162             184.00     1000.00
01163            -240.00      800.00
01164            -270.00      800.00
01165             128.00     1200.00
01166             230.00     1400.00
01167             208.00     1200.00
01168            -270.00      800.00
01169            -198.00     1600.00
01170             230.00     1600.00
01171              70.00     1200.00
01172            -270.00     1400.00
01173             158.00     2000.00
01174             230.00     1600.00
01175            -270.00     1200.00
01176            -126.00     1800.00
01177             230.00     2200.00
01178            -176.00     1200.00
01179            -126.00     1800.00
01180             230.00     2400.00
01181            -118.00     1800.00
01182            -208.00     1600.00
01183             186.00     2600.00
01184              34.00     2400.00
01185            -130.00     1800.00
01186              84.00     2400.00
01187             -58.00     2800.00
01188             -84.00     2000.00
01189             174.00     2400.00
01190             -40.00     2800.00
01191            -190.00     2400.00
01192             130.00     2400.00
01193              96.00     3000.00
01194            -170.00     2800.00
01195             -16.00     2600.00
01196             136.00     3200.00
01197             -62.00     3000.00
01198            -102.00     2800.00
01199              88.00     3200.00
01200              16.00     3200.00
01201            -122.00     2800.00
01202              70.00     3200.00
01203              74.00     3400.00
01204            -150.00     3200.00
01205              -4.00     3400.00
01206             104.00     3400.00
01207             -74.00     3200.00
01208             -28.00     3400.00
01209              66.00     3600.00
01210             -66.00     3400.00
01211             -34.00     3600.00
01212              58.00     3800.00
01213             -38.00     3600.00
01214             -40.00     3400.00
01215              54.00     4000.00
01216             -18.00     3600.00
01217             -62.00     3600.00
01218              34.00     4000.00
01219               0.00     4000.00
01220             -66.00     3600.00
01221              38.00     4000.00
01222              26.00     4000.00
01223             -82.00     3800.00
01224              -2.00     4000.00
01225              42.00     4000.00
01226             -60.00     4000.00
01227             -22.00     4000.00
01228              48.00     4000.00
01229             -42.00     4000.00
01230             -48.00     4000.00
01231              38.00     4200.00
01232             -14.00     4200.00
01233             -58.00     4000.00
01234              22.00     4200.00
01235               8.00     4200.00
01236             -56.00     4000.00
01237              -2.00     4200.00
01238               8.00     4400.00
01239             -46.00     4200.00
01240             -10.00     4200.00
01241              18.00     4200.00
01242             -34.00     4000.00
01243             -26.00     4200.00
01244              10.00     4400.00
01245             -30.00     4200.00
01246             -26.00     4200.00
01247              14.00     4400.00
01248             -18.00     4200.00
01249             -36.00     4000.00
01250               6.00     4200.00
01251             -16.00     4200.00
01252             -46.00     4200.00
01253               0.00     4200.00
01254               2.00     4200.00
01255             -38.00     4200.00
01256             -16.00     4200.00
01257              -2.00     4200.00
01258             -38.00     4000.00
01259             -24.00     4200.00
01260               2.00     4200.00
01261             -26.00     4000.00
01262             -32.00     4000.00
01263               0.00     4200.00
01264             -22.00     4000.00
01265             -42.00     4000.00
01266              -8.00     4000.00
01267             -12.00     4000.00
01268             -32.00     4000.00
01269             -14.00     4000.00
01270             -14.00     4000.00
01271             -38.00     4000.00
01272             -22.00     4000.00
01273              -6.00     4000.00
01274             -24.00     3800.00
01275             -22.00     3600.00
01276             -10.00     3800.00
01277             -26.00     3800.00
01278             -26.00     3600.00
01279             -10.00     3800.00
01280             -18.00     3600.00
01281             -26.00     3600.00
01282             -10.00     3600.00
01283             -16.00     3600.00
01284             -26.00     3600.00
01285             -16.00     3600.00
01286             -16.00     3400.00
01287             -24.00     3400.00
01288             -10.00     3400.00
01289             -10.00     3400.00
01290             -26.00     3400.00
01291             -26.00     3200.00
01292             -10.00     3200.00
01293             -20.00     3200.00
01294             -18.00     3200.00
01295              -8.00     3200.00
01296             -18.00     3000.00
01297             -26.00     3000.00
01298             -10.00     2800.00
01299             -14.00     2800.00
01300             -18.00     2600.00
01301             -14.00     2800.00
01302             -10.00     2800.00
01303             -22.00     2600.00
01304             -14.00     2600.00
01305             -14.00     2600.00
01306             -14.00     2600.00
01307             -14.00     2400.00
01308              -8.00     2400.00
01309             -16.00     2400.00
01310             -14.00     2200.00
01311             -10.00     2200.00
01312             -14.00     2000.00
01313             -16.00     2000.00
01314              -6.00     2000.00
01315             -10.00     1800.00
01316             -14.00     2000.00
01317              -8.00     1800.00
01318             -10.00     1800.00
01319             -14.00     1600.00
01320              -4.00     1600.00
01321              -2.00     1600.00
01322             -10.00     1600.00
01323             -10.00     1600.00
01324              -8.00     1400.00
01325             -10.00     1200.00
01326             -10.00     1200.00
01327              -2.00     1200.00
01328              -4.00     1000.00
01329              -8.00     1000.00
01330              -6.00     1000.00
01331              -6.00     1200.00
01332              -8.00     1000.00
01333              -2.00      800.00
01334              -2.00      800.00
01335              -6.00      600.00
01336              -6.00      800.00
01337              -6.00      600.00
01338              -6.00      600.00
01339              -2.00      400.00
01340               0.00      400.00
01341              -8.00      400.00
01342              -8.00      200.00
01343               2.00      200.00
01344               2.00      200.00
01345              -2.00      200.00
01346               2.00        0.00
01347               8.00        0.00
01348               0.00        0.00
01349              -6.00     -200.00
01350              -2.00        0.00
01351               0.00     -400.00
01352              18.00     -400.00
01353             102.00     -400.00
01354             152.00     -600.00
01355            -144.00     -800.00
01356            -270.00     -600.00
01357             -40.00     -400.00
01358             230.00     -600.00
01359             230.00    -1200.00
01360            -270.00    -1000.00
01361            -270.00     -800.00
01362             230.00    -1000.00
01363             230.00    -1200.00
01364            -270.00    -1000.00
01365            -210.00    -1000.00
01366             230.00    -1200.00
01367              26.00    -1400.00
01368             -62.00    -1400.00
01369              18.00    -1400.00
01370            -160.00    -1400.00
01371              10.00    -1800.00
01372             230.00    -1600.00
01373             -80.00    -1600.00
01374            -258.00    -2000.00
01375              82.00    -1600.00
01376             178.00    -1800.00
01377             -38.00    -2200.00
01378             -98.00    -2200.00
01379             -30.00    -1800.00
01380              38.00    -2000.00
01381             104.00    -2400.00
01382             -40.00    -2200.00
01383            -110.00    -2200.00
01384              26.00    -2400.00
01385             104.00    -2400.00
01386             -22.00    -2400.00
01387             -82.00    -2600.00
01388              24.00    -2600.00
01389              56.00    -2400.00
01390             -22.00    -2800.00
01391             -26.00    -2800.00
01392              24.00    -2800.00
01393             -18.00    -2800.00
01394               6.00    -3000.00
01395              48.00    -2800.00
01396             -32.00    -3000.00
01397             -42.00    -3000.00
01398              58.00    -3000.00
01399              22.00    -3000.00
01400             -42.00    -3200.00
01401              18.00    -3200.00
01402              24.00    -3200.00
01403             -22.00    -3200.00
01404               0.00    -3200.00
01405              12.00    -3200.00
01406             -10.00    -3200.00
01407              22.00    -3400.00
01408              26.00    -3400.00
01409             -24.00    -3200.00
01410             -10.00    -3400.00
01411              22.00    -3400.00
01412               2.00    -3400.00
01413               8.00    -3600.00
01414              26.00    -3600.00
01415             -14.00    -3600.00
01416             -16.00    -3600.00
01417              22.00    -3600.00
01418               8.00    -3600.00
01419              -8.00    -3600.00
01420              22.00    -3800.00
01421              10.00    -3800.00
01422             -18.00    -3800.00
01423               8.00    -3800.00
01424              22.00    -3600.00
01425              -8.00    -3800.00
01426               0.00    -3800.00
01427              18.00    -3800.00
01428              -2.00    -3800.00
01429              -6.00    -3800.00
01430              18.00    -3800.00
01431               8.00    -3800.00
01432              -2.00    -4000.00
01433              14.00    -3800.00
01434              10.00    -3800.00
01435              -2.00    -4000.00
01436              10.00    -4000.00
01437              14.00    -3800.00
01438               0.00    -3800.00
01439               8.00    -4000.00
01440              14.00    -3800.00
01441               6.00    -3800.00
01442              10.00    -3800.00
01443              16.00    -4000.00
01444               2.00    -3800.00
01445               6.00    -3800.00
01446              22.00    -3800.00
01447              10.00    -3800.00
01448               4.00    -3600.00
01449              16.00    -3800.00
01450              14.00    -3800.00
01451               4.00    -3800.00
01452              18.00    -3800.00
01453              18.00    -3800.00
01454              12.00    -3800.00
01455              14.00    -3800.00
01456              20.00    -3800.00
01457               6.00    -3600.00
01458               8.00    -3800.00
01459              22.00    -3800.00
01460              18.00    -3600.00
01461              14.00    -3600.00
01462              16.00    -3600.00
01463              10.00    -3600.00
01464               8.00    -3600.00
01465              18.00    -3600.00
01466              22.00    -3600.00
01467              16.00    -3200.00
01468              16.00    -3200.00
01469              14.00    -3200.00
01470               6.00    -3400.00
01471              10.00    -3200.00
01472              22.00    -3200.00
01473              16.00    -3200.00
01474              14.00    -3200.00
01475              14.00    -3200.00
01476               8.00    -3000.00
01477               8.00    -3200.00
01478              16.00    -3000.00
01479              16.00    -3000.00
01480              10.00    -3000.00
01481              10.00    -3000.00
01482              10.00    -3000.00
01483              10.00    -2800.00
01484              12.00    -2800.00
01485               8.00    -2800.00
01486               6.00    -2800.00
01487              12.00    -2800.00
01488              14.00    -2800.00
01489               2.00    -2600.00
01490               0.00    -2400.00
01491              10.00    -2600.00
01492               8.00    -2600.00
01493               6.00    -2400.00
01494               6.00    -2400.00
01495               4.00    -2400.00
01496               0.00    -2200.00
01497               2.00    -2200.00
01498               2.00    -2000.00
01499               2.00    -2000.00
01500              10.00    -2000.00
01501               6.00    -2000.00
01502               0.00    -2000.00
01503               0.00    -2000.00
01504               2.00    -1800.00
01505               2.00    -1600.00
01506               6.00    -1600.00
01507               2.00    -1600.00
01508              -2.00    -1600.00
01509               0.00    -1600.00
01510               2.00    -1400.00
01511               4.00    -1400.00
01512               2.00    -1200.00
01513               2.00    -1200.00
01514              -2.00    -1000.00
01515               0.00    -1000.00
01516               6.00     -800.00
01517               2.00    -1000.00
01518              -2.00     -800.00
01519              -2.00     -800.00
01520              -2.00     -800.00
01521              -2.00     -800.00
01522               0.00     -600.00
01523               2.00     -600.00
01524               2.00     -600.00
01525              -8.00     -400.00
01526              -6.00     -400.00
01527               2.00     -400.00
01528               6.00     -400.00
01529               0.00     -200.00
01530             -10.00        0.00
01531             -10.00     -200.00
01532               2.00        0.00
01533               6.00      200.00
01534               2.00        0.00
01535              -2.00      200.00
01536              -6.00      200.00
01537              -2.00      400.00
01538              10.00      400.00
01539              10.00      400.00
01540              -8.00      400.00
01541             -10.00      600.00
01542               6.00      400.00
01543              10.00      800.00
01544              86.00      800.00
01545             194.00     1000.00
01546            -114.00     1000.00
01547            -270.00      800.00
01548             -62.00     1000.00
01549             230.00     1200.00
01550             230.00     1200.00
01551            -270.00      800.00
01552            -270.00     1600.00
01553             230.00     1600.00
01554             230.00     1200.00
01555            -270.00     1200.00
01556             -58.00     1800.00
01557             230.00     1600.00
01558            -208.00     1200.00
01559            -254.00     1800.00
01560             230.00     2200.00
01561             -72.00     1600.00
01562            -200.00     1800.00
01563             230.00     2400.00
01564             -10.00     2000.00
01565            -264.00     1600.00
01566             126.00     2400.00
01567             114.00     2600.00
01568            -146.00     1800.00
01569              50.00     2400.00
01570             -12.00     2800.00
01571            -122.00     2200.00
01572             144.00     2400.00
01573              32.00     2800.00
01574            -214.00     2400.00
01575              70.00     2400.00
01576             146.00     2800.00
01577            -150.00     2800.00
01578             -72.00     2400.00
01579             144.00     3000.00
01580             -10.00     3200.00
01581            -128.00     2600.00
01582              50.00     3200.00
01583              62.00     3200.00
01584            -118.00     2800.00
01585              18.00     3200.00
01586             106.00     3400.00
01587            -120.00     3200.00
01588             -50.00     3200.00
01589             114.00     3600.00
01590             -46.00     3200.00
01591             -58.00     3400.00
01592              64.00     3600.00
01593             -42.00     3600.00
01594             -50.00     3400.00
01595              62.00     3800.00
01596             -16.00     3600.00
01597             -64.00     3400.00
01598              40.00     3800.00
01599               8.00     3800.00
01600             -66.00     3600.00
01601              18.00     3800.00
01602              24.00     4000.00
01603             -66.00     3600.00
01604               8.00     4000.00
01605              42.00     4000.00
01606             -66.00     4000.00
01607             -24.00     4000.00
01608              54.00     4000.00
01609             -42.00     4000.00
01610             -42.00     4000.00
01611              46.00     4000.00
01612             -18.00     4000.00
01613             -62.00     4000.00
01614              26.00     4000.00
01615               8.00     4200.00
01616             -62.00     4000.00
01617               6.00     4200.00
01618              24.00     4200.00
01619             -48.00     4200.00
01620             -16.00     4200.00
01621              18.00     4200.00
01622             -42.00     4000.00
01623             -26.00     4000.00
01624              24.00     4200.00
01625             -22.00     4200.00
01626             -38.00     4000.00
01627               6.00     4200.00
01628             -18.00     4200.00
01629             -40.00     4200.00
01630               8.00     4400.00
01631              -6.00     4200.00
01632             -40.00     4000.00
01633              -4.00     4200.00
01634             -10.00     4400.00
01635             -46.00     4200.00
01636             -14.00     4200.00
01637               8.00     4200.00
01638             -34.00     4200.00
01639             -26.00     4200.00
01640               0.00     4200.00
01641             -32.00     4200.00
01642             -32.00     4200.00
01643               2.00     4000.00
01644             -18.00     4200.00
01645             -34.00     4000.00
01646              -6.00     4200.00
01647             -16.00     4200.00
01648             -42.00     4000.00
01649             -16.00     4000.00
01650              -6.00     4000.00
01651             -32.00     4000.00
01652             -24.00     4000.00
01653             -10.00     4000.00
01654             -30.00     4000.00
01655             -24.00     3800.00
01656              -8.00     4000.00
01657             -22.00     3800.00
01658             -26.00     3800.00
01659             -14.00     4000.00
01660             -18.00     3800.00
01661             -26.00     3800.00
01662             -12.00     3800.00
01663             -18.00     3600.00
01664             -26.00     3800.00
01665             -14.00     3600.00
01666             -14.00     3600.00
01667             -26.00     3600.00
01668             -20.00     3400.00
01669             -14.00     3400.00
01670             -26.00     3400.00
01671             -16.00     3600.00
01672              -8.00     3200.00
01673             -22.00     3400.00
01674             -24.00     3200.00
01675             -12.00     3200.00
01676             -16.00     3000.00
01677             -20.00     3200.00
01678              -8.00     3200.00
01679             -10.00     3200.00
01680             -24.00     3000.00
01681             -14.00     3000.00
01682             -10.00     2800.00
01683             -16.00     2800.00
01684             -16.00     2800.00
01685             -10.00     2800.00
01686             -16.00     2600.00
01687             -16.00     2600.00
01688             -14.00     2600.00
01689             -16.00     2600.00
01690             -14.00     2400.00
01691              -2.00     2400.00
01692             -14.00     2400.00
01693             -16.00     2400.00
01694             -14.00     2000.00
01695             -12.00     2200.00
01696             -14.00     2000.00
01697              -4.00     2000.00
01698             -10.00     1800.00
01699             -14.00     1800.00
01700             -10.00     1800.00
01701             -10.00     1800.00
01702             -10.00     1600.00
01703              -8.00     1600.00
01704              -6.00     1600.00
01705             -14.00     1600.00
01706             -10.00     1600.00
01707              -8.00     1200.00
01708              -8.00     1400.00
01709             -10.00     1200.00
01710              -4.00     1000.00
01711              -4.00     1200.00
01712              -8.00     1000.00
01713              -6.00     1000.00
01714              -2.00     1000.00
01715              -8.00      800.00
01716              -8.00      800.00
01717              -6.00      800.00
01718              -6.00      800.00
01719              -2.00      800.00
01720              -2.00      800.00
01721              -6.00      600.00
01722              -6.00      400.00
01723              -2.00      400.00
01724              -6.00      200.00
01725              -2.00      200.00
01726              -4.00      200.00
01727               0.00      200.00
01728               4.00      200.00
01729               8.00        0.00
01730               8.00        0.00
01731              -4.00        0.00
01732             -18.00     -200.00
01733              -6.00        0.00
01734              10.00     -200.00
01735              22.00     -400.00
01736              74.00     -400.00
01737             158.00     -600.00
01738             -54.00     -800.00
01739            -270.00     -800.00
01740            -206.00     -400.00
01741             230.00     -600.00
01742             230.00     -800.00
01743            -270.00    -1200.00
01744            -270.00     -800.00
01745             230.00    -1000.00
01746             230.00    -1200.00
01747            -270.00    -1200.00
01748            -270.00    -1000.00
01749             230.00    -1200.00
01750              88.00    -1600.00
01751             -80.00    -1600.00
01752              18.00    -1400.00
01753            -120.00    -1600.00
01754             -58.00    -1600.00
01755             230.00    -1600.00
01756              18.00    -1600.00
01757            -270.00    -1800.00
01758              -2.00    -2000.00
01759             214.00    -1600.00
01760              -2.00    -2200.00
01761             -98.00    -2200.00
01762             -40.00    -2000.00
01763              14.00    -2200.00
01764              98.00    -2400.00
01765              -4.00    -2200.00
01766            -106.00    -2200.00
01767              -6.00    -2600.00
01768             110.00    -2400.00
01769               0.00    -2200.00
01770             -82.00    -2600.00
01771               0.00    -2800.00
01772              66.00    -2400.00
01773              -8.00    -2800.00
01774             -38.00    -2800.00
01775              24.00    -2600.00
01776             -10.00    -2800.00
01777              -6.00    -3000.00
01778              54.00    -3000.00
01779             -14.00    -2800.00
01780             -64.00    -2800.00
01781              42.00    -3000.00
01782              40.00    -3000.00
01783             -42.00    -3200.00
01784               6.00    -3000.00
01785              36.00    -3200.00
01786             -26.00    -3200.00
01787             -14.00    -3200.00
01788              32.00    -3200.00
01789              -2.00    -3200.00
01790               6.00    -3400.00
01791              18.00    -3200.00
01792             -18.00    -3600.00
01793              -6.00    -3600.00
01794              32.00    -3200.00
01795               0.00    -3600.00
01796              -8.00    -3600.00
01797              28.00    -3600.00
01798               2.00    -3600.00
01799             -22.00    -3600.00
01800              16.00    -3600.00
01801              10.00    -3600.00
01802             -12.00    -3600.00
01803              26.00    -3600.00
01804              24.00    -3600.00
01805             -26.00    -3600.00
01806              -6.00    -3800.00
01807              32.00    -3800.00
01808               6.00    -3800.00
01809               0.00    -3800.00
01810              16.00    -3800.00
01811              -2.00    -3800.00
01812              -2.00    -3800.00
01813              24.00    -3800.00
01814               8.00    -4000.00
01815             -18.00    -3800.00
01816              10.00    -3800.00
01817              24.00    -3800.00
01818               6.00    -3800.00
01819               6.00    -4000.00
01820               6.00    -3800.00
01821              -6.00    -4000.00
01822              14.00    -4000.00
01823              24.00    -3800.00
01824               0.00    -3800.00
01825               0.00    -3800.00
01826              16.00    -4000.00
01827               8.00    -3800.00
01828               2.00    -3800.00
01829              16.00    -3800.00
01830               8.00    -3800.00
01831               4.00    -3800.00
01832              22.00    -3800.00
01833              14.00    -3600.00
01834              -8.00    -3800.00
01835              10.00    -3800.00
01836              22.00    -3800.00
01837              14.00    -4000.00
01838              14.00    -3800.00
01839              16.00    -3600.00
01840               0.00    -3800.00
01841              10.00    -3800.00
01842              26.00    -3600.00
01843              16.00    -3800.00
01844               6.00    -3600.00
01845              14.00    -3600.00
01846              16.00    -3600.00
01847              12.00    -3600.00
01848              16.00    -3400.00
01849              22.00    -3600.00
01850               2.00    -3600.00
01851              16.00    -3400.00
01852              26.00    -3400.00
01853               8.00    -3400.00
01854               8.00    -3200.00
01855              18.00    -3400.00
01856               8.00    -3200.00
01857              10.00    -3200.00
01858              24.00    -3200.00
01859              10.00    -3200.00
01860               2.00    -3200.00
01861              18.00    -3200.00
01862              12.00    -3000.00
01863               6.00    -3000.00
01864              22.00    -3000.00
01865               8.00    -3000.00
01866              -2.00    -3000.00
01867              16.00    -3000.00
01868              18.00    -2800.00
01869              -2.00    -2800.00
01870               8.00    -2800.00
01871              16.00    -2800.00
01872               6.00    -2600.00
01873               6.00    -2600.00
01874              12.00    -2400.00
01875               0.00    -2400.00
01876               0.00    -2400.00
01877              16.00    -2400.00
01878               6.00    -2400.00
01879              -6.00    -2200.00
01880               6.00    -2200.00
01881               6.00    -2200.00
01882              -2.00    -2200.00
01883              12.00    -2000.00
01884               8.00    -2000.00
01885              -6.00    -2000.00
01886              -2.00    -1800.00
01887               2.00    -2000.00
01888               0.00    -1800.00
01889               6.00    -1800.00
01890              10.00    -1600.00
01891              -4.00    -1600.00
01892              -8.00    -1600.00
01893               4.00    -1400.00
01894               0.00    -1400.00
01895              -2.00    -1400.00
01896               8.00    -1400.00
01897               2.00    -1200.00
01898             -10.00    -1000.00
01899               0.00    -1000.00
01900               2.00    -1000.00
01901              -2.00     -800.00
01902               2.00     -800.00
01903               6.00     -800.00
01904              -2.00     -800.00
01905              -2.00     -600.00
01906               2.00     -600.00
01907              -6.00     -600.00
01908              -8.00     -600.00
01909               2.00     -400.00
01910               4.00     -400.00
01911              -2.00     -400.00
01912              -2.00     -200.00
01913             -10.00        0.00
01914             -10.00        0.00
01915               8.00        0.00
01916              10.00        0.00
01917              -8.00      200.00
01918             -10.00        0.00
01919               2.00      400.00
01920               6.00      200.00
01921              14.00      400.00
01922              10.00      400.00
01923             -12.00      400.00
01924             -18.00      400.00
01925               6.00      600.00
01926              16.00      800.00
01927              64.00      800.00
01928             198.00     1000.00
01929             -10.00      800.00
01930            -270.00      800.00
01931            -258.00      800.00
01932             230.00     1200.00
01933             230.00     1200.00
01934            -270.00      800.00
01935            -270.00     1200.00
01936             230.00     1800.00
01937             230.00     1400.00
01938            -270.00     1000.00
01939            -270.00     1800.00
01940             230.00     1800.00
01941             -58.00     1200.00
01942            -270.00     1600.00
01943             230.00     2000.00
01944              38.00     1600.00
01945            -258.00     1400.00
01946             176.00     2000.00
01947             104.00     2000.00
01948            -268.00     1600.00
01949              64.00     2000.00
01950             176.00     2600.00
01951            -146.00     2000.00
01952              -2.00     2000.00
01953              26.00     2800.00
01954            -124.00     2400.00
01955             122.00     2000.00
01956              94.00     2800.00
01957            -236.00     2800.00
01958             -16.00     2200.00
01959             194.00     2800.00
01960             -70.00     2800.00
01961            -102.00     2600.00
01962             104.00     2800.00
01963              -6.00     3200.00
01964            -146.00     2800.00
01965              34.00     3200.00
01966             118.00     3200.00
01967            -102.00     3000.00
01968             -44.00     3200.00
01969             102.00     3400.00
01970             -74.00     3200.00
01971             -80.00     3000.00
01972             112.00     3400.00
01973             -18.00     3400.00
01974             -90.00     3200.00
01975              60.00     3600.00
01976              -6.00     3600.00
01977             -66.00     3400.00
01978              42.00     3600.00
01979              -2.00     3600.00
01980             -72.00     3400.00
01981              34.00     3600.00
01982              32.00     3800.00
01983             -64.00     3600.00
01984               0.00     3600.00
01985              32.00     4000.00
01986             -66.00     3600.00
01987             -14.00     3800.00
01988              60.00     4000.00
01989             -46.00     4000.00
01990             -42.00     3800.00
01991              46.00     4000.00
01992             -32.00     4000.00
01993             -58.00     4000.00
01994              42.00     4000.00
01995              10.00     4200.00
01996             -58.00     4000.00
01997              14.00     4000.00
01998              14.00     4200.00
01999             -70.00     4000.00
02000             -10.00     4200.00
02001              42.00     4200.00
02002             -32.00     4000.00
02003             -26.00     4200.00
02004              16.00     4400.00
02005             -38.00     4200.00
02006             -36.00     4000.00
02007              24.00     4200.00
02008             -12.00     4200.00
02009             -42.00     4200.00
02010               0.00     4400.00
02011             -16.00     4200.00
02012             -40.00     4200.00
02013               0.00     4200.00
02014               2.00     4400.00
02015             -40.00     4200.00
02016             -10.00     4200.00
02017               2.00     4400.00
02018             -42.00     4200.00
02019             -24.00     4200.00
02020               6.00     4200.00
02021             -32.00     4200.00
02022             -30.00     4200.00
02023               4.00     4200.00
02024             -24.00     4200.00
02025             -42.00     4200.00
02026              -6.00     4000.00
02027             -14.00     4200.00
02028             -40.00     4000.00
02029             -10.00     4000.00
02030             -10.00     4200.00
02031             -40.00     4000.00
02032             -22.00     4200.00
02033              -8.00     4000.00
02034             -32.00     4000.00
02035             -24.00     4000.00
02036              -4.00     4000.00
02037             -26.00     4000.00
02038             -36.00     4000.00
02039             -16.00     4000.00
02040             -18.00     4000.00
02041             -26.00     3800.00
02042             -10.00     3600.00
02043             -18.00     3600.00
02044             -34.00     3600.00
02045             -16.00     3600.00
02046             -10.00     3800.00
02047             -24.00     3600.00
02048             -18.00     3600.00
02049             -16.00     3600.00
02050             -32.00     3600.00
02051             -26.00     3400.00
02052              -6.00     3400.00
02053             -16.00     3400.00
02054             -24.00     3400.00
02055              -8.00     3400.00
02056             -18.00     3400.00
02057             -32.00     3200.00
02058             -10.00     3200.00
02059              -6.00     3200.00
02060             -22.00     3200.00
02061              -8.00     3000.00
02062              -8.00     3200.00
02063             -32.00     3200.00
02064             -16.00     2800.00
02065               6.00     2800.00
02066             -22.00     2800.00
02067             -26.00     2800.00
02068              -6.00     2800.00
02069              -8.00     2600.00
02070             -16.00     2600.00
02071             -14.00     2600.00
02072             -16.00     2400.00
02073             -16.00     2400.00
02074               6.00     2400.00
02075              -6.00     2400.00
02076             -24.00     2200.00
02077             -16.00     2200.00
02078              -8.00     2000.00
02079             -14.00     2000.00
02080              -8.00     2000.00
02081              -2.00     2000.00
02082             -16.00     2000.00
02083              -8.00     1800.00
02084               6.00     1800.00
02085             -14.00     1600.00
02086             -26.00     1600.00
02087              -8.00     1600.00
02088               0.00     1600.00
02089               0.00     1400.00
02090               0.00     1400.00
02091             -16.00     1200.00
02092             -26.00     1400.00
02093              -8.00     1200.00
02094               8.00     1200.00
02095              -2.00     1000.00
02096             -10.00     1000.00
02097              -8.00     1000.00
02098             -14.00     1000.00
02099              -8.00      800.00
02100               2.00      800.00
02101              -2.00      600.00
02102              -8.00      800.00
02103              -4.00      800.00
02104              -6.00      400.00
02105              -8.00      400.00
02106               0.00      400.00
02107              -2.00      400.00
02108             -14.00      400.00
02109               0.00      200.00
02110               6.00      200.00
02111              -2.00      200.00
02112              -2.00        0.00
02113              10.00        0.00
02114               6.00        0.00
02115              -8.00        0.00
02116              -8.00        0.00
02117              -2.00        0.00
02118              10.00     -400.00
02119              62.00     -200.00
02120             166.00     -600.00
02121              22.00     -600.00
02122            -270.00     -800.00
02123            -270.00     -600.00
02124             230.00     -600.00
02125             230.00     -800.00
02126            -270.00    -1200.00
02127            -270.00     -800.00
02128             230.00     -800.00
02129             230.00    -1000.00
02130            -270.00    -1200.00
02131            -270.00    -1000.00
02132             224.00    -1200.00
02133             162.00    -1400.00
02134             -70.00    -1400.00
02135               6.00    -1400.00
02136             -80.00    -1600.00
02137            -118.00    -1600.00
02138             224.00    -1600.00
02139             116.00    -1400.00
02140            -266.00    -2000.00
02141             -82.00    -2000.00
02142             224.00    -1600.00
02143              38.00    -2200.00
02144             -98.00    -2200.00
02145             -58.00    -2200.00
02146               0.00    -2000.00
02147              98.00    -2400.00
02148              34.00    -2200.00
02149            -106.00    -2000.00
02150             -50.00    -2600.00
02151             102.00    -2400.00
02152              34.00    -2200.00
02153             -68.00    -2400.00
02154             -28.00    -2600.00
02155              70.00    -2400.00
02156               0.00    -2600.00
02157             -42.00    -2800.00
02158              18.00    -2800.00
02159              -2.00    -2800.00
02160             -18.00    -3000.00
02161              46.00    -3000.00
02162               6.00    -2800.00
02163             -70.00    -3000.00
02164              24.00    -3000.00
02165              56.00    -3000.00
02166             -26.00    -3200.00
02167             -16.00    -3200.00
02168              34.00    -3000.00
02169             -14.00    -3200.00
02170             -16.00    -3200.00
02171              24.00    -3200.00
02172               0.00    -3400.00
02173               0.00    -3400.00
02174              22.00    -3200.00
02175             -10.00    -3400.00
02176             -20.00    -3600.00
02177              26.00    -3200.00
02178              14.00    -3600.00
02179             -12.00    -3600.00
02180              16.00    -3600.00
02181               6.00    -3600.00
02182             -16.00    -3600.00
02183              16.00    -3600.00
02184              16.00    -3600.00
02185             -16.00    -3800.00
02186              10.00    -3800.00
02187              30.00    -3600.00
02188             -10.00    -3800.00
02189              -8.00    -3800.00
02190              24.00    -3600.00
02191               0.00    -3800.00
02192              -6.00    -3800.00
02193              24.00    -3800.00
02194              14.00    -3800.00
02195             -10.00    -3800.00
02196              10.00    -3800.00
02197              14.00    -4000.00
02198              -4.00    -3800.00
02199              12.00    -3800.00
02200              22.00    -3800.00
02201              -2.00    -4000.00
02202              -2.00    -3800.00
02203              10.00    -3800.00
02204               6.00    -3800.00
02205               8.00    -4000.00
02206              18.00    -3800.00
02207               6.00    -3800.00
02208               2.00    -4000.00
02209              12.00    -3800.00
02210               6.00    -3800.00
02211               2.00    -4000.00
02212              18.00    -3800.00
02213              16.00    -3800.00
02214               2.00    -3800.00
02215              10.00    -3800.00
02216              16.00    -4000.00
02217               4.00    -3800.00
02218              10.00    -3800.00
02219              22.00    -3800.00
02220               8.00    -3800.00
02221               8.00    -3600.00
02222              18.00    -3800.00
02223              10.00    -3800.00
02224               4.00    -3800.00
02225              18.00    -3600.00
02226              16.00    -3600.00
02227              10.00    -3600.00
02228              16.00    -3600.00
02229              14.00    -3600.00
02230               6.00    -3600.00
02231              16.00    -3600.00
02232              16.00    -3600.00
02233              14.00    -3400.00
02234              14.00    -3600.00
02235              16.00    -3400.00
02236              10.00    -3400.00
02237              10.00    -3400.00
02238              18.00    -3200.00
02239              16.00    -3200.00
02240              14.00    -3200.00
02241              16.00    -3200.00
02242              14.00    -3200.00
02243               8.00    -3200.00
02244              14.00    -3200.00
02245              14.00    -2800.00
02246              10.00    -3000.00
02247              14.00    -2800.00
02248              10.00    -3000.00
02249               6.00    -3000.00
02250               8.00    -2800.00
02251              16.00    -2800.00
02252               8.00    -2800.00
02253               8.00    -2800.00
02254               8.00    -2600.00
02255               6.00    -2600.00
02256               6.00    -2400.00
02257              10.00    -2400.00
02258               8.00    -2400.00
02259               6.00    -2400.00
02260              10.00    -2400.00
02261              10.00    -2400.00
02262               2.00    -2200.00
02263               6.00    -2200.00
02264               6.00    -2200.00
02265               4.00    -2200.00
02266               6.00    -2000.00
02267               6.00    -2000.00
02268               2.00    -2000.00
02269               2.00    -2000.00
02270               6.00    -2000.00
02271               2.00    -1600.00
02272               2.00    -1600.00
02273               4.00    -1600.00
02274               0.00    -1600.00
02275              -2.00    -1600.00
02276               2.00    -1400.00
02277               2.00    -1400.00
02278               0.00    -1400.00
02279               6.00    -1000.00
02280               2.00    -1200.00
02281              -2.00    -1000.00
02282              -2.00    -1000.00
02283               0.00    -1000.00
02284              -2.00    -1000.00
02285               0.00     -800.00
02286               6.00     -800.00
02287               0.00     -800.00
02288              -6.00     -800.00
02289              -2.00     -600.00
02290               0.00     -400.00
02291              -2.00     -400.00
02292               0.00     -400.00
02293              -2.00     -400.00
02294              -6.00     -400.00
02295              -2.00     -200.00
02296               0.00     -200.00
02297              -2.00        0.00
02298              -2.00        0.00
02299               0.00        0.00
02300              -2.00        0.00
02301               0.00      200.00
02302               2.00      200.00
02303              -2.00      200.00
02304              -2.00      400.00
02305              10.00      400.00
02306               6.00      400.00
02307              -6.00      400.00
02308              -6.00      600.00
02309              -4.00      800.00
02310              36.00      800.00
02311             184.00     1000.00
02312              82.00     1000.00
02313            -270.00      800.00
02314            -270.00      800.00
02315             230.00     1200.00
02316             230.00     1600.00
02317            -270.00      800.00
02318            -270.00     1000.00
02319             230.00     1800.00
02320             230.00     1400.00
02321            -270.00     1000.00
02322            -270.00     1600.00
02323             230.00     1800.00
02324             122.00     1200.00
02325            -270.00     1200.00
02326             144.00     2000.00
02327             150.00     1800.00
02328            -258.00     1400.00
02329              96.00     2000.00
02330             208.00     2400.00
02331            -266.00     1600.00
02332             -46.00     2000.00
02333             210.00     2600.00
02334            -104.00     2000.00
02335             -34.00     2000.00
02336              70.00     2800.00
02337            -128.00     2400.00
02338              38.00     2000.00
02339             142.00     2600.00
02340            -176.00     2800.00
02341             -70.00     2200.00
02342             192.00     2600.00
02343             -42.00     3000.00
02344            -154.00     2600.00
02345              88.00     2800.00
02346              78.00     3200.00
02347            -126.00     2800.00
02348             -38.00     2800.00
02349             104.00     3400.00
02350             -66.00     3000.00
02351             -66.00     2800.00
02352             114.00     3400.00
02353             -32.00     3200.00
02354            -134.00     3000.00
02355              82.00     3600.00
02356              36.00     3400.00
02357             -96.00     3200.00
02358              38.00     3600.00
02359              14.00     3400.00
02360             -90.00     3200.00
02361              18.00     3600.00
02362              38.00     3600.00
02363             -64.00     3600.00
02364               8.00     3600.00
02365              40.00     3800.00
02366             -66.00     3600.00
02367             -32.00     3800.00
02368              54.00     4000.00
02369             -34.00     3800.00
02370             -40.00     3600.00
02371              54.00     4000.00
02372             -30.00     4000.00
02373             -68.00     3600.00
02374              42.00     4000.00
02375               4.00     4000.00
02376             -64.00     3800.00
02377              24.00     4000.00
02378              22.00     4200.00
02379             -72.00     4000.00
02380             -10.00     4000.00
02381              40.00     4200.00
02382             -42.00     4000.00
02383             -28.00     4000.00
02384              32.00     4200.00
02385             -38.00     4200.00
02386             -48.00     4000.00
02387              32.00     4200.00
02388               0.00     4200.00
02389             -42.00     4200.00
02390               0.00     4200.00
02391             -10.00     4200.00
02392             -42.00     4200.00
02393               6.00     4400.00
02394              14.00     4200.00
02395             -42.00     4200.00
02396             -20.00     4200.00
02397               2.00     4400.00
02398             -32.00     4400.00
02399             -16.00     4200.00
02400              10.00     4200.00
02401             -40.00     4200.00
02402             -40.00     4200.00
02403              10.00     4200.00
02404             -10.00     4200.00
02405             -38.00     4200.00
02406              -8.00     4200.00
02407             -18.00     4200.00
02408             -44.00     4200.00
02409              -6.00     4200.00
02410               2.00     4200.00
02411             -40.00     4000.00
02412             -26.00     4000.00
02413              -8.00     4200.00
02414             -36.00     4000.00
02415             -26.00     4000.00
02416               0.00     4000.00
02417             -24.00     4000.00
02418             -36.00     3800.00
02419             -10.00     4000.00
02420             -24.00     4000.00
02421             -38.00     4000.00
02422             -12.00     4000.00
02423             -10.00     4000.00
02424             -28.00     3800.00
02425             -20.00     4000.00
02426             -16.00     3600.00
02427             -32.00     3600.00
02428             -20.00     3600.00
02429             -10.00     3600.00
02430             -26.00     3400.00
02431             -22.00     3600.00
02432             -12.00     3600.00
02433             -26.00     3600.00
02434             -26.00     3600.00
02435              -8.00     3600.00
02436             -16.00     3400.00
02437             -20.00     3200.00
02438              -8.00     3200.00
02439             -18.00     3200.00
02440             -30.00     3200.00
02441             -14.00     3200.00
02442              -8.00     3200.00
02443             -22.00     3200.00
02444             -10.00     3200.00
02445              -8.00     3000.00
02446             -22.00     3000.00
02447             -20.00     2800.00
02448              -8.00     2800.00
02449             -10.00     2800.00
02450             -12.00     2800.00
02451             -10.00     2800.00
02452             -16.00     2600.00
02453             -18.00     2800.00
02454              -6.00     2600.00
02455              -4.00     2600.00
02456             -10.00     2400.00
02457             -14.00     2400.00
02458             -16.00     2400.00
02459             -10.00     2400.00
02460              -6.00     2400.00
02461              -6.00     2200.00
02462             -10.00     2000.00
02463             -10.00     2000.00
02464             -14.00     2000.00
02465              -8.00     2000.00
02466              -2.00     1800.00
02467              -6.00     1800.00
02468             -16.00     1800.00
02469             -16.00     1600.00
02470              -2.00     1600.00
02471               0.00     1600.00
02472             -10.00     1600.00
02473             -10.00     1600.00
02474             -10.00     1200.00
02475             -10.00     1400.00
02476              -2.00     1200.00
02477              -2.00     1200.00
02478             -10.00     1000.00
02479             -10.00     1200.00
02480              -2.00     1000.00
02481              -8.00      800.00
02482              -8.00     1000.00
02483              -6.00      800.00
02484              -4.00      800.00
02485              -2.00      600.00
02486              -8.00      800.00
02487             -14.00      400.00
02488             -10.00      400.00
02489              -2.00      400.00
02490               2.00      400.00
02491              -2.00      200.00
02492             -10.00      200.00
02493              -6.00      200.00
02494               0.00      200.00
02495               6.00        0.00
02496              10.00        0.00
02497               6.00        0.00
02498             -10.00     -200.00
02499             -12.00     -200.00
02500               0.00     -400.00
02501              10.00     -400.00
02502              40.00     -400.00
02503             146.00     -400.00
02504              80.00     -600.00
02505            -270.00     -800.00
02506            -270.00     -600.00
02507             230.00     -600.00
02508             230.00     -600.00
02509            -152.00    -1200.00
02510            -270.00     -800.00
02511              56.00     -800.00
02512             230.00    -1000.00
02513             -86.00    -1200.00
02514            -270.00    -1000.00
02515              88.00    -1200.00
02516             226.00    -1400.00
02517             -78.00    -1400.00
02518              -8.00    -1400.00
02519             -14.00    -1600.00
02520            -120.00    -1600.00
02521             160.00    -1600.00
02522             206.00    -1400.00
02523            -232.00    -2000.00
02524            -184.00    -2000.00
02525             180.00    -1600.00
02526              96.00    -2000.00
02527             -68.00    -2400.00
02528             -70.00    -2000.00
02529             -14.00    -1800.00
02530              66.00    -2200.00
02531              72.00    -2400.00
02532             -74.00    -2000.00
02533             -64.00    -2400.00
02534              76.00    -2600.00
02535              50.00    -2200.00
02536             -70.00    -2600.00
02537             -56.00    -2800.00
02538              70.00    -2600.00
02539              24.00    -2600.00
02540             -48.00    -2800.00
02541               0.00    -2800.00
02542              26.00    -2600.00
02543             -16.00    -2800.00
02544              32.00    -2800.00
02545              16.00    -3000.00
02546             -78.00    -3000.00
02547              -6.00    -3000.00
02548              70.00    -3000.00
02549             -16.00    -3000.00
02550             -34.00    -3200.00
02551              36.00    -3000.00
02552               6.00    -3200.00
02553             -18.00    -3200.00
02554              18.00    -3200.00
02555              -4.00    -3200.00
02556             -16.00    -3400.00
02557              22.00    -3200.00
02558              10.00    -3200.00
02559             -18.00    -3400.00
02560              16.00    -3600.00
02561              16.00    -3600.00
02562             -18.00    -3600.00
02563               0.00    -3600.00
02564              14.00    -3600.00
02565             -12.00    -3600.00
02566              12.00    -3600.00
02567              30.00    -3600.00
02568             -10.00    -3600.00
02569              -8.00    -3800.00
02570              24.00    -3600.00
02571              -2.00    -3800.00
02572             -16.00    -3800.00
02573              22.00    -3800.00
02574              14.00    -3800.00
02575              -8.00    -3800.00
02576              22.00    -3800.00
02577              18.00    -3600.00
02578             -14.00    -3800.00
02579               2.00    -4000.00
02580              22.00    -3800.00
02581               0.00    -3800.00
02582               6.00    -3800.00
02583              18.00    -3800.00
02584               2.00    -3800.00
02585               2.00    -3800.00
02586              16.00    -3800.00
02587               8.00    -4000.00
02588               2.00    -3800.00
02589              16.00    -3800.00
02590              14.00    -3800.00
02591               4.00    -3800.00
02592              14.00    -4000.00
02593               8.00    -3600.00
02594              -2.00    -3800.00
02595              16.00    -3800.00
02596              24.00    -3800.00
02597               6.00    -3800.00
02598               6.00    -4000.00
02599              14.00    -3800.00
02600               2.00    -3800.00
02601               6.00    -3800.00
02602              26.00    -3800.00
02603              16.00    -3800.00
02604               8.00    -3800.00
02605              14.00    -3800.00
02606               8.00    -3800.00
02607               6.00    -3800.00
02608              22.00    -3600.00
02609              26.00    -3800.00
02610              14.00    -3800.00
02611              10.00    -3600.00
02612               8.00    -3600.00
02613               2.00    -3600.00
02614              16.00    -3600.00
02615              24.00    -3600.00
02616              16.00    -3400.00
02617              10.00    -3400.00
02618              16.00    -3400.00
02619               8.00    -3200.00
02620               6.00    -3200.00
02621              16.00    -3200.00
02622              16.00    -3200.00
02623              14.00    -3200.00
02624              16.00    -3200.00
02625              12.00    -3200.00
02626               6.00    -3200.00
02627              14.00    -3000.00
02628              18.00    -3000.00
02629              14.00    -3000.00
02630              10.00    -3000.00
02631              14.00    -3000.00
02632               6.00    -3000.00
02633               6.00    -2800.00
02634              16.00    -2800.00
02635              14.00    -2800.00
02636              10.00    -2600.00
02637              14.00    -2800.00
02638               6.00    -2800.00
02639               2.00    -2400.00
02640               8.00    -2400.00
02641              10.00    -2400.00
02642               8.00    -2400.00
02643              10.00    -2400.00
02644              10.00    -2200.00
02645               2.00    -2200.00
02646               0.00    -2200.00
02647               6.00    -2200.00
02648               8.00    -2200.00
02649              10.00    -2200.00
02650               8.00    -2000.00
02651               2.00    -2000.00
02652              -2.00    -2000.00
02653               2.00    -1800.00
02654               6.00    -1600.00
02655               6.00    -1600.00
02656               6.00    -1600.00
02657               0.00    -1600.00
02658              -2.00    -1600.00
02659               0.00    -1400.00
02660               2.00    -1400.00
02661               0.00    -1400.00
02662               2.00    -1400.00
02663               2.00    -1000.00
02664               0.00    -1000.00
02665              -2.00    -1000.00
02666               0.00    -1000.00
02667              -2.00    -1000.00
02668               0.00     -800.00
02669               2.00     -800.00
02670               2.00     -800.00
02671              -4.00     -800.00
02672              -2.00     -600.00
02673               0.00     -600.00
02674              -2.00     -400.00
02675              -2.00     -400.00
02676              -2.00     -400.00
02677              -2.00     -400.00
02678              -2.00     -400.00
02679              -2.00     -200.00
02680              -2.00        0.00
02681              -2.00        0.00
02682               0.00        0.00
02683              -6.00        0.00
02684              -2.00      200.00
02685               0.00      200.00
02686               2.00      200.00
02687               0.00      200.00
02688               8.00      600.00
02689               2.00      400.00
02690              -8.00      600.00
02691              -8.00      400.00
02692              -2.00      600.00
02693              24.00      600.00
02694             158.00      800.00
02695             144.00     1000.00
02696            -270.00      800.00
02697            -270.00      800.00
02698             230.00     1200.00
02699             230.00     1200.00
02700            -154.00     1000.00
02701            -270.00      800.00
02702             116.00     1800.00
02703             230.00     1600.00
02704            -246.00     1000.00
02705            -270.00     1600.00
02706             230.00     2000.00
02707             230.00     1600.00
02708            -270.00     1200.00
02709              18.00     2000.00
02710             230.00     2000.00
02711            -236.00     1200.00
02712             -10.00     2000.00
02713             230.00     2400.00
02714            -210.00     1800.00
02715            -130.00     1800.00
02716             218.00     2800.00
02717             -42.00     2000.00
02718             -86.00     2000.00
02719              86.00     2600.00
02720            -102.00     2600.00
02721             -20.00     2000.00
02722             174.00     2400.00
02723            -116.00     2800.00
02724            -138.00     2400.00
02725             174.00     2400.00
02726              24.00     3000.00
02727            -174.00     2800.00
02728              40.00     2800.00
02729             118.00     3200.00
02730             -96.00     2800.00
02731             -74.00     2800.00
02732             102.00     3200.00
02733             -24.00     3000.00
02734            -100.00     3000.00
02735              98.00     3400.00
02736              22.00     3200.00
02737            -150.00     3200.00
02738              46.00     3400.00
02739              68.00     3600.00
02740             -96.00     3200.00
02741               6.00     3600.00
02742              46.00     3600.00
02743             -80.00     3400.00
02744              -2.00     3400.00
02745              48.00     3800.00
02746             -58.00     3600.00
02747             -16.00     3600.00
02748              52.00     3800.00
02749             -42.00     3800.00
02750             -50.00     3600.00
02751              40.00     4000.00
02752             -18.00     4000.00
02753             -46.00     3600.00
02754              48.00     4000.00
02755             -14.00     4000.00
02756             -78.00     4000.00
02757              32.00     3800.00
02758              22.00     4000.00
02759             -60.00     4000.00
02760               6.00     4000.00
02761              28.00     4200.00
02762             -56.00     4000.00
02763             -26.00     4000.00
02764              34.00     4200.00
02765             -26.00     4000.00
02766             -34.00     4000.00
02767              28.00     4200.00
02768             -26.00     4200.00
02769             -50.00     4000.00
02770              18.00     4200.00
02771              18.00     4400.00
02772             -40.00     4000.00
02773             -24.00     4200.00
02774              -6.00     4400.00
02775             -26.00     4000.00
02776               6.00     4200.00
02777              10.00     4200.00
02778             -40.00     4200.00
02779             -34.00     4200.00
02780               2.00     4000.00
02781              -8.00     4200.00
02782             -10.00     4200.00
02783               0.00     4200.00
02784             -34.00     4200.00
02785             -40.00     4200.00
02786               6.00     4000.00
02787              -8.00     4200.00
02788             -34.00     4000.00
02789              -8.00     4400.00
02790              -6.00     4000.00
02791             -42.00     4200.00
02792             -30.00     4200.00
02793              -6.00     4200.00
02794             -22.00     4000.00
02795             -16.00     4000.00
02796              -8.00     4200.00
02797             -38.00     4000.00
02798             -36.00     4000.00
02799               0.00     4000.00
02800             -16.00     4000.00
02801             -42.00     4000.00
02802             -22.00     4000.00
02803             -10.00     4000.00
02804             -22.00     4000.00
02805             -24.00     4000.00
02806             -24.00     3800.00
02807             -30.00     3800.00
02808             -12.00     3600.00
02809              -8.00     3800.00
02810             -26.00     3600.00
02811             -34.00     3800.00
02812             -18.00     3600.00
02813             -18.00     3600.00
02814             -16.00     3600.00
02815             -10.00     3600.00
02816             -22.00     3600.00
02817             -26.00     3400.00
02818             -16.00     3400.00
02819             -18.00     3400.00
02820             -24.00     3400.00
02821             -12.00     3400.00
02822             -10.00     3400.00
02823             -26.00     3400.00
02824             -22.00     3200.00
02825              -8.00     3200.00
02826             -22.00     3000.00
02827             -16.00     3200.00
02828              -6.00     3200.00
02829             -18.00     2800.00
02830             -22.00     2800.00
02831              -6.00     3000.00
02832             -10.00     2800.00
02833             -18.00     2800.00
02834             -14.00     2800.00
02835             -10.00     2800.00
02836             -16.00     2600.00
02837             -10.00     2600.00
02838             -10.00     2400.00
02839             -10.00     2600.00
02840             -10.00     2400.00
02841             -10.00     2400.00
02842             -14.00     2400.00
02843              -8.00     2400.00
02844              -6.00     2200.00
02845             -14.00     2200.00
02846             -14.00     2000.00
02847              -6.00     2000.00
02848              -8.00     2000.00
02849              -6.00     1800.00
02850              -6.00     1800.00
02851             -10.00     1800.00
02852             -12.00     1600.00
02853              -2.00     1800.00
02854              -2.00     1600.00
02855             -18.00     1600.00
02856             -16.00     1600.00
02857               0.00     1600.00
02858               0.00     1400.00
02859              -8.00     1200.00
02860              -8.00     1200.00
02861             -22.00     1200.00
02862             -12.00     1000.00
02863              14.00     1000.00
02864               0.00     1000.00
02865             -32.00      800.00
02866             -16.00      800.00
02867              16.00      800.00
02868               8.00      600.00
02869             -14.00      600.00
02870             -30.00      600.00
02871             -16.00      600.00
02872              16.00      400.00
02873              22.00      400.00
02874             -14.00      200.00
02875             -30.00      200.00
02876             -10.00      200.00
02877               8.00      200.00
02878              18.00        0.00
02879              14.00        0.00
02880              -8.00        0.00
02881             -20.00        0.00
02882              -2.00        0.00
02883              10.00     -400.00
02884               2.00     -200.00
02885              22.00     -400.00
02886             134.00     -400.00
02887             134.00     -600.00
02888            -256.00     -800.00
02889            -270.00     -600.00
02890             160.00     -400.00
02891             230.00     -600.00
02892             148.00    -1200.00
02893            -270.00     -800.00
02894            -200.00     -800.00
02895             230.00    -1000.00
02896             136.00    -1200.00
02897            -270.00    -1200.00
02898             -50.00    -1000.00
02899             230.00    -1200.00
02900             -26.00    -1400.00
02901             -38.00    -1400.00
02902              10.00    -1400.00
02903            -170.00    -1600.00
02904              80.00    -1600.00
02905             230.00    -1400.00
02906            -166.00    -1800.00
02907            -214.00    -2000.00
02908             166.00    -1600.00
02909             142.00    -1600.00
02910             -74.00    -2200.00
02911             -96.00    -2200.00
02912             -10.00    -1600.00
02913              64.00    -2200.00
02914              84.00    -2400.00
02915             -66.00    -2000.00
02916             -90.00    -2400.00
02917              56.00    -2600.00
02918              84.00    -2400.00
02919             -38.00    -2400.00
02920             -72.00    -2800.00
02921              46.00    -2600.00
02922              38.00    -2400.00
02923             -38.00    -2800.00
02924              -8.00    -2800.00
02925              22.00    -2800.00
02926             -26.00    -2800.00
02927              18.00    -3000.00
02928              42.00    -3000.00
02929             -56.00    -3000.00
02930             -26.00    -3000.00
02931              64.00    -3000.00
02932               2.00    -3000.00
02933             -40.00    -3000.00
02934              24.00    -3200.00
02935              10.00    -3200.00
02936             -28.00    -3200.00
02937              14.00    -3200.00
02938              16.00    -3200.00
02939              -8.00    -3600.00
02940              16.00    -3600.00
02941               6.00    -3400.00
02942             -26.00    -3400.00
02943               8.00    -3600.00
02944              24.00    -3600.00
02945             -10.00    -3600.00
02946               2.00    -3600.00
02947              20.00    -3600.00
02948             -10.00    -3600.00
02949              -2.00    -3600.00
02950              24.00    -3600.00
02951              -6.00    -3600.00
02952              -8.00    -3800.00
02953              30.00    -3800.00
02954               8.00    -3600.00
02955             -22.00    -3800.00
02956              14.00    -3800.00
02957              16.00    -3600.00
02958             -10.00    -3800.00
02959              14.00    -3800.00
02960              26.00    -3800.00
02961              -6.00    -3800.00
02962              -6.00    -3800.00
02963              16.00    -3800.00
02964               2.00    -3800.00
02965               8.00    -3800.00
02966              30.00    -3800.00
02967               6.00    -3800.00
02968             -18.00    -4000.00
02969               6.00    -3800.00
02970              16.00    -3800.00
02971              16.00    -4000.00
02972              22.00    -4000.00
02973               8.00    -3800.00
02974              -8.00    -4000.00
02975              10.00    -4000.00
02976              18.00    -3800.00
02977               8.00    -3800.00
02978              12.00    -3800.00
02979              18.00    -3800.00
02980               2.00    -3800.00
02981               8.00    -3800.00
02982              22.00    -3800.00
02983              14.00    -3600.00
02984               8.00    -3800.00
02985              18.00    -3800.00
02986              16.00    -3800.00
02987               8.00    -3800.00
02988              16.00    -3800.00
02989              18.00    -3600.00
02990               2.00    -3600.00
02991              14.00    -3600.00
02992              18.00    -3600.00
02993              14.00    -3800.00
02994              16.00    -3600.00
02995              22.00    -3600.00
02996               6.00    -3600.00
02997               6.00    -3600.00
02998              14.00    -3600.00
02999              18.00    -3600.00
03000              16.00    -3600.00
03001              18.00    -3400.00
03002               8.00    -3600.00
03003               6.00    -3400.00
03004               8.00    -3400.00
03005              16.00    -3200.00
03006              14.00    -3200.00
03007              18.00    -3200.00
03008              14.00    -3200.00
03009               2.00    -3200.00
03010               6.00    -3000.00
03011              16.00    -3200.00
03012              16.00    -3000.00
03013              14.00    -3000.00
03014              10.00    -3000.00
03015               2.00    -2800.00
03016               2.00    -2800.00
03017              14.00    -2800.00
03018              12.00    -2800.00
03019               6.00    -2800.00
03020               8.00    -2800.00
03021              10.00    -2400.00
03022               6.00    -2600.00
03023               6.00    -2600.00
03024              10.00    -2400.00
03025              10.00    -2400.00
03026               8.00    -2400.00
03027               8.00    -2200.00
03028               6.00    -2200.00
03029               2.00    -2400.00
03030               6.00    -2200.00
03031               6.00    -2000.00
03032               4.00    -2000.00
03033               8.00    -2000.00
03034               6.00    -2000.00
03035               2.00    -2000.00
03036               2.00    -1800.00
03037               2.00    -1600.00
03038               4.00    -1600.00
03039               6.00    -1600.00
03040               2.00    -1600.00
03041               2.00    -1400.00
03042               0.00    -1400.00
03043               2.00    -1400.00
03044               2.00    -1400.00
03045               2.00    -1000.00
03046               6.00    -1200.00
03047               0.00    -1000.00
03048              -2.00    -1000.00
03049               2.00    -1000.00
03050              -2.00    -1000.00
03051              -4.00    -1000.00
03052               0.00     -800.00
03053               0.00     -800.00
03054               0.00     -800.00
03055              -2.00     -600.00
03056              -2.00     -600.00
03057              -4.00     -400.00
03058              -2.00     -400.00
03059               2.00     -400.00
03060               0.00     -200.00
03061              -2.00     -200.00
03062              -8.00     -200.00
03063              -2.00        0.00
03064               0.00        0.00
03065               0.00        0.00
03066              -4.00        0.00
03067              -8.00      200.00
03068               0.00      200.00
03069               6.00      200.00
03070               2.00      200.00
03071               4.00      400.00
03072               2.00      600.00
03073              -8.00      400.00
03074              -6.00      600.00
03075               2.00      400.00
03076              14.00      800.00
03077             122.00     1000.00
03078             182.00     1000.00
03079            -248.00      800.00
03080            -270.00      800.00
03081             144.00     1200.00
03082             230.00     1400.00
03083             180.00     1000.00
03084            -270.00      800.00
03085            -174.00     1600.00
03086             230.00     1600.00
03087              48.00     1200.00
03088            -270.00     1200.00
03089             178.00     1800.00
03090             230.00     1600.00
03091            -270.00     1200.00
03092            -118.00     2000.00
03093             230.00     2000.00
03094            -176.00     1600.00
03095            -114.00     1800.00
03096             230.00     2600.00
03097            -126.00     1800.00
03098            -202.00     1800.00
03099             192.00     2600.00
03100              34.00     2200.00
03101            -126.00     2000.00
03102              78.00     2400.00
03103             -58.00     2600.00
03104             -74.00     2200.00
03105             174.00     2400.00
03106             -48.00     2800.00
03107            -184.00     2600.00
03108             134.00     2600.00
03109              88.00     3000.00
03110            -170.00     2800.00
03111             -10.00     2600.00
03112             136.00     3200.00
03113             -64.00     2800.00
03114            -106.00     2800.00
03115              82.00     3200.00
03116              20.00     3200.00
03117            -114.00     2800.00
03118              66.00     3200.00
03119              66.00     3400.00
03120            -144.00     3000.00
03121               2.00     3400.00
03122              96.00     3400.00
03123             -78.00     3200.00
03124             -24.00     3400.00
03125              60.00     3600.00
03126             -66.00     3400.00
03127             -28.00     3400.00
03128              56.00     3600.00
03129             -44.00     3600.00
03130             -40.00     3400.00
03131              50.00     4000.00
03132             -22.00     3600.00
03133             -62.00     3600.00
03134              38.00     4000.00
03135              -4.00     4000.00
03136             -66.00     3600.00
03137              34.00     4000.00
03138              22.00     4000.00
03139             -80.00     3800.00
03140               0.00     4000.00
03141              40.00     4000.00
03142             -58.00     4000.00
03143             -16.00     4000.00
03144              46.00     4200.00
03145             -42.00     4000.00
03146             -46.00     4000.00
03147              38.00     4200.00
03148             -16.00     4200.00
03149             -50.00     4000.00
03150              24.00     4200.00
03151               6.00     4200.00
03152             -58.00     4000.00
03153               2.00     4400.00
03154              12.00     4400.00
03155             -44.00     4200.00
03156              -8.00     4200.00
03157              18.00     4200.00
03158             -32.00     4200.00
03159             -24.00     4200.00
03160              10.00     4200.00
03161             -30.00     4200.00
03162             -26.00     4200.00
03163              10.00     4200.00
03164             -16.00     4200.00
03165             -32.00     4200.00
03166               6.00     4200.00
03167             -18.00     4400.00
03168             -42.00     4200.00
03169               4.00     4200.00
03170               2.00     4200.00
03171             -38.00     4200.00
03172             -16.00     4400.00
03173              -4.00     4000.00
03174             -34.00     4200.00
03175             -22.00     4000.00
03176               2.00     4200.00
03177             -28.00     4200.00
03178             -30.00     4200.00
03179              -6.00     4200.00
03180             -26.00     4000.00
03181             -40.00     4000.00
03182              -6.00     4000.00
03183             -14.00     4000.00
03184             -34.00     4000.00
03185             -16.00     4000.00
03186             -14.00     4000.00
03187             -38.00     4000.00
03188             -22.00     3800.00
03189             -14.00     3800.00
03190             -30.00     3800.00
03191             -24.00     3800.00
03192             -10.00     3800.00
03193             -30.00     3800.00
03194             -32.00     3600.00
03195             -16.00     3600.00
03196             -20.00     3600.00
03197             -24.00     3600.00
03198             -10.00     3600.00
03199             -24.00     3400.00
03200             -30.00     3600.00
03201             -16.00     3400.00
03202             -16.00     3400.00
03203             -26.00     3400.00
03204             -14.00     3200.00
03205             -14.00     3200.00
03206             -30.00     3200.00
03207             -18.00     3200.00
03208              -8.00     3400.00
03209             -20.00     3200.00
03210             -18.00     3200.00
03211              -6.00     3000.00
03212             -18.00     3200.00
03213             -26.00     2800.00
03214             -10.00     2800.00
03215             -14.00     2800.00
03216             -16.00     2800.00
03217             -10.00     2800.00
03218             -14.00     2800.00
03219             -22.00     2600.00
03220             -16.00     2600.00
03221              -8.00     2400.00
03222             -10.00     2400.00
03223             -10.00     2200.00
03224              -6.00     2600.00
03225             -16.00     2400.00
03226             -10.00     2200.00
03227              -8.00     2200.00
03228             -10.00     2000.00
03229             -10.00     2000.00
03230              -6.00     2000.00
03231             -14.00     1800.00
03232             -10.00     1800.00
03233               0.00     1800.00
03234             -10.00     1800.00
03235             -22.00     1600.00
03236              -6.00     1600.00
03237               6.00     1600.00
03238              -2.00     1400.00
03239             -10.00     1400.00
03240             -16.00     1400.00
03241             -18.00     1600.00
03242               0.00     1200.00
03243               8.00     1200.00
03244              -6.00     1200.00
03245             -16.00     1200.00
03246             -10.00     1000.00
03247              -6.00     1000.00
03248              -2.00      800.00
03249              -6.00      800.00
03250              -8.00      800.00
03251              -2.00      800.00
03252               6.00      800.00
03253             -10.00      400.00
03254             -18.00      600.00
03255              -8.00      400.00
03256               6.00      400.00
03257               2.00      400.00
03258              -8.00      200.00
03259             -10.00      200.00
03260              -8.00      200.00
03261               2.00        0.00
03262              10.00        0.00
03263               8.00        0.00
03264              -6.00     -200.00
03265             -14.00     -200.00
03266              -8.00     -200.00
03267               6.00     -400.00
03268              24.00     -400.00
03269             104.00     -400.00
03270             146.00     -800.00
03271            -156.00     -800.00
03272            -270.00     -800.00
03273             -18.00     -400.00
03274             230.00     -600.00
03275             230.00     -800.00
03276            -270.00    -1000.00
03277            -270.00     -800.00
03278             230.00    -1000.00
03279             230.00    -1200.00
03280            -270.00    -1200.00
03281            -194.00    -1000.00
03282             230.00    -1200.00
03283              22.00    -1400.00
03284             -58.00    -1400.00
03285              22.00    -1400.00
03286            -160.00    -1600.00
03287              14.00    -1600.00
03288             230.00    -1400.00
03289             -80.00    -1600.00
03290            -256.00    -2000.00
03291              88.00    -1800.00
03292             184.00    -1600.00
03293             -34.00    -2200.00
03294            -100.00    -2200.00
03295             -26.00    -1600.00
03296              38.00    -2200.00
03297              98.00    -2400.00
03298             -40.00    -2000.00
03299             -98.00    -2200.00
03300              24.00    -2400.00
03301             102.00    -2200.00
03302             -16.00    -2400.00
03303             -74.00    -2400.00
03304              24.00    -2400.00
03305              56.00    -2400.00
03306             -24.00    -2600.00
03307             -26.00    -2800.00
03308              26.00    -2600.00
03309             -18.00    -2800.00
03310              10.00    -3000.00
03311              48.00    -2800.00
03312             -40.00    -3200.00
03313             -46.00    -3000.00
03314              58.00    -3000.00
03315              22.00    -3000.00
03316             -48.00    -3200.00
03317              14.00    -3000.00
03318              22.00    -3200.00
03319             -22.00    -3200.00
03320               4.00    -3200.00
03321              16.00    -3200.00
03322             -10.00    -3200.00
03323              10.00    -3200.00
03324              16.00    -3400.00
03325             -22.00    -3400.00
03326               0.00    -3600.00
03327              22.00    -3400.00
03328              -6.00    -3600.00
03329               0.00    -3600.00
03330              22.00    -3600.00
03331              -8.00    -3600.00
03332              -8.00    -3600.00
03333              18.00    -3600.00
03334               0.00    -3600.00
03335             -10.00    -3800.00
03336              24.00    -3600.00
03337              14.00    -3600.00
03338             -20.00    -3800.00
03339               8.00    -3600.00
03340              22.00    -3800.00
03341             -10.00    -3800.00
03342               4.00    -3800.00
03343              24.00    -3600.00
03344              -2.00    -3800.00
03345              -6.00    -3800.00
03346              16.00    -3800.00
03347               6.00    -3800.00
03348              -2.00    -3800.00
03349              18.00    -3800.00
03350              16.00    -3800.00
03351              -2.00    -4000.00
03352               6.00    -3800.00
03353              14.00    -3800.00
03354               6.00    -3800.00
03355              16.00    -3800.00
03356              16.00    -3800.00
03357               2.00    -3800.00
03358               8.00    -3800.00
03359              16.00    -3800.00
03360               6.00    -3800.00
03361              10.00    -3800.00
03362              24.00    -3800.00
03363              10.00    -3800.00
03364               6.00    -3800.00
03365              16.00    -3800.00
03366              14.00    -3800.00
03367               6.00    -3800.00
03368              18.00    -3800.00
03369              22.00    -3800.00
03370               8.00    -3800.00
03371              14.00    -3800.00
03372              18.00    -3600.00
03373               6.00    -3800.00
03374              14.00    -3600.00
03375              22.00    -3600.00
03376              16.00    -3600.00
03377              10.00    -3600.00
03378              16.00    -3600.00
03379               8.00    -3600.00
03380              14.00    -3600.00
03381              16.00    -3600.00
03382              18.00    -3600.00
03383              10.00    -3400.00
03384              16.00    -3600.00
03385              10.00    -3200.00
03386               8.00    -3400.00
03387              10.00    -3200.00
03388              16.00    -3200.00
03389              14.00    -3200.00
03390              14.00    -3200.00
03391              10.00    -3200.00
03392               8.00    -3200.00
03393              10.00    -3000.00
03394              12.00    -3000.00
03395              10.00    -3000.00
03396              14.00    -3000.00
03397              12.00    -3000.00
03398               6.00    -2800.00
03399               2.00    -2800.00
03400              10.00    -2800.00
03401              14.00    -2800.00
03402              10.00    -2800.00
03403               6.00    -2800.00
03404               6.00    -2600.00
03405               8.00    -2600.00
03406               8.00    -2600.00
03407               6.00    -2400.00
03408               6.00    -2400.00
03409               8.00    -2400.00
03410               6.00    -2400.00
03411               8.00    -2200.00
03412               6.00    -2200.00
03413               0.00    -2200.00
03414               6.00    -2200.00
03415               8.00    -2000.00
03416               6.00    -2000.00
03417               6.00    -2000.00
03418               4.00    -2000.00
03419               6.00    -1800.00
03420              10.00    -1800.00
03421               0.00    -1600.00
03422             -10.00    -1600.00
03423               0.00    -1600.00
03424              16.00    -1600.00
03425              12.00    -1600.00
03426              -2.00    -1400.00
03427              -8.00    -1400.00
03428               2.00    -1400.00
03429               8.00    -1200.00
03430               6.00    -1000.00
03431              -2.00    -1200.00
03432              -6.00    -1000.00
03433               2.00    -1000.00
03434               6.00    -1000.00
03435               6.00     -800.00
03436              -6.00     -800.00
03437              -6.00     -600.00
03438               6.00     -600.00
03439               8.00     -600.00
03440              -4.00     -600.00
03441             -16.00     -400.00
03442              -8.00     -400.00
03443               8.00     -400.00
03444               8.00     -400.00
03445              -6.00     -400.00
03446             -22.00     -200.00
03447             -10.00        0.00
03448               6.00        0.00
03449               6.00        0.00
03450              -2.00      200.00
03451              -4.00      200.00
03452              -6.00      200.00
03453               0.00      400.00
03454               8.00      400.00
03455               6.00      400.00
03456              -6.00      400.00
03457             -10.00      400.00
03458              -2.00      800.00
03459               6.00      600.00
03460              90.00      800.00
03461             200.00     1000.00
03462            -126.00      800.00
03463            -270.00      800.00
03464             -50.00     1000.00
03465             230.00     1400.00
03466             230.00     1200.00
03467            -270.00      600.00
03468            -270.00     1400.00
03469             230.00     1600.00
03470             230.00     1200.00
03471            -270.00     1200.00
03472             -32.00     1800.00
03473             230.00     1800.00
03474            -222.00     1000.00
03475            -240.00     1800.00
03476             230.00     2400.00
03477             -86.00     1600.00
03478            -200.00     1600.00
03479             230.00     2400.00
03480             -10.00     2000.00
03481            -258.00     1600.00
03482             132.00     2600.00
03483             110.00     2600.00
03484            -144.00     1800.00
03485              56.00     2400.00
03486             -10.00     2800.00
03487            -114.00     2400.00
03488             148.00     2000.00
03489              22.00     2800.00
03490            -210.00     2800.00
03491              72.00     2600.00
03492             144.00     2800.00
03493            -144.00     2800.00
03494             -64.00     2600.00
03495             142.00     3200.00
03496             -16.00     3200.00
03497            -128.00     2800.00
03498              52.00     3200.00
03499              64.00     3200.00
03500            -118.00     2800.00
03501              16.00     3200.00
03502             102.00     3400.00
03503            -118.00     3200.00
03504             -48.00     3200.00
03505             116.00     3600.00
03506             -32.00     3400.00
03507             -42.00     3200.00
03508              70.00     3600.00
03509             -54.00     3400.00
03510             -78.00     3400.00
03511              32.00     3600.00
03512             -18.00     3800.00
03513             -46.00     3400.00
03514              56.00     4000.00
03515              10.00     3600.00
03516             -66.00     3600.00
03517              24.00     4000.00
03518              30.00     4000.00
03519             -66.00     3600.00
03520              -6.00     3800.00
03521              22.00     4000.00
03522             -80.00     4000.00
03523             -18.00     3800.00
03524              64.00     4200.00
03525             -24.00     4200.00
03526             -40.00     3800.00
03527              26.00     4000.00
03528             -32.00     4200.00
03529             -48.00     4000.00
03530              48.00     4000.00
03531              16.00     4000.00
03532             -82.00     4000.00
03533             -30.00     4000.00
03534              18.00     4000.00
03535             -18.00     4200.00
03536               8.00     4000.00
03537              16.00     4400.00
03538             -54.00     4200.00
03539             -32.00     4200.00
03540              26.00     4200.00
03541             -14.00     4200.00
03542             -40.00     4000.00
03543              -8.00     4200.00
03544             -24.00     4400.00
03545             -30.00     4200.00
03546              18.00     4200.00
03547               6.00     4200.00
03548             -34.00     4200.00
03549             -16.00     4200.00
03550             -16.00     4200.00
03551             -48.00     4200.00
03552              -8.00     4200.00
03553              18.00     4200.00
03554             -26.00     4200.00
03555             -32.00     4000.00
03556             -12.00     4000.00
03557             -32.00     4200.00
03558             -26.00     4000.00
03559              10.00     4200.00
03560             -18.00     4200.00
03561             -40.00     4000.00
03562             -16.00     4200.00
03563             -16.00     4200.00
03564             -32.00     4000.00
03565              -6.00     4000.00
03566              -2.00     4000.00
03567             -34.00     4000.00
03568             -34.00     4000.00
03569             -16.00     4000.00
03570             -26.00     4000.00
03571             -18.00     3800.00
03572              -2.00     3800.00
03573             -24.00     4000.00
03574             -34.00     3800.00
03575             -22.00     3600.00
03576             -22.00     3600.00
03577             -26.00     3600.00
03578             -16.00     3600.00
03579             -16.00     3600.00
03580             -24.00     3600.00
03581             -16.00     3600.00
03582             -18.00     3400.00
03583             -32.00     3600.00
03584             -22.00     3400.00
03585             -12.00     3400.00
03586             -24.00     3400.00
03587             -14.00     3200.00
03588             -10.00     3400.00
03589             -26.00     3200.00
03590             -30.00     3200.00
03591             -10.00     3200.00
03592             -14.00     3200.00
03593             -18.00     3000.00
03594             -10.00     3200.00
03595             -18.00     3000.00
03596             -26.00     3000.00
03597             -10.00     2800.00
03598             -12.00     2800.00
03599             -18.00     2800.00
03600             -14.00     2800.00
03601              -6.00     2800.00
03602             -18.00     2600.00
03603             -20.00     2600.00
03604             -14.00     2600.00
03605             -10.00     2600.00
03606              -8.00     2400.00
03607              -8.00     2400.00
03608             -18.00     2200.00
03609             -16.00     2200.00
03610              -8.00     2200.00
03611              -6.00     2000.00
03612             -10.00     2000.00
03613              -8.00     2000.00
03614             -10.00     2000.00
03615             -10.00     2000.00
03616              -6.00     1800.00
03617             -10.00     1800.00
03618             -16.00     1800.00
03619              -6.00     1800.00
03620               0.00     1600.00
03621              -8.00     1600.00
03622             -10.00     1400.00
03623              -6.00     1600.00
03624              -8.00     1400.00
03625              -8.00     1200.00
03626               0.00     1200.00
03627              -4.00     1000.00
03628              -8.00     1200.00
03629              -6.00     1000.00
03630              -6.00     1000.00
03631              -6.00      800.00
03632              -6.00      800.00
03633              -6.00     1000.00
03634              -2.00      800.00
03635              -2.00      800.00
03636              -4.00      800.00
03637              -8.00      400.00
03638              -6.00      400.00
03639              -2.00      400.00
03640              -6.00      400.00
03641              -8.00      200.00
03642               0.00      200.00
03643               2.00      200.00
03644              -2.00        0.00
03645               0.00      200.00
03646               6.00     -200.00
03647               2.00        0.00
03648              -8.00     -200.00
03649              -8.00        0.00
03650              -2.00     -400.00
03651              12.00     -400.00
03652              80.00     -400.00
03653             168.00     -600.00
03654             -60.00    -1000.00
03655            -270.00     -800.00
03656            -192.00     -400.00
03657             230.00     -600.00
03658             230.00     -800.00
03659            -270.00    -1200.00
03660            -270.00     -800.00
03661             230.00    -1000.00
03662             230.00    -1000.00
03663            -270.00    -1200.00
03664            -270.00    -1200.00
03665             230.00    -1200.00
03666              80.00    -1400.00
03667             -70.00    -1400.00
03668              22.00    -1400.00
03669            -130.00    -1400.00
03670             -54.00    -1800.00
03671             230.00    -1600.00
03672              14.00    -1600.00
03673            -270.00    -2000.00
03674               8.00    -1800.00
03675             214.00    -1600.00
03676              -2.00    -2000.00
03677            -104.00    -2200.00
03678             -42.00    -2000.00
03679              22.00    -2000.00
03680             104.00    -2400.00
03681              -8.00    -2200.00
03682            -106.00    -2000.00
03683             -10.00    -2400.00
03684             106.00    -2400.00
03685               8.00    -2200.00
03686             -76.00    -2800.00
03687              -4.00    -2600.00
03688              64.00    -2400.00
03689              -8.00    -2400.00
03690             -40.00    -2800.00
03691              26.00    -2800.00
03692             -10.00    -2800.00
03693              -2.00    -2800.00
03694              50.00    -2800.00
03695             -16.00    -2800.00
03696             -62.00    -3000.00
03697              46.00    -3000.00
03698              42.00    -2800.00
03699             -38.00    -3000.00
03700              -4.00    -3200.00
03701              24.00    -3200.00
03702             -18.00    -3200.00
03703              -2.00    -3200.00
03704              22.00    -3400.00
03705             -10.00    -3200.00
03706               8.00    -3400.00
03707              16.00    -3200.00
03708             -18.00    -3600.00
03709              -2.00    -3600.00
03710              22.00    -3200.00
03711              -2.00    -3600.00
03712              -6.00    -3600.00
03713              18.00    -3600.00
03714              -8.00    -3600.00
03715             -12.00    -3600.00
03716              22.00    -3600.00
03717               0.00    -3600.00
03718              -6.00    -3800.00
03719              18.00    -3600.00
03720               8.00    -3800.00
03721             -16.00    -3800.00
03722              10.00    -3800.00
03723              10.00    -3800.00
03724              -6.00    -3800.00
03725              10.00    -3800.00
03726              18.00    -3800.00
03727              -8.00    -3800.00
03728              -2.00    -3800.00
03729              16.00    -3800.00
03730              14.00    -3800.00
03731               0.00    -3800.00
03732               2.00    -3800.00
03733               6.00    -4000.00
03734              14.00    -4000.00
03735              14.00    -3800.00
03736               0.00    -4000.00
03737              -6.00    -3800.00
03738              10.00    -3800.00
03739              16.00    -3800.00
03740              18.00    -3800.00
03741              14.00    -3800.00
03742              -2.00    -3800.00
03743             -10.00    -4000.00
03744              18.00    -3800.00
03745              38.00    -3800.00
03746              18.00    -3800.00
03747               0.00    -3800.00
03748               0.00    -3800.00
03749               8.00    -3800.00
03750              16.00    -3800.00
03751              22.00    -3800.00
03752              14.00    -3800.00
03753               6.00    -3800.00
03754              18.00    -3800.00
03755              18.00    -3800.00
03756               8.00    -3600.00
03757              10.00    -3600.00
03758              16.00    -3600.00
03759              22.00    -3600.00
03760              22.00    -3600.00
03761               8.00    -3600.00
03762               8.00    -3600.00
03763              18.00    -3600.00
03764              28.00    -3400.00
03765              16.00    -3600.00
03766               4.00    -3600.00
03767               8.00    -3400.00
03768              12.00    -3600.00
03769              24.00    -3600.00
03770              18.00    -3400.00
03771               6.00    -3200.00
03772               2.00    -3400.00
03773              14.00    -3200.00
03774              18.00    -3200.00
03775              14.00    -3200.00
03776               8.00    -3200.00
03777               6.00    -3200.00
03778               8.00    -3200.00
03779              16.00    -3000.00
03780               8.00    -3200.00
03781               6.00    -3000.00
03782              10.00    -3000.00
03783              14.00    -3000.00
03784              10.00    -2800.00
03785               6.00    -2800.00
03786               6.00    -2800.00
03787               2.00    -2800.00
03788               8.00    -2800.00
03789              14.00    -2600.00
03790               6.00    -2600.00
03791               2.00    -2400.00
03792               6.00    -2400.00
03793               6.00    -2400.00
03794               6.00    -2400.00
03795               6.00    -2400.00
03796               2.00    -2200.00
03797               6.00    -2200.00
03798               8.00    -2000.00
03799               6.00    -2200.00
03800               2.00    -2000.00
03801               6.00    -2000.00
03802               2.00    -2000.00
03803              -2.00    -2000.00
03804               2.00    -1600.00
03805              10.00    -1600.00
03806               6.00    -1600.00
03807               0.00    -1600.00
03808               0.00    -1600.00
03809              -6.00    -1400.00
03810               0.00    -1400.00
03811              14.00    -1200.00
03812              10.00    -1400.00
03813               4.00    -1000.00
03814              -6.00    -1200.00
03815             -10.00    -1000.00
03816              -2.00    -1000.00
03817              12.00     -800.00
03818              14.00     -800.00
03819               0.00     -800.00
03820             -10.00     -600.00
03821              -8.00     -800.00
03822               0.00     -400.00
03823               8.00     -600.00
03824               2.00     -600.00
03825             -10.00     -400.00
03826              -4.00     -400.00
03827               4.00     -200.00
03828               2.00     -400.00
03829               0.00     -200.00
03830              -8.00        0.00
03831              -6.00        0.00
03832              -8.00        0.00
03833               2.00        0.00
03834               6.00      200.00
03835               2.00      200.00
03836              -6.00      200.00
03837               0.00      200.00
03838               6.00      400.00
03839               2.00      400.00
03840              -2.00      600.00
03841              -6.00      400.00
03842              -2.00      600.00
03843              64.00      800.00
03844             200.00     1000.00
03845             -18.00     1000.00
03846            -270.00      800.00
03847            -242.00      800.00
03848             230.00     1400.00
03849             230.00     1200.00
03850            -270.00      800.00
03851            -270.00     1200.00
03852             230.00     1600.00
03853             230.00     1200.00
03854            -270.00     1000.00
03855            -246.00     1600.00
03856             230.00     1800.00
03857             -68.00     1200.00
03858            -270.00     1600.00
03859             230.00     2400.00
03860              18.00     1600.00
03861            -246.00     1600.00
03862             204.00     2400.00
03863             104.00     2000.00
03864            -270.00     1600.00
03865              50.00     2000.00
03866             168.00     2600.00
03867            -136.00     1800.00
03868              16.00     2000.00
03869              36.00     2800.00
03870            -134.00     2400.00
03871              98.00     2000.00
03872              88.00     2800.00
03873            -200.00     2800.00
03874               8.00     2400.00
03875             176.00     2800.00
03876            -106.00     3000.00
03877            -118.00     2600.00
03878             128.00     2800.00
03879              34.00     3200.00
03880            -128.00     2800.00
03881              10.00     2800.00
03882              86.00     3400.00
03883             -98.00     3000.00
03884             -18.00     3000.00
03885             120.00     3400.00
03886             -86.00     3200.00
03887             -96.00     3200.00
03888             110.00     3600.00
03889             -10.00     3200.00
03890             -82.00     3200.00
03891              62.00     3600.00
03892             -14.00     3600.00
03893             -72.00     3200.00
03894              44.00     3600.00
03895               6.00     3600.00
03896             -64.00     3600.00
03897              30.00     3600.00
03898              22.00     3800.00
03899             -70.00     3400.00
03900              -4.00     3600.00
03901              32.00     4000.00
03902             -54.00     3800.00
03903              -8.00     3600.00
03904              50.00     4000.00
03905             -56.00     4000.00
03906             -42.00     3800.00
03907              46.00     4000.00
03908             -26.00     4000.00
03909             -50.00     4000.00
03910              40.00     4000.00
03911               0.00     4000.00
03912             -66.00     4000.00
03913               2.00     4200.00
03914              18.00     4200.00
03915             -48.00     4000.00
03916             -12.00     4000.00
03917              22.00     4200.00
03918             -40.00     4200.00
03919             -24.00     4000.00
03920              22.00     4200.00
03921             -32.00     4200.00
03922             -40.00     4000.00
03923              16.00     4200.00
03924              -4.00     4000.00
03925             -34.00     4200.00
03926              -2.00     4200.00
03927             -14.00     4200.00
03928             -34.00     4200.00
03929               0.00     4200.00
03930               0.00     4400.00
03931             -32.00     4200.00
03932             -14.00     4200.00
03933              -2.00     4200.00
03934             -30.00     4200.00
03935             -18.00     4200.00
03936              -2.00     4200.00
03937             -32.00     4200.00
03938             -22.00     4200.00
03939               6.00     4200.00
03940             -22.00     4200.00
03941             -42.00     4200.00
03942             -10.00     4000.00
03943             -10.00     4000.00
03944             -26.00     4200.00
03945              -8.00     4000.00
03946             -16.00     4200.00
03947             -42.00     4000.00
03948             -26.00     4000.00
03949              -2.00     4000.00
03950             -24.00     4000.00
03951             -22.00     4000.00
03952             -10.00     4000.00
03953             -28.00     4000.00
03954             -32.00     3800.00
03955             -10.00     4000.00
03956             -14.00     3800.00
03957             -26.00     3800.00
03958             -18.00     4000.00
03959             -22.00     3800.00
03960             -26.00     3600.00
03961             -18.00     3600.00
03962             -16.00     3600.00
03963             -24.00     3600.00
03964             -16.00     3600.00
03965             -16.00     3600.00
03966             -28.00     3600.00
03967             -18.00     3400.00
03968              -8.00     3400.00
03969             -22.00     3400.00
03970             -22.00     3400.00
03971             -10.00     3200.00
03972             -22.00     3200.00
03973             -26.00     3200.00
03974             -14.00     3200.00
03975             -16.00     3200.00
03976             -22.00     3200.00
03977             -10.00     3200.00
03978             -12.00     3000.00
03979             -26.00     3000.00
03980             -18.00     2800.00
03981              -8.00     3000.00
03982             -16.00     2800.00
03983             -16.00     2800.00
03984             -10.00     2600.00
03985             -16.00     2600.00
03986             -18.00     2600.00
03987             -12.00     2400.00
03988             -12.00     2600.00
03989             -14.00     2400.00
03990              -6.00     2600.00
03991              -6.00     2400.00
03992             -12.00     2400.00
03993             -12.00     2000.00
03994             -12.00     2400.00
03995             -14.00     2000.00
03996              -8.00     2000.00
03997              -6.00     2000.00
03998             -10.00     2000.00
03999             -10.00     1800.00
04000             -10.00     1800.00
04001             -10.00     1800.00
04002              -6.00     1800.00
04003               0.00     1600.00
04004              -6.00     1600.00
04005             -10.00     1600.00
04006              -6.00     1600.00
04007              -8.00     1600.00
04008             -10.00     1200.00
04009              -2.00     1200.00
04010               0.00     1200.00
04011              -6.00     1200.00
04012              -8.00     1200.00
04013              -4.00     1000.00
04014              -6.00     1000.00
04015              -8.00      800.00
04016              -2.00      800.00
04017              -2.00      800.00
04018              -2.00      800.00
04019              -4.00      600.00
04020              -8.00      800.00
04021              -6.00      400.00
04022               0.00      400.00
04023              -2.00      400.00
04024              -8.00      400.00
04025              -2.00      400.00
04026               2.00      200.00
04027               0.00      200.00
04028               0.00        0.00
04029               6.00        0.00
04030               2.00        0.00
04031              -6.00        0.00
04032              -8.00        0.00
04033              -2.00        0.00
04034               8.00     -400.00
04035              58.00     -400.00
04036             162.00     -400.00
04037              16.00     -600.00
04038            -270.00     -800.00
04039            -270.00     -400.00
04040             230.00     -600.00
04041             230.00     -800.00
04042            -270.00    -1000.00
04043            -270.00     -800.00
04044             230.00    -1000.00
04045             230.00    -1000.00
04046            -270.00    -1200.00
04047            -270.00    -1000.00
04048             230.00    -1200.00
04049             152.00    -1400.00
04050             -72.00    -1400.00
04051               6.00    -1400.00
04052             -88.00    -1400.00
04053            -112.00    -1600.00
04054             230.00    -1600.00
04055             108.00    -1400.00
04056            -266.00    -2000.00
04057             -80.00    -2000.00
04058             224.00    -1600.00
04059              38.00    -2000.00
04060            -102.00    -2200.00
04061             -58.00    -2000.00
04062               8.00    -2000.00
04063              96.00    -2400.00
04064              24.00    -2200.00
04065            -102.00    -2000.00
04066             -42.00    -2400.00
04067             102.00    -2400.00
04068              34.00    -2200.00
04069             -72.00    -2400.00
04070             -30.00    -2600.00
04071              70.00    -2400.00
04072               6.00    -2400.00
04073             -48.00    -2800.00
04074              18.00    -2800.00
04075               6.00    -2800.00
04076             -14.00    -2800.00
04077              46.00    -3000.00
04078               6.00    -2800.00
04079             -70.00    -3000.00
04080              22.00    -3000.00
04081              56.00    -3000.00
04082             -26.00    -3000.00
04083             -16.00    -3200.00
04084              32.00    -3000.00
04085             -10.00    -3200.00
04086             -14.00    -3200.00
04087              22.00    -3200.00
04088               0.00    -3200.00
04089               0.00    -3200.00
04090              24.00    -3200.00
04091             -10.00    -3400.00
04092             -18.00    -3600.00
04093              22.00    -3200.00
04094              14.00    -3400.00
04095             -10.00    -3600.00
04096              14.00    -3400.00
04097               8.00    -3600.00
04098             -14.00    -3600.00
04099              14.00    -3600.00
04100              14.00    -3600.00
04101             -14.00    -3800.00
04102              10.00    -3800.00
04103              24.00    -3600.00
04104             -16.00    -3800.00
04105             -10.00    -3800.00
04106              24.00    -3800.00
04107               2.00    -3800.00
04108              -8.00    -3800.00
04109              18.00    -3800.00
04110              10.00    -3800.00
04111             -10.00    -3800.00
04112              10.00    -3800.00
04113              14.00    -3800.00
04114              -8.00    -4000.00
04115               8.00    -3800.00
04116              22.00    -4000.00
04117              -2.00    -4000.00
04118               0.00    -4000.00
04119              14.00    -3800.00
04120               2.00    -3800.00
04121               8.00    -3800.00
04122              18.00    -3800.00
04123               8.00    -3800.00
04124               2.00    -3800.00
04125              14.00    -3800.00
04126               6.00    -3800.00
04127               2.00    -4000.00
04128              18.00    -3800.00
04129              18.00    -3800.00
04130               6.00    -3800.00
04131              12.00    -3800.00
04132              16.00    -3800.00
04133               6.00    -3800.00
04134              14.00    -3800.00
04135              24.00    -3800.00
04136              14.00    -3800.00
04137               8.00    -3600.00
04138              18.00    -3800.00
04139              10.00    -3800.00
04140               8.00    -3600.00
04141              22.00    -3800.00
04142              18.00    -3600.00
04143              14.00    -3600.00
04144              18.00    -3600.00
04145              16.00    -3600.00
04146               6.00    -3600.00
04147              16.00    -3400.00
04148              22.00    -3400.00
04149              14.00    -3600.00
04150              16.00    -3600.00
04151              16.00    -3400.00
04152               8.00    -3200.00
04153              14.00    -3400.00
04154              16.00    -3200.00
04155              16.00    -3200.00
04156              16.00    -3200.00
04157              16.00    -3200.00
04158               6.00    -3200.00
04159              10.00    -3200.00
04160              16.00    -3200.00
04161              10.00    -3000.00
04162               8.00    -3000.00
04163              14.00    -2800.00
04164              10.00    -3000.00
04165               6.00    -2800.00
04166               8.00    -2800.00
04167              10.00    -3000.00
04168               6.00    -2800.00
04169              10.00    -2800.00
04170               6.00    -2800.00
04171               0.00    -2600.00
04172               6.00    -2800.00
04173              10.00    -2400.00
04174               8.00    -2400.00
04175               6.00    -2400.00
04176               8.00    -2400.00
04177               6.00    -2400.00
04178               6.00    -2200.00
04179               2.00    -2200.00
04180               2.00    -2200.00
04181               0.00    -2200.00
04182               6.00    -2000.00
04183              10.00    -2000.00
04184               6.00    -2000.00
04185               2.00    -2000.00
04186              -2.00    -1800.00
04187              -6.00    -1600.00
04188               6.00    -1600.00
04189               8.00    -1600.00
04190               6.00    -1600.00
04191               6.00    -1600.00
04192               2.00    -1400.00
04193              -2.00    -1400.00
04194              -2.00    -1400.00
04195               2.00    -1200.00
04196               2.00    -1000.00
04197               2.00    -1200.00
04198               2.00    -1000.00
04199              -2.00    -1000.00
04200              -2.00    -1000.00
04201               4.00     -800.00
04202               6.00     -800.00
04203               2.00     -800.00
04204              -2.00     -600.00
04205              -6.00     -600.00
04206               0.00     -600.00
04207               0.00     -400.00
04208               2.00     -400.00
04209              -2.00     -400.00
04210              -2.00     -200.00
04211              -2.00     -200.00
04212              -2.00     -200.00
04213               0.00        0.00
04214               0.00        0.00
04215              -2.00        0.00
04216              -8.00      200.00
04217               2.00      200.00
04218               6.00      200.00
04219               0.00      200.00
04220               6.00      400.00
04221              10.00      600.00
04222               2.00      400.00
04223             -10.00      400.00
04224             -10.00      400.00
04225              -2.00      600.00
04226              48.00      800.00
04227             190.00     1000.00
04228              64.00     1000.00
04229            -270.00      800.00
04230            -270.00      800.00
04231             230.00     1200.00
04232             230.00     1600.00
04233            -270.00      800.00
04234            -270.00     1200.00
04235             230.00     1800.00
04236             230.00     1600.00
04237            -270.00     1000.00
04238            -270.00     1600.00
04239             230.00     2000.00
04240             102.00     1200.00
04241            -270.00     1600.00
04242             160.00     2200.00
04243             126.00     1800.00
04244            -270.00     1400.00
04245             106.00     2000.00
04246             202.00     2400.00
04247            -270.00     1600.00
04248             -34.00     2000.00
04249             208.00     2800.00
04250            -112.00     2000.00
04251             -38.00     1800.00
04252              70.00     2800.00
04253            -124.00     2400.00
04254              46.00     2000.00
04255             134.00     2600.00
04256            -176.00     2800.00
04257             -66.00     2400.00
04258             180.00     2800.00
04259             -46.00     3000.00
04260            -140.00     2600.00
04261              88.00     2800.00
04262              64.00     3200.00
04263            -120.00     2800.00
04264             -20.00     2800.00
04265             104.00     3200.00
04266             -74.00     3000.00
04267             -62.00     2800.00
04268             120.00     3400.00
04269             -38.00     3200.00
04270            -126.00     3200.00
04271              90.00     3400.00
04272              32.00     3400.00
04273             -98.00     3200.00
04274              34.00     3600.00
04275              22.00     3600.00
04276             -72.00     3400.00
04277              24.00     3600.00
04278              22.00     3800.00
04279             -66.00     3600.00
04280               4.00     3600.00
04281              38.00     4000.00
04282             -50.00     3600.00
04283             -16.00     3600.00
04284              40.00     4000.00
04285             -54.00     3800.00
04286             -38.00     3800.00
04287              58.00     4000.00
04288             -26.00     4000.00
04289             -56.00     3800.00
04290              42.00     4000.00
04291             -10.00     4000.00
04292             -70.00     4000.00
04293              22.00     4000.00
04294              22.00     4000.00
04295             -64.00     4000.00
04296              -6.00     4000.00
04297              30.00     4200.00
04298             -52.00     4000.00
04299             -26.00     4200.00
04300              36.00     4200.00
04301             -30.00     4200.00
04302             -42.00     4000.00
04303              16.00     4400.00
04304             -16.00     4200.00
04305             -42.00     4200.00
04306              14.00     4200.00
04307              -4.00     4200.00
04308             -42.00     4000.00
04309              -6.00     4200.00
04310               2.00     4400.00
04311             -38.00     4200.00
04312              -8.00     4200.00
04313               6.00     4200.00
04314             -38.00     4200.00
04315             -18.00     4200.00
04316               6.00     4200.00
04317             -34.00     4000.00
04318             -26.00     4200.00
04319              10.00     4200.00
04320             -18.00     4200.00
04321             -38.00     4200.00
04322               0.00     4200.00
04323             -18.00     4200.00
04324             -40.00     4200.00
04325              -6.00     4200.00
04326              -6.00     4200.00
04327             -40.00     4000.00
04328             -16.00     4000.00
04329              -6.00     4200.00
04330             -38.00     4000.00
04331             -24.00     4200.00
04332               0.00     4000.00
04333             -24.00     4000.00
04334             -30.00     4000.00
04335             -10.00     4000.00
04336             -24.00     4000.00
04337             -32.00     4000.00
04338             -10.00     4000.00
04339             -12.00     3800.00
04340             -26.00     4000.00
04341             -16.00     4000.00
04342             -16.00     3800.00
04343             -30.00     3800.00
04344             -18.00     3600.00
04345             -14.00     3600.00
04346             -26.00     3600.00
04347             -18.00     3600.00
04348             -10.00     3600.00
04349             -24.00     3600.00
04350             -22.00     3400.00
04351             -10.00     3400.00
04352             -24.00     3400.00
04353             -24.00     3400.00
04354             -10.00     3200.00
04355             -16.00     3200.00
04356             -26.00     3400.00
04357             -14.00     3400.00
04358             -16.00     3200.00
04359             -22.00     3200.00
04360             -10.00     3000.00
04361              -6.00     3000.00
04362             -22.00     2800.00
04363             -18.00     2800.00
04364             -14.00     2800.00
04365             -18.00     3000.00
04366             -16.00     2800.00
04367              -8.00     2800.00
04368             -16.00     2800.00
04369             -18.00     2600.00
04370             -14.00     2600.00
04371             -14.00     2600.00
04372             -10.00     2600.00
04373              -6.00     2400.00
04374             -10.00     2400.00
04375             -14.00     2200.00
04376             -12.00     2200.00
04377             -14.00     2200.00
04378             -10.00     2000.00
04379              -8.00     2000.00
04380             -10.00     1800.00
04381             -10.00     2000.00
04382              -2.00     1800.00
04383              -8.00     1800.00
04384             -16.00     1800.00
04385             -10.00     1600.00
04386               0.00     1600.00
04387              -8.00     1600.00
04388              -6.00     1400.00
04389              -6.00     1400.00
04390             -16.00     1400.00
04391             -14.00     1600.00
04392              -2.00     1200.00
04393               6.00     1200.00
04394               0.00     1000.00
04395             -12.00     1000.00
04396             -16.00     1200.00
04397              -8.00     1000.00
04398               2.00      800.00
04399               2.00      800.00
04400              -2.00      600.00
04401              -8.00      800.00
04402             -10.00      600.00
04403              -8.00      400.00
04404               2.00      600.00
04405               2.00      400.00
04406              -2.00      400.00
04407              -8.00      400.00
04408              -6.00      400.00
04409              -2.00      200.00
04410               6.00        0.00
04411              10.00        0.00
04412               8.00        0.00
04413              -4.00        0.00
04414             -14.00     -200.00
04415              -8.00     -200.00
04416               6.00        0.00
04417              22.00     -400.00
04418              42.00     -400.00
04419             142.00     -600.00
04420              64.00     -800.00
04421            -270.00     -800.00
04422            -270.00     -600.00
04423             230.00     -400.00
04424             230.00     -800.00
04425            -210.00    -1200.00
04426            -270.00     -800.00
04427              96.00     -800.00
04428             230.00    -1000.00
04429            -126.00    -1200.00
04430            -270.00    -1000.00
04431             118.00    -1200.00
04432             226.00    -1400.00
04433             -50.00    -1400.00
04434             -16.00    -1400.00
04435             -42.00    -1400.00
04436            -152.00    -1600.00
04437             166.00    -1600.00
04438             192.00    -1600.00
04439            -226.00    -1600.00
04440            -154.00    -2000.00
04441             200.00    -1600.00
04442              80.00    -2000.00
04443             -88.00    -2400.00
04444             -74.00    -2000.00
04445               2.00    -2000.00
04446              82.00    -2400.00
04447              48.00    -2400.00
04448             -90.00    -2000.00
04449             -66.00    -2400.00
04450              86.00    -2400.00
04451              64.00    -2200.00
04452             -56.00    -2400.00
04453             -56.00    -2800.00
04454              62.00    -2400.00
04455              26.00    -2400.00
04456             -48.00    -2800.00
04457               2.00    -2800.00
04458              20.00    -2800.00
04459             -18.00    -2800.00
04460              32.00    -2800.00
04461              24.00    -3000.00
04462             -64.00    -3000.00
04463               2.00    -3000.00
04464              66.00    -3000.00
04465             -14.00    -3000.00
04466             -26.00    -3200.00
04467              32.00    -3200.00
04468              -2.00    -3200.00
04469             -22.00    -3200.00
04470              22.00    -3200.00
04471               8.00    -3200.00
04472              -6.00    -3400.00
04473              22.00    -3200.00
04474               0.00    -3200.00
04475             -24.00    -3600.00
04476              16.00    -3400.00
04477              18.00    -3200.00
04478             -12.00    -3600.00
04479              14.00    -3600.00
04480              16.00    -3600.00
04481             -10.00    -3800.00
04482               6.00    -3600.00
04483              16.00    -3600.00
04484             -10.00    -3600.00
04485               0.00    -3800.00
04486              26.00    -3600.00
04487              -2.00    -3800.00
04488             -14.00    -3800.00
04489              24.00    -3800.00
04490              12.00    -3600.00
04491             -16.00    -4000.00
04492               6.00    -3800.00
04493              14.00    -3800.00
04494              -2.00    -3800.00
04495              14.00    -3800.00
04496              16.00    -3800.00
04497             -10.00    -4000.00
04498               2.00    -3800.00
04499              30.00    -3600.00
04500               8.00    -4000.00
04501              -6.00    -3800.00
04502               6.00    -4000.00
04503               8.00    -3800.00
04504               8.00    -4000.00
04505              16.00    -3800.00
04506               8.00    -3800.00
04507               2.00    -4000.00
04508              14.00    -4000.00
04509              14.00    -3800.00
04510               6.00    -4000.00
04511              16.00    -3800.00
04512              22.00    -3800.00
04513               8.00    -3800.00
04514               2.00    -3800.00
04515               4.00    -3800.00
04516               4.00    -3800.00
04517              20.00    -3800.00
04518              38.00    -3800.00
04519              18.00    -3600.00
04520              -6.00    -3800.00
04521               6.00    -3800.00
04522              16.00    -3600.00
04523              22.00    -3600.00
04524              26.00    -3600.00
04525              18.00    -3600.00
04526               2.00    -3600.00
04527              10.00    -3600.00
04528              22.00    -3600.00
04529              16.00    -3400.00
04530              16.00    -3600.00
04531              16.00    -3400.00
04532              16.00    -3600.00
04533              16.00    -3600.00
04534              16.00    -3400.00
04535              10.00    -3400.00
04536              14.00    -3200.00
04537              14.00    -3200.00
04538              18.00    -3400.00
04539              16.00    -3200.00
04540              18.00    -3200.00
04541              14.00    -3200.00
04542               6.00    -3000.00
04543               8.00    -3000.00
04544              16.00    -3000.00
04545              14.00    -3000.00
04546              16.00    -2800.00
04547              10.00    -3000.00
04548               6.00    -2800.00
04549               8.00    -3000.00
04550              12.00    -3000.00
04551               8.00    -2800.00
04552              10.00    -2800.00
04553               8.00    -2800.00
04554               6.00    -2800.00
04555               6.00    -2600.00
04556               6.00    -2600.00
04557              12.00    -2400.00
04558               8.00    -2400.00
04559               8.00    -2400.00
04560               6.00    -2400.00
04561               0.00    -2200.00
04562               2.00    -2200.00
04563               6.00    -2200.00
04564               8.00    -2000.00
04565               6.00    -2200.00
04566               2.00    -2000.00
04567               0.00    -2000.00
04568               0.00    -2000.00
04569               4.00    -2000.00
04570               6.00    -1600.00
04571               6.00    -1600.00
04572               2.00    -1600.00
04573               0.00    -1600.00
04574               2.00    -1400.00
04575               6.00    -1400.00
04576               0.00    -1400.00
04577               0.00    -1400.00
04578               2.00    -1000.00
04579               6.00    -1200.00
04580               0.00    -1000.00
04581               0.00     -800.00
04582               0.00     -800.00
04583               0.00     -800.00
04584              -2.00     -800.00
04585               0.00     -800.00
04586               2.00     -800.00
04587              -2.00     -600.00
04588               0.00     -600.00
04589               0.00     -400.00
04590               0.00     -400.00
04591               0.00     -400.00
04592               0.00     -400.00
04593               0.00        0.00
04594               2.00     -200.00
04595              -2.00     -400.00
04596              -6.00        0.00
04597              -2.00        0.00
04598              -2.00      200.00
04599              -2.00      200.00
04600               0.00      200.00
04601               4.00      400.00
04602               2.00      400.00
04603               2.00      400.00
04604               6.00      400.00
04605               2.00      400.00
04606              -8.00      400.00
04607              -8.00      600.00
04608               0.00      600.00
04609              30.00      800.00
04610             162.00     1000.00
04611             134.00     1000.00
04612            -270.00      800.00
04613            -270.00      800.00
04614             230.00     1200.00
04615             230.00     1400.00
04616            -218.00     1000.00
04617            -270.00      800.00
04618             166.00     1600.00
04619             230.00     1600.00
04620            -270.00     1000.00
04621            -270.00     1600.00
04622             230.00     2000.00
04623             230.00     1200.00
04624            -270.00     1400.00
04625              42.00     2000.00
04626             226.00     2000.00
04627            -248.00     1400.00
04628               0.00     2000.00
04629             230.00     2400.00
04630            -222.00     1800.00
04631            -118.00     2000.00
04632             220.00     2600.00
04633             -54.00     2000.00
04634             -84.00     2000.00
04635              86.00     2600.00
04636            -102.00     2600.00
04637             -16.00     2200.00
04638             162.00     2600.00
04639            -128.00     2800.00
04640            -124.00     2400.00
04641             172.00     2600.00
04642              14.00     3000.00
04643            -166.00     2600.00
04644              48.00     2800.00
04645             104.00     3200.00
04646            -102.00     2800.00
04647             -58.00     2800.00
04648             102.00     3200.00
04649             -42.00     3200.00
04650             -92.00     2800.00
04651             110.00     3400.00
04652              12.00     3200.00
04653            -150.00     3200.00
04654              56.00     3600.00
04655              70.00     3400.00
04656             -96.00     3200.00
04657              14.00     3600.00
04658              42.00     3600.00
04659             -80.00     3400.00
04660               2.00     3600.00
04661              42.00     3800.00
04662             -58.00     3600.00
04663             -10.00     3600.00
04664              48.00     4000.00
04665             -46.00     3600.00
04666             -40.00     3600.00
04667              46.00     4000.00
04668             -26.00     3600.00
04669             -48.00     3800.00
04670              54.00     4000.00
04671              -8.00     4000.00
04672             -76.00     4000.00
04673              30.00     4000.00
04674              22.00     4000.00
04675             -64.00     4000.00
04676               6.00     4000.00
04677              36.00     4200.00
04678             -60.00     4000.00
04679             -24.00     4000.00
04680              40.00     4200.00
04681             -38.00     4000.00
04682             -44.00     4000.00
04683              32.00     4200.00
04684              -8.00     4200.00
04685             -50.00     4000.00
04686              12.00     4400.00
04687              -2.00     4200.00
04688             -46.00     4200.00
04689               2.00     4200.00
04690               8.00     4400.00
04691             -42.00     4200.00
04692             -16.00     4400.00
04693               2.00     4400.00
04694             -34.00     4200.00
04695              -8.00     4200.00
04696               6.00     4200.00
04697             -38.00     4200.00
04698             -24.00     4200.00
04699              14.00     4200.00
04700             -30.00     4400.00
04701             -30.00     4200.00
04702               4.00     4200.00
04703             -22.00     4200.00
04704             -32.00     4200.00
04705              -2.00     4200.00
04706             -18.00     4200.00
04707             -40.00     4000.00
04708              -2.00     4200.00
04709              -6.00     4000.00
04710             -46.00     4000.00
04711             -26.00     4200.00
04712               2.00     4200.00
04713             -16.00     4200.00
04714             -24.00     4000.00
04715             -32.00     4000.00
04716             -38.00     4000.00
04717             -16.00     4000.00
04718               8.00     4000.00
04719             -16.00     4000.00
04720             -38.00     3800.00
04721             -32.00     4000.00
04722             -22.00     3800.00
04723             -10.00     4000.00
04724              -6.00     4000.00
04725             -18.00     3800.00
04726             -38.00     3600.00
04727             -24.00     3800.00
04728             -10.00     3600.00
04729             -22.00     3600.00
04730             -16.00     3600.00
04731             -10.00     3600.00
04732             -20.00     3600.00
04733             -26.00     3400.00
04734             -24.00     3600.00
04735             -22.00     3400.00
04736              -8.00     3400.00
04737               0.00     3200.00
04738             -20.00     3400.00
04739             -36.00     3200.00
04740             -16.00     3200.00
04741              -2.00     3200.00
04742             -18.00     3200.00
04743             -24.00     3200.00
04744             -18.00     3000.00
04745             -12.00     2800.00
04746              -6.00     2800.00
04747             -14.00     2800.00
04748             -28.00     2800.00
04749             -22.00     2800.00
04750              -2.00     2800.00
04751              -4.00     2800.00
04752             -16.00     2600.00
04753             -18.00     2600.00
04754             -18.00     2600.00
04755             -14.00     2600.00
04756              -8.00     2400.00
04757              -8.00     2400.00
04758             -12.00     2400.00
04759             -10.00     2200.00
04760             -14.00     2200.00
04761             -14.00     2200.00
04762             -10.00     2000.00
04763             -10.00     2000.00
04764             -14.00     2000.00
04765              -8.00     2000.00
04766              -8.00     1800.00
04767             -14.00     1800.00
04768             -10.00     1800.00
04769              -6.00     1600.00
04770             -12.00     1600.00
04771             -10.00     1600.00
04772              -8.00     1600.00
04773              -2.00     1400.00
04774              -8.00     1200.00
04775              -8.00     1400.00
04776              -8.00     1200.00
04777              -8.00     1200.00
04778              -6.00     1200.00
04779              -2.00     1000.00
04780              -6.00     1000.00
04781             -10.00      800.00
04782              -8.00      800.00
04783               0.00      800.00
04784               2.00      800.00
04785              -6.00      600.00
04786             -10.00      800.00
04787              -4.00      600.00
04788               4.00      400.00
04789               0.00      400.00
04790             -10.00      400.00
04791              -6.00      400.00
04792               2.00      200.00
04793               0.00      200.00
04794               0.00      200.00
04795               4.00        0.00
04796               8.00        0.00
04797              -2.00        0.00
04798             -10.00     -200.00
04799              -2.00     -400.00
04800              10.00     -200.00
04801              34.00     -400.00
04802             134.00     -200.00
04803             118.00     -600.00
04804            -270.00     -800.00
04805            -270.00     -600.00
04806             198.00     -400.00
04807             230.00     -600.00
04808              94.00    -1000.00
04809            -270.00    -1000.00
04810            -154.00     -800.00
04811             230.00    -1200.00
04812              94.00    -1200.00
04813            -270.00    -1200.00
04814             -22.00    -1000.00
04815             230.00    -1400.00
04816             -30.00    -1400.00
04817             -24.00    -1400.00
04818               0.00    -1400.00
04819            -190.00    -1600.00
04820              92.00    -1600.00
04821             230.00    -1400.00
04822            -160.00    -1800.00
04823            -224.00    -2000.00
04824             144.00    -1800.00
04825             128.00    -1600.00
04826             -48.00    -2200.00
04827             -82.00    -2000.00
04828             -24.00    -1800.00
04829              46.00    -2400.00
04830              72.00    -2400.00
04831             -58.00    -2200.00
04832             -72.00    -2200.00
04833              64.00    -2800.00
04834              62.00    -2200.00
04835             -52.00    -2400.00
04836             -58.00    -2800.00
04837              64.00    -2600.00
04838              32.00    -2600.00
04839             -54.00    -2800.00
04840              -8.00    -2800.00
04841              38.00    -2800.00
04842             -16.00    -2800.00
04843              16.00    -3000.00
04844              30.00    -2800.00
04845             -56.00    -3000.00
04846             -12.00    -3000.00
04847              70.00    -3000.00
04848              -6.00    -3200.00
04849             -42.00    -3200.00
04850              30.00    -3000.00
04851              14.00    -3200.00
04852             -18.00    -3400.00
04853              14.00    -3200.00
04854               8.00    -3200.00
04855              -6.00    -3400.00
04856              22.00    -3200.00
04857              10.00    -3200.00
04858             -24.00    -3600.00
04859               6.00    -3200.00
04860              10.00    -3600.00
04861              -2.00    -3600.00
04862              24.00    -3600.00
04863              26.00    -3400.00
04864             -26.00    -3600.00
04865             -16.00    -3600.00
04866              22.00    -3600.00
04867              10.00    -3600.00
04868              14.00    -3800.00
04869              26.00    -3600.00
04870             -10.00    -3600.00
04871             -26.00    -3800.00
04872              16.00    -3600.00
04873              24.00    -3600.00
04874              -2.00    -3800.00
04875               6.00    -3800.00
04876              16.00    -3800.00
04877              -2.00    -3800.00
04878              -2.00    -4000.00
04879               8.00    -3800.00
04880              -2.00    -3800.00
04881               6.00    -3800.00
04882              30.00    -3800.00
04883              10.00    -3800.00
04884             -16.00    -3800.00
04885               2.00    -4000.00
04886              14.00    -3800.00
04887              12.00    -4000.00
04888              18.00    -3800.00
04889               8.00    -3800.00
04890              -4.00    -3800.00
04891               8.00    -4000.00
04892              18.00    -4000.00
04893               6.00    -3800.00
04894              10.00    -3800.00
04895              18.00    -3800.00
04896               6.00    -4000.00
04897               8.00    -4000.00
04898              16.00    -3600.00
04899              10.00    -3800.00
04900               8.00    -3800.00
04901              22.00    -3800.00
04902              16.00    -3800.00
04903               6.00    -3800.00
04904              16.00    -3600.00
04905              18.00    -3600.00
04906               6.00    -3800.00
04907              14.00    -3800.00
04908              22.00    -3800.00
04909              10.00    -3800.00
04910              10.00    -3600.00
04911              18.00    -3600.00
04912               8.00    -3600.00
04913              14.00    -3600.00
04914              22.00    -3400.00
04915              16.00    -3600.00
04916               8.00    -3600.00
04917              14.00    -3400.00
04918              16.00    -3400.00
04919              10.00    -3200.00
04920              16.00    -3200.00
04921              16.00    -3200.00
04922              14.00    -3200.00
04923              14.00    -3000.00
04924              12.00    -3200.00
04925               8.00    -3200.00
04926              14.00    -3200.00
04927              16.00    -3000.00
04928              14.00    -3000.00
04929              12.00    -3000.00
04930              14.00    -3000.00
04931               8.00    -2800.00
04932               6.00    -3000.00
04933              12.00    -2800.00
04934              10.00    -2800.00
04935               8.00    -2800.00
04936              12.00    -2800.00
04937               8.00    -2800.00
04938               2.00    -2800.00
04939              10.00    -2400.00
04940               8.00    -2400.00
04941               6.00    -2400.00
04942               6.00    -2400.00
04943               8.00    -2400.00
04944               2.00    -2200.00
04945               2.00    -2200.00
04946               2.00    -2200.00
04947               6.00    -2200.00
04948               2.00    -2000.00
04949               6.00    -2000.00
04950               2.00    -2000.00
04951               0.00    -2000.00
04952               2.00    -1800.00
04953               2.00    -2000.00
04954               2.00    -1800.00
04955               6.00    -1600.00
04956               6.00    -1600.00
04957               0.00    -1600.00
04958              -2.00    -1600.00
04959               0.00    -1600.00
04960               2.00    -1000.00
04961               4.00    -1400.00
04962               6.00    -1000.00
04963               0.00    -1200.00
04964              -2.00    -1000.00
04965               0.00    -1000.00
04966              -2.00    -1000.00
04967              -4.00     -800.00
04968               2.00     -800.00
04969               4.00     -800.00
04970               0.00     -600.00
04971              -6.00     -600.00
04972              -2.00     -400.00
04973               0.00     -400.00
04974               0.00     -400.00
04975               0.00     -400.00
04976               0.00     -400.00
04977              -2.00        0.00
04978              -4.00        0.00
04979              -2.00     -200.00
04980               0.00        0.00
04981              -2.00        0.00
04982              -2.00        0.00
04983              -2.00      200.00
04984               0.00      200.00
04985               2.00      200.00
04986               2.00      400.00
04987               6.00      400.00
04988               6.00      400.00
04989              -6.00      600.00
04990              -6.00      600.00
04991               0.00      800.00
04992              18.00      800.00
04993             134.00      800.00
04994             176.00     1200.00
04995            -270.00      800.00
04996            -270.00      800.00
04997             184.00     1200.00
04998             230.00     1200.00
04999             120.00     1200.00
05000            -270.00      800.00
