Unit:(mV)
                     CH1         CH2
Frequency              ? 260.721 kHz
00001               0.00    -2800.00
00002               2.00    -2800.00
00003               0.00    -2400.00
00004              -2.00    -2200.00
00005               0.00    -2200.00
00006              -2.00    -2000.00
00007              -6.00    -1600.00
00008              -2.00    -1400.00
00009               2.00    -1400.00
00010               2.00    -1000.00
00011              -2.00     -800.00
00012             -12.00     -600.00
00013              -8.00     -600.00
00014               6.00     -400.00
00015               8.00        0.00
00016              -2.00      200.00
00017             -10.00      400.00
00018               0.00      400.00
00019              30.00      800.00
00020              26.00      800.00
00021               2.00     1000.00
00022             -10.00     1000.00
00023             -10.00     1200.00
00024               8.00     1600.00
00025              58.00     1800.00
00026             246.00     2000.00
00027             176.00     2600.00
00028            -254.00     2400.00
00029            -254.00     2600.00
00030             -92.00     2800.00
00031             246.00     2800.00
00032             246.00     3600.00
00033            -114.00     3400.00
00034            -254.00     3400.00
00035             202.00     4000.00
00036             198.00     4000.00
00037              -6.00     4200.00
00038              54.00     4400.00
00039            -254.00     4400.00
00040             172.00     4400.00
00041             120.00     5000.00
00042            -218.00     5000.00
00043             -22.00     5200.00
00044              -8.00     5600.00
00045             104.00     5600.00
00046              24.00     5800.00
00047             -56.00     6200.00
00048            -106.00     5800.00
00049               0.00     6400.00
00050             134.00     6600.00
00051             -98.00     6400.00
00052              -6.00     6800.00
00053             -18.00     6800.00
00054             -26.00     7200.00
00055              48.00     7400.00
00056             -56.00     7400.00
00057             -32.00     7600.00
00058              20.00     7600.00
00059              26.00     8000.00
00060             -50.00     8000.00
00061             -16.00     8400.00
00062             -26.00     8400.00
00063             -10.00     8600.00
00064              14.00     8800.00
00065             -32.00     8800.00
00066             -24.00     9000.00
00067              -6.00     9200.00
00068             -10.00     9400.00
00069             -26.00     9600.00
00070               6.00     9600.00
00071             -38.00     9800.00
00072             -10.00     9800.00
00073              -6.00    10000.00
00074             -22.00    10000.00
00075              -2.00    10200.00
00076             -16.00    10400.00
00077             -36.00    10400.00
00078             -24.00    10600.00
00079               8.00    10600.00
00080              -8.00    10600.00
00081              -8.00    10800.00
00082             -32.00    11000.00
00083             -40.00    11000.00
00084             -14.00    11200.00
00085              -2.00    11200.00
00086             -10.00    11400.00
00087             -10.00    11400.00
00088             -22.00    11800.00
00089             -26.00    11600.00
00090             -16.00    11800.00
00091             -22.00    11800.00
00092             -16.00    11800.00
00093              -8.00    12000.00
00094             -16.00    12000.00
00095             -22.00    12000.00
00096             -22.00    12000.00
00097             -24.00    12200.00
00098             -16.00    12400.00
00099             -10.00    12000.00
00100             -14.00    12200.00
00101             -14.00    12200.00
00102             -18.00    12400.00
00103             -26.00    12400.00
00104             -24.00    12400.00
00105             -18.00    12400.00
00106             -18.00    12200.00
00107              -8.00    12400.00
00108             -10.00    12400.00
00109             -24.00    12400.00
00110             -26.00    12400.00
00111             -24.00    12400.00
00112             -22.00    12600.00
00113              -8.00    12400.00
00114              -8.00    12600.00
00115             -18.00    12400.00
00116             -26.00    12400.00
00117             -30.00    12400.00
00118             -22.00    12200.00
00119             -12.00    12200.00
00120             -16.00    12200.00
00121             -14.00    12200.00
00122             -18.00    12200.00
00123             -30.00    12200.00
00124             -26.00    12200.00
00125             -18.00    12200.00
00126             -14.00    12000.00
00127             -14.00    12200.00
00128             -16.00    12000.00
00129             -24.00    12000.00
00130             -24.00    12000.00
00131             -22.00    11800.00
00132             -16.00    12000.00
00133             -16.00    11600.00
00134             -18.00    11800.00
00135             -22.00    11800.00
00136             -22.00    11400.00
00137             -22.00    11400.00
00138             -18.00    11400.00
00139             -16.00    11400.00
00140             -16.00    11200.00
00141             -16.00    10800.00
00142             -18.00    11200.00
00143             -22.00    11000.00
00144             -18.00    10800.00
00145             -16.00    10600.00
00146             -16.00    10600.00
00147             -14.00    10400.00
00148             -16.00    10400.00
00149             -18.00    10400.00
00150             -22.00    10000.00
00151             -18.00    10000.00
00152             -14.00     9800.00
00153             -10.00     9800.00
00154             -10.00     9800.00
00155             -16.00     9600.00
00156             -18.00     9400.00
00157             -18.00     9400.00
00158             -14.00     9000.00
00159             -10.00     9000.00
00160             -10.00     8800.00
00161             -12.00     8800.00
00162             -18.00     8600.00
00163             -14.00     8400.00
00164             -14.00     8400.00
00165             -14.00     8200.00
00166             -10.00     8000.00
00167             -10.00     7600.00
00168             -10.00     7600.00
00169             -12.00     7600.00
00170             -22.00     7400.00
00171             -16.00     7200.00
00172             -14.00     7200.00
00173              -6.00     6800.00
00174              -6.00     6600.00
00175             -10.00     6600.00
00176             -14.00     6400.00
00177             -14.00     6200.00
00178             -10.00     6000.00
00179             -10.00     5800.00
00180              -6.00     5600.00
00181              -8.00     5400.00
00182             -14.00     5400.00
00183             -16.00     5000.00
00184             -14.00     5000.00
00185             -10.00     4800.00
00186              -6.00     4400.00
00187              -6.00     4200.00
00188              -8.00     4200.00
00189             -10.00     4000.00
00190             -14.00     3600.00
00191             -10.00     3600.00
00192             -10.00     3400.00
00193              -6.00     3200.00
00194              -4.00     3000.00
00195              -8.00     2600.00
00196             -10.00     2600.00
00197              -8.00     2400.00
00198             -10.00     2200.00
00199              -8.00     2000.00
00200              -4.00     1800.00
00201              -2.00     1600.00
00202              -8.00     1600.00
00203             -10.00     1200.00
00204             -10.00     1000.00
00205              -8.00      800.00
00206              -2.00      600.00
00207               0.00      400.00
00208               0.00      200.00
00209               0.00        0.00
00210               2.00        0.00
00211              30.00     -400.00
00212              20.00     -600.00
00213             -14.00     -600.00
00214             -24.00     -800.00
00215               0.00    -1000.00
00216              22.00    -1200.00
00217              48.00    -1400.00
00218             196.00    -1600.00
00219             246.00    -2000.00
00220            -226.00    -2200.00
00221            -254.00    -2400.00
00222            -154.00    -2600.00
00223             166.00    -2600.00
00224             246.00    -2600.00
00225             246.00    -3000.00
00226            -254.00    -3200.00
00227            -254.00    -3200.00
00228             246.00    -3800.00
00229              86.00    -3600.00
00230              16.00    -3800.00
00231             -98.00    -4400.00
00232             -48.00    -4000.00
00233             176.00    -4800.00
00234             -30.00    -4600.00
00235             -90.00    -5000.00
00236             -82.00    -5000.00
00237              70.00    -5200.00
00238             166.00    -5600.00
00239             -72.00    -5200.00
00240             -58.00    -6000.00
00241             -42.00    -6000.00
00242              66.00    -6200.00
00243              90.00    -6400.00
00244             -56.00    -6200.00
00245             -24.00    -6800.00
00246              -2.00    -6800.00
00247              54.00    -7000.00
00248             -10.00    -7200.00
00249             -26.00    -7200.00
00250              24.00    -7600.00
00251              10.00    -7400.00
00252              32.00    -8000.00
00253             -24.00    -8000.00
00254             -12.00    -8000.00
00255              38.00    -8400.00
00256               8.00    -8400.00
00257             -10.00    -8800.00
00258              -2.00    -8600.00
00259              14.00    -8800.00
00260              22.00    -9000.00
00261              14.00    -9000.00
00262              -6.00    -9200.00
00263               0.00    -9400.00
00264              16.00    -9600.00
00265               8.00    -9600.00
00266               6.00    -9600.00
00267              16.00   -10000.00
00268               0.00    -9800.00
00269               6.00   -10000.00
00270               2.00   -10200.00
00271               2.00   -10200.00
00272              24.00   -10200.00
00273              18.00   -10400.00
00274               6.00   -10800.00
00275               0.00   -10600.00
00276               2.00   -10800.00
00277               8.00   -10800.00
00278              20.00   -11000.00
00279              16.00   -11000.00
00280               8.00   -11000.00
00281              10.00   -11200.00
00282               4.00   -11200.00
00283               8.00   -11200.00
00284              16.00   -11400.00
00285              14.00   -11400.00
00286              14.00   -11600.00
00287              16.00   -11600.00
00288               6.00   -11800.00
00289               8.00   -11600.00
00290              10.00   -11800.00
00291              12.00   -11800.00
00292              14.00   -11800.00
00293              20.00   -11800.00
00294              14.00   -11800.00
00295               6.00   -12000.00
00296               8.00   -12000.00
00297               8.00   -12000.00
00298              14.00   -11800.00
00299              18.00   -12000.00
00300              16.00   -12000.00
00301              14.00   -12000.00
00302               4.00   -12000.00
00303               2.00   -12000.00
00304              16.00   -12000.00
00305              18.00   -11800.00
00306              14.00   -12000.00
00307              16.00   -12000.00
00308              12.00   -12000.00
00309               0.00   -12000.00
00310               6.00   -12000.00
00311              18.00   -12000.00
00312              22.00   -12000.00
00313              18.00   -11800.00
00314               2.00   -11800.00
00315               0.00   -11800.00
00316              14.00   -11800.00
00317              16.00   -11800.00
00318              10.00   -11600.00
00319              12.00   -11600.00
00320              14.00   -11600.00
00321              14.00   -11600.00
00322               6.00   -11600.00
00323              -2.00   -11600.00
00324              10.00   -11400.00
00325              22.00   -11200.00
00326              16.00   -11400.00
00327               6.00   -11200.00
00328               6.00   -11200.00
00329               8.00   -11000.00
00330              10.00   -11000.00
00331               2.00   -10800.00
00332              12.00   -10800.00
00333              18.00   -10800.00
00334              14.00   -10800.00
00335               8.00   -10400.00
00336               4.00   -10200.00
00337               2.00   -10200.00
00338              10.00   -10200.00
00339              16.00   -10000.00
00340              16.00   -10000.00
00341              14.00    -9600.00
00342               4.00    -9800.00
00343               0.00    -9600.00
00344               8.00    -9400.00
00345              10.00    -9200.00
00346              12.00    -9200.00
00347              14.00    -9200.00
00348               6.00    -8800.00
00349               4.00    -8800.00
00350               6.00    -8800.00
00351              10.00    -8400.00
00352              12.00    -8600.00
00353               8.00    -8000.00
00354               8.00    -8000.00
00355              10.00    -8000.00
00356               8.00    -7800.00
00357               2.00    -7600.00
00358               2.00    -7600.00
00359              10.00    -7200.00
00360              16.00    -7200.00
00361               8.00    -7000.00
00362              -2.00    -7000.00
00363              -2.00    -6800.00
00364               6.00    -6600.00
00365              16.00    -6400.00
00366              16.00    -6200.00
00367               8.00    -6200.00
00368              -2.00    -6000.00
00369              -2.00    -5600.00
00370               2.00    -5400.00
00371               6.00    -5400.00
00372               2.00    -5200.00
00373               0.00    -5000.00
00374               8.00    -4800.00
00375              16.00    -4600.00
00376               6.00    -4400.00
00377              -6.00    -4400.00
00378              -8.00    -4000.00
00379              -2.00    -4000.00
00380               8.00    -3800.00
00381               8.00    -3600.00
00382               2.00    -3200.00
00383              -6.00    -3200.00
00384              -6.00    -3000.00
00385              -2.00    -2800.00
00386               6.00    -2600.00
00387               8.00    -2400.00
00388               0.00    -2200.00
00389              -8.00    -2000.00
00390             -10.00    -2000.00
00391               0.00    -1600.00
00392               6.00    -1200.00
00393               2.00    -1200.00
00394              -2.00    -1000.00
00395              -8.00     -800.00
00396              -6.00     -600.00
00397               0.00     -400.00
00398               6.00     -200.00
00399              -2.00        0.00
00400              -6.00      200.00
00401              -2.00      200.00
00402              10.00      600.00
00403              34.00      800.00
00404              16.00     1000.00
00405             -16.00     1200.00
00406             -22.00     1200.00
00407               6.00     1600.00
00408              32.00     1800.00
00409             160.00     2000.00
00410             246.00     2400.00
00411            -130.00     2400.00
00412            -254.00     2400.00
00413            -254.00     2800.00
00414              86.00     3000.00
00415             246.00     3200.00
00416             246.00     3400.00
00417            -254.00     3200.00
00418            -254.00     3600.00
00419             246.00     4000.00
00420              -2.00     4000.00
00421              86.00     4400.00
00422            -130.00     4400.00
00423            -138.00     4400.00
00424             246.00     4800.00
00425            -112.00     5000.00
00426            -134.00     5400.00
00427               2.00     5400.00
00428              30.00     5600.00
00429             104.00     5600.00
00430             -40.00     6000.00
00431             -70.00     6200.00
00432             -98.00     6000.00
00433             120.00     6600.00
00434              26.00     6600.00
00435            -104.00     6600.00
00436              34.00     7200.00
00437             -46.00     7000.00
00438              30.00     7400.00
00439              -8.00     7400.00
00440             -64.00     7600.00
00441               0.00     7600.00
00442              40.00     8000.00
00443             -18.00     8000.00
00444             -54.00     8200.00
00445              -2.00     8400.00
00446             -26.00     8400.00
00447              18.00     8800.00
00448             -16.00     9000.00
00449             -36.00     8800.00
00450             -16.00     9200.00
00451              14.00     9200.00
00452             -18.00     9600.00
00453             -16.00     9600.00
00454             -16.00     9600.00
00455             -40.00     9800.00
00456               6.00    10000.00
00457             -14.00    10000.00
00458             -10.00    10200.00
00459             -10.00    10400.00
00460             -30.00    10400.00
00461             -38.00    10400.00
00462              -4.00    10600.00
00463               0.00    10600.00
00464             -10.00    10800.00
00465             -14.00    10800.00
00466             -38.00    10800.00
00467             -28.00    11200.00
00468              -8.00    11200.00
00469             -10.00    11200.00
00470             -10.00    11400.00
00471             -12.00    11400.00
00472             -26.00    11800.00
00473             -18.00    11600.00
00474             -16.00    11800.00
00475             -30.00    11800.00
00476             -14.00    11600.00
00477             -10.00    12000.00
00478             -18.00    12000.00
00479             -18.00    12000.00
00480             -22.00    12000.00
00481             -26.00    12200.00
00482             -16.00    12200.00
00483             -10.00    12200.00
00484             -14.00    12200.00
00485             -14.00    12400.00
00486             -24.00    12200.00
00487             -26.00    12200.00
00488             -18.00    12200.00
00489             -22.00    12400.00
00490             -14.00    12200.00
00491              -6.00    12400.00
00492             -16.00    12400.00
00493             -24.00    12400.00
00494             -26.00    12400.00
00495             -24.00    12400.00
00496             -10.00    12400.00
00497              -6.00    12400.00
00498             -16.00    12400.00
00499             -22.00    12400.00
00500             -26.00    12400.00
00501             -24.00    12200.00
00502             -16.00    12200.00
00503             -14.00    12400.00
00504              -8.00    12200.00
00505             -10.00    12200.00
00506             -30.00    12200.00
00507             -34.00    12200.00
00508             -24.00    12200.00
00509             -10.00    12200.00
00510              -8.00    12200.00
00511             -16.00    12000.00
00512             -22.00    12000.00
00513             -22.00    12000.00
00514             -24.00    12000.00
00515             -24.00    11800.00
00516             -14.00    11600.00
00517             -10.00    11800.00
00518             -14.00    11600.00
00519             -20.00    11600.00
00520             -28.00    11400.00
00521             -22.00    11400.00
00522             -14.00    11400.00
00523             -14.00    11200.00
00524             -14.00    11200.00
00525             -18.00    11000.00
00526             -22.00    11000.00
00527             -24.00    10800.00
00528             -22.00    10800.00
00529             -10.00    10600.00
00530             -10.00    10400.00
00531             -18.00    10400.00
00532             -22.00    10400.00
00533             -18.00    10200.00
00534             -16.00    10000.00
00535             -16.00    10000.00
00536             -16.00     9800.00
00537             -16.00     9600.00
00538             -10.00     9600.00
00539             -16.00     9400.00
00540             -22.00     9400.00
00541             -16.00     9200.00
00542             -14.00     9000.00
00543             -10.00     9000.00
00544             -12.00     8800.00
00545             -16.00     8600.00
00546             -16.00     8400.00
00547             -16.00     8200.00
00548             -16.00     8200.00
00549              -8.00     8000.00
00550              -8.00     7800.00
00551             -14.00     7800.00
00552             -16.00     7600.00
00553             -18.00     7400.00
00554             -14.00     7400.00
00555              -8.00     7200.00
00556             -10.00     7000.00
00557             -10.00     6800.00
00558             -12.00     6600.00
00559             -16.00     6600.00
00560             -10.00     6000.00
00561             -10.00     6200.00
00562             -10.00     5800.00
00563              -8.00     5800.00
00564              -8.00     5600.00
00565             -10.00     5400.00
00566             -10.00     5200.00
00567             -14.00     5000.00
00568             -16.00     4800.00
00569              -8.00     4800.00
00570              -6.00     4200.00
00571              -2.00     4400.00
00572              -8.00     4000.00
00573             -16.00     4000.00
00574             -14.00     3600.00
00575              -8.00     3400.00
00576              -8.00     3200.00
00577              -8.00     3000.00
00578              -8.00     2800.00
00579              -2.00     2600.00
00580              -6.00     2600.00
00581             -18.00     2400.00
00582             -16.00     2000.00
00583               0.00     1800.00
00584               8.00     1600.00
00585              -8.00     1600.00
00586             -22.00     1400.00
00587             -10.00     1200.00
00588               2.00     1000.00
00589              -8.00      800.00
00590             -14.00      400.00
00591               2.00      200.00
00592               6.00      200.00
00593               0.00        0.00
00594               6.00     -200.00
00595              20.00     -400.00
00596               6.00     -600.00
00597             -14.00     -800.00
00598              -6.00    -1000.00
00599              16.00    -1200.00
00600              16.00    -1200.00
00601              80.00    -1400.00
00602             246.00    -1600.00
00603              86.00    -2400.00
00604            -254.00    -2400.00
00605            -254.00    -2600.00
00606              34.00    -2600.00
00607             194.00    -2600.00
00608             246.00    -2800.00
00609             106.00    -3200.00
00610            -254.00    -3000.00
00611              18.00    -3600.00
00612             246.00    -4000.00
00613               0.00    -3600.00
00614              -8.00    -4400.00
00615            -142.00    -4000.00
00616              96.00    -4400.00
00617             116.00    -4800.00
00618             -94.00    -4600.00
00619             -80.00    -5200.00
00620             -50.00    -5000.00
00621             174.00    -5400.00
00622              54.00    -5400.00
00623            -102.00    -5600.00
00624             -42.00    -6200.00
00625             -16.00    -6000.00
00626             122.00    -6400.00
00627              16.00    -6400.00
00628             -50.00    -6400.00
00629             -10.00    -7000.00
00630              18.00    -6800.00
00631              38.00    -7200.00
00632             -32.00    -7200.00
00633              16.00    -7200.00
00634              16.00    -7600.00
00635              14.00    -7600.00
00636              10.00    -8000.00
00637             -34.00    -7800.00
00638              26.00    -8400.00
00639              32.00    -8400.00
00640              -8.00    -8400.00
00641             -14.00    -8600.00
00642               6.00    -8800.00
00643              22.00    -8800.00
00644              24.00    -9000.00
00645               0.00    -9200.00
00646             -18.00    -9400.00
00647               8.00    -9200.00
00648              24.00    -9600.00
00649               8.00    -9600.00
00650              10.00    -9600.00
00651               2.00   -10000.00
00652               0.00   -10000.00
00653              14.00   -10000.00
00654               2.00   -10200.00
00655              16.00   -10200.00
00656              26.00   -10400.00
00657              12.00   -10600.00
00658               0.00   -10800.00
00659               0.00   -10800.00
00660               0.00   -10800.00
00661              12.00   -11000.00
00662              22.00   -11000.00
00663              16.00   -11000.00
00664              10.00   -11200.00
00665               8.00   -11200.00
00666               2.00   -11200.00
00667              10.00   -11200.00
00668              16.00   -11200.00
00669              16.00   -11400.00
00670              18.00   -11600.00
00671              12.00   -11600.00
00672              -2.00   -11600.00
00673               8.00   -11800.00
00674              16.00   -11600.00
00675              14.00   -11800.00
00676              18.00   -11800.00
00677              14.00   -11800.00
00678               6.00   -12000.00
00679               8.00   -12000.00
00680              10.00   -12000.00
00681              10.00   -11800.00
00682              16.00   -12000.00
00683              14.00   -12000.00
00684              18.00   -12000.00
00685              14.00   -11800.00
00686               4.00   -12000.00
00687               6.00   -12000.00
00688              16.00   -12000.00
00689              16.00   -12000.00
00690              16.00   -12000.00
00691              14.00   -12000.00
00692               6.00   -12000.00
00693               8.00   -11800.00
00694              14.00   -11800.00
00695              16.00   -11800.00
00696              22.00   -11800.00
00697              14.00   -12000.00
00698               6.00   -11800.00
00699              10.00   -11800.00
00700               8.00   -11800.00
00701              10.00   -11800.00
00702              16.00   -11600.00
00703              16.00   -11600.00
00704              14.00   -11600.00
00705               8.00   -11600.00
00706               2.00   -11600.00
00707               8.00   -11400.00
00708              16.00   -11400.00
00709              16.00   -11200.00
00710              10.00   -11200.00
00711               8.00   -11200.00
00712               6.00   -11000.00
00713              10.00   -11000.00
00714               8.00   -10800.00
00715              14.00   -10800.00
00716              16.00   -10800.00
00717              12.00   -10400.00
00718               8.00   -10600.00
00719               0.00   -10400.00
00720               2.00   -10400.00
00721              14.00   -10200.00
00722              12.00   -10000.00
00723              12.00   -10000.00
00724               8.00   -10000.00
00725               6.00    -9800.00
00726               4.00    -9600.00
00727               6.00    -9600.00
00728               8.00    -9400.00
00729              14.00    -9400.00
00730              14.00    -9200.00
00731               8.00    -8800.00
00732               6.00    -8800.00
00733               2.00    -8800.00
00734               8.00    -8800.00
00735              10.00    -8600.00
00736              10.00    -8400.00
00737              10.00    -8200.00
00738               6.00    -8000.00
00739               0.00    -7800.00
00740               6.00    -7800.00
00741               8.00    -7600.00
00742              10.00    -7400.00
00743              10.00    -7200.00
00744               6.00    -7200.00
00745               2.00    -7000.00
00746               2.00    -7000.00
00747               2.00    -6800.00
00748               8.00    -6400.00
00749              10.00    -6400.00
00750               8.00    -6000.00
00751               4.00    -6000.00
00752               0.00    -5800.00
00753               0.00    -5600.00
00754               6.00    -5400.00
00755               4.00    -5400.00
00756               6.00    -5200.00
00757               8.00    -4800.00
00758               2.00    -4600.00
00759               0.00    -4600.00
00760              -2.00    -4400.00
00761               0.00    -4200.00
00762               6.00    -4000.00
00763               6.00    -3800.00
00764               2.00    -3600.00
00765              -2.00    -3200.00
00766              -2.00    -3200.00
00767               0.00    -3000.00
00768               0.00    -2800.00
00769               2.00    -2800.00
00770               0.00    -2400.00
00771              -2.00    -2400.00
00772              -2.00    -2400.00
00773              -4.00    -2000.00
00774              -2.00    -1600.00
00775              -2.00    -1400.00
00776               0.00    -1400.00
00777               0.00    -1000.00
00778              -2.00     -800.00
00779              -6.00     -800.00
00780              -8.00     -600.00
00781              -4.00     -400.00
00782               0.00        0.00
00783               0.00        0.00
00784               0.00      200.00
00785               0.00      400.00
00786              18.00      800.00
00787              30.00     1000.00
00788               0.00     1000.00
00789             -18.00     1200.00
00790             -10.00     1400.00
00791              16.00     1600.00
00792              56.00     1800.00
00793             246.00     2000.00
00794             210.00     2400.00
00795            -254.00     2400.00
00796            -254.00     2600.00
00797            -112.00     2800.00
00798             246.00     3000.00
00799             246.00     3200.00
00800             -12.00     3400.00
00801            -254.00     3400.00
00802             150.00     3800.00
00803             246.00     4000.00
00804             -30.00     4000.00
00805              70.00     4400.00
00806            -254.00     4400.00
00807             122.00     4600.00
00808             160.00     4800.00
00809            -216.00     5200.00
00810             -26.00     5400.00
00811              -6.00     5600.00
00812              94.00     5800.00
00813              38.00     5600.00
00814             -64.00     6000.00
00815             -96.00     6000.00
00816             -10.00     6400.00
00817             146.00     6800.00
00818             -96.00     6600.00
00819             -30.00     6800.00
00820               6.00     7200.00
00821             -24.00     7200.00
00822              48.00     7400.00
00823             -58.00     7600.00
00824             -40.00     7600.00
00825              22.00     7800.00
00826              32.00     8200.00
00827             -50.00     8000.00
00828             -22.00     8400.00
00829             -16.00     8400.00
00830             -10.00     8400.00
00831              16.00     8800.00
00832             -34.00     9000.00
00833             -30.00     9000.00
00834              -4.00     9200.00
00835               6.00     9400.00
00836             -26.00     9400.00
00837               0.00     9600.00
00838             -40.00     9600.00
00839             -22.00     9800.00
00840               2.00    10000.00
00841             -18.00    10000.00
00842              -2.00    10200.00
00843             -16.00    10400.00
00844             -40.00    10400.00
00845             -26.00    10400.00
00846               6.00    10600.00
00847             -10.00    10800.00
00848              -8.00    10800.00
00849             -22.00    11200.00
00850             -34.00    10800.00
00851             -18.00    11200.00
00852             -10.00    11200.00
00853             -16.00    11400.00
00854             -10.00    11400.00
00855             -16.00    11400.00
00856             -26.00    11400.00
00857             -14.00    11600.00
00858             -24.00    11800.00
00859             -22.00    11800.00
00860              -6.00    11800.00
00861             -12.00    11800.00
00862             -22.00    12000.00
00863             -20.00    12200.00
00864             -26.00    12000.00
00865             -20.00    12200.00
00866             -10.00    12200.00
00867             -16.00    12200.00
00868             -16.00    12200.00
00869             -18.00    12200.00
00870             -26.00    12200.00
00871             -18.00    12400.00
00872             -16.00    12400.00
00873             -18.00    12400.00
00874              -8.00    12400.00
00875             -10.00    12600.00
00876             -24.00    12400.00
00877             -24.00    12400.00
00878             -22.00    12400.00
00879             -14.00    12400.00
00880             -14.00    12400.00
00881             -16.00    12600.00
00882             -18.00    12400.00
00883             -16.00    12400.00
00884             -20.00    12400.00
00885             -24.00    12400.00
00886             -18.00    12400.00
00887             -10.00    12200.00
00888              -8.00    12400.00
00889             -16.00    12200.00
00890             -28.00    12200.00
00891             -26.00    12200.00
00892             -18.00    12200.00
00893             -10.00    12200.00
00894             -10.00    12200.00
00895             -16.00    12000.00
00896             -20.00    12000.00
00897             -24.00    12000.00
00898             -24.00    12000.00
00899             -14.00    11800.00
00900             -14.00    11600.00
00901             -16.00    11800.00
00902             -22.00    11600.00
00903             -22.00    11400.00
00904             -22.00    11400.00
00905             -22.00    11400.00
00906             -12.00    11200.00
00907              -6.00    11400.00
00908             -14.00    11200.00
00909             -26.00    11000.00
00910             -30.00    10800.00
00911             -22.00    10800.00
00912             -10.00    10800.00
00913             -10.00    10400.00
00914             -12.00    10400.00
00915             -14.00    10400.00
00916             -20.00    10200.00
00917             -26.00    10200.00
00918             -22.00     9800.00
00919             -14.00    10000.00
00920              -8.00     9800.00
00921              -8.00     9600.00
00922             -24.00     9600.00
00923             -24.00     9400.00
00924             -22.00     9200.00
00925             -16.00     9200.00
00926             -14.00     8800.00
00927             -10.00     9000.00
00928             -14.00     8600.00
00929             -14.00     8600.00
00930             -18.00     8400.00
00931             -18.00     8400.00
00932             -14.00     8000.00
00933             -10.00     8000.00
00934             -10.00     7800.00
00935             -14.00     7600.00
00936             -16.00     7600.00
00937             -16.00     7400.00
00938             -10.00     7200.00
00939             -16.00     7000.00
00940              -8.00     6800.00
00941              -6.00     6600.00
00942             -14.00     6400.00
00943             -14.00     6400.00
00944             -14.00     6000.00
00945             -10.00     5800.00
00946              -4.00     5800.00
00947             -10.00     5600.00
00948             -12.00     5400.00
00949             -10.00     5400.00
00950             -14.00     5200.00
00951             -14.00     5000.00
00952             -10.00     4600.00
00953              -6.00     4400.00
00954              -2.00     4400.00
00955              -8.00     4200.00
00956             -14.00     4000.00
00957             -10.00     3800.00
00958              -6.00     3400.00
00959              -4.00     3400.00
00960              -8.00     3200.00
00961             -10.00     3000.00
00962              -8.00     2800.00
00963              -6.00     2600.00
00964             -10.00     2400.00
00965             -10.00     2200.00
00966              -8.00     2000.00
00967              -6.00     1800.00
00968              -2.00     1600.00
00969              -6.00     1400.00
00970              -8.00     1200.00
00971             -10.00     1200.00
00972             -10.00      800.00
00973              -6.00      800.00
00974               2.00      600.00
00975               2.00      200.00
00976               0.00        0.00
00977               0.00        0.00
00978              26.00     -400.00
00979              22.00     -400.00
00980             -10.00     -600.00
00981             -24.00     -800.00
00982              -2.00     -800.00
00983              16.00    -1200.00
00984              40.00    -1400.00
00985             176.00    -1400.00
00986             246.00    -2000.00
00987            -176.00    -2400.00
00988            -254.00    -2400.00
00989            -200.00    -2600.00
00990             158.00    -2600.00
00991             246.00    -2400.00
00992             246.00    -3000.00
00993            -254.00    -3400.00
00994            -254.00    -3200.00
00995             246.00    -4000.00
00996             118.00    -3600.00
00997               8.00    -3800.00
00998             -88.00    -4400.00
00999             -74.00    -4000.00
01000             178.00    -4800.00
01001              -6.00    -4600.00
01002             -96.00    -4800.00
01003             -86.00    -5000.00
01004              48.00    -5200.00
01005             180.00    -5600.00
01006             -64.00    -5200.00
01007             -66.00    -6000.00
01008             -40.00    -6000.00
01009              54.00    -6000.00
01010             100.00    -6600.00
01011             -50.00    -6200.00
01012             -24.00    -6800.00
01013              -2.00    -6800.00
01014              54.00    -6800.00
01015              -2.00    -7200.00
01016             -32.00    -7200.00
01017              24.00    -7600.00
01018              16.00    -7400.00
01019              34.00    -7800.00
01020             -16.00    -7800.00
01021             -18.00    -8000.00
01022              34.00    -8400.00
01023              18.00    -8400.00
01024              -4.00    -8600.00
01025              -2.00    -8600.00
01026               8.00    -8800.00
01027              18.00    -9200.00
01028              18.00    -9200.00
01029               2.00    -9200.00
01030              -6.00    -9400.00
01031              14.00    -9400.00
01032              14.00    -9600.00
01033               8.00    -9600.00
01034              16.00    -9800.00
01035               2.00   -10000.00
01036               6.00   -10000.00
01037               8.00   -10000.00
01038               2.00   -10400.00
01039              22.00   -10200.00
01040              22.00   -10400.00
01041               2.00   -10800.00
01042              -2.00   -10800.00
01043               2.00   -10800.00
01044               8.00   -10800.00
01045              22.00   -11000.00
01046              16.00   -11000.00
01047               6.00   -11200.00
01048              10.00   -11200.00
01049               8.00   -11200.00
01050               2.00   -11400.00
01051              14.00   -11400.00
01052              12.00   -11600.00
01053              16.00   -11600.00
01054              16.00   -11600.00
01055               6.00   -11800.00
01056               0.00   -11600.00
01057              12.00   -11800.00
01058              14.00   -11800.00
01059              16.00   -11800.00
01060              22.00   -11800.00
01061              10.00   -12000.00
01062               6.00   -12000.00
01063               8.00   -12000.00
01064               6.00   -12000.00
01065              16.00   -12000.00
01066              20.00   -12000.00
01067              14.00   -12000.00
01068              14.00   -12000.00
01069               8.00   -12000.00
01070               6.00   -12000.00
01071              14.00   -12000.00
01072              18.00   -12000.00
01073              16.00   -12000.00
01074              14.00   -12000.00
01075              10.00   -11800.00
01076               6.00   -12000.00
01077               8.00   -12000.00
01078              14.00   -11800.00
01079              18.00   -11800.00
01080              18.00   -12000.00
01081              12.00   -11800.00
01082               8.00   -11800.00
01083               6.00   -11800.00
01084              10.00   -11800.00
01085              16.00   -11600.00
01086              18.00   -11600.00
01087              16.00   -11600.00
01088               8.00   -11600.00
01089               6.00   -11600.00
01090               8.00   -11400.00
01091              14.00   -11200.00
01092              16.00   -11200.00
01093              14.00   -11200.00
01094               8.00   -11200.00
01095              10.00   -11200.00
01096               8.00   -11000.00
01097               6.00   -10800.00
01098              10.00   -10800.00
01099              14.00   -10800.00
01100              14.00   -10800.00
01101              10.00   -10600.00
01102               4.00   -10600.00
01103               6.00   -10400.00
01104              10.00   -10400.00
01105              14.00   -10200.00
01106              10.00   -10000.00
01107               8.00   -10000.00
01108               6.00    -9800.00
01109               8.00    -9600.00
01110               8.00    -9600.00
01111               8.00    -9400.00
01112               8.00    -9400.00
01113              14.00    -9200.00
01114               8.00    -9200.00
01115               6.00    -9000.00
01116               2.00    -8800.00
01117               2.00    -8800.00
01118               8.00    -8800.00
01119              10.00    -8400.00
01120              10.00    -8400.00
01121               6.00    -8000.00
01122               2.00    -8000.00
01123               6.00    -7800.00
01124              10.00    -7800.00
01125               6.00    -7400.00
01126               6.00    -7200.00
01127               8.00    -7200.00
01128               6.00    -7000.00
01129               2.00    -6800.00
01130               0.00    -6800.00
01131               6.00    -6400.00
01132               8.00    -6400.00
01133              10.00    -6200.00
01134               6.00    -6000.00
01135               0.00    -6000.00
01136              -2.00    -5600.00
01137               0.00    -5600.00
01138               6.00    -5400.00
01139               6.00    -5200.00
01140               8.00    -4800.00
01141               2.00    -4800.00
01142               0.00    -4600.00
01143               0.00    -4400.00
01144               0.00    -4200.00
01145               8.00    -4000.00
01146               8.00    -3800.00
01147               4.00    -3600.00
01148               0.00    -3600.00
01149              -2.00    -3200.00
01150               0.00    -3000.00
01151               6.00    -3000.00
01152               2.00    -2800.00
01153               0.00    -2600.00
01154               0.00    -2400.00
01155               0.00    -2200.00
01156              -2.00    -2200.00
01157              -2.00    -1800.00
01158               0.00    -1600.00
01159               0.00    -1400.00
01160              -2.00    -1000.00
01161              -6.00    -1000.00
01162               0.00     -800.00
01163              -4.00     -600.00
01164              -8.00     -400.00
01165              -2.00     -400.00
01166               0.00        0.00
01167               0.00      200.00
01168              -2.00      400.00
01169               2.00      600.00
01170              32.00      800.00
01171              20.00     1000.00
01172             -16.00     1000.00
01173             -22.00     1200.00
01174               6.00     1400.00
01175              24.00     1600.00
01176             136.00     2000.00
01177             246.00     2400.00
01178             -64.00     2400.00
01179            -254.00     2400.00
01180            -254.00     2600.00
01181              58.00     2800.00
01182             246.00     3200.00
01183             246.00     3400.00
01184            -254.00     3200.00
01185            -254.00     3600.00
01186             246.00     4000.00
01187              34.00     3800.00
01188              56.00     4400.00
01189            -104.00     4400.00
01190            -176.00     4400.00
01191             246.00     4800.00
01192             -64.00     5000.00
01193            -160.00     5400.00
01194               0.00     5200.00
01195              18.00     5800.00
01196             112.00     5600.00
01197             -34.00     5800.00
01198             -70.00     6400.00
01199             -98.00     6000.00
01200             114.00     6600.00
01201              56.00     6600.00
01202            -128.00     6600.00
01203              18.00     7200.00
01204             -34.00     7000.00
01205              40.00     7600.00
01206              14.00     7400.00
01207             -74.00     7600.00
01208             -14.00     7600.00
01209              40.00     8000.00
01210              -2.00     8000.00
01211             -56.00     8000.00
01212               0.00     8400.00
01213             -24.00     8400.00
01214              18.00     8800.00
01215              -8.00     8800.00
01216             -48.00     9000.00
01217             -22.00     9200.00
01218              22.00     9400.00
01219              -6.00     9200.00
01220             -26.00     9400.00
01221             -18.00     9800.00
01222             -32.00     9800.00
01223              18.00    10000.00
01224             -18.00    10000.00
01225             -32.00    10000.00
01226              -6.00    10200.00
01227             -10.00    10400.00
01228             -32.00    10400.00
01229             -10.00    10600.00
01230              -6.00    10600.00
01231             -18.00    10600.00
01232             -10.00    10800.00
01233             -30.00    11000.00
01234             -18.00    11200.00
01235              -2.00    11200.00
01236             -16.00    11200.00
01237             -18.00    11200.00
01238             -14.00    11400.00
01239             -30.00    11400.00
01240             -18.00    11600.00
01241              -2.00    11800.00
01242             -24.00    11800.00
01243             -18.00    11800.00
01244             -14.00    12000.00
01245             -22.00    12000.00
01246             -16.00    12000.00
01247             -16.00    12200.00
01248             -28.00    12200.00
01249             -26.00    12200.00
01250             -14.00    12200.00
01251              -8.00    12200.00
01252              -4.00    12400.00
01253             -18.00    12400.00
01254             -34.00    12200.00
01255             -30.00    12400.00
01256             -18.00    12400.00
01257              -2.00    12400.00
01258               0.00    12400.00
01259             -22.00    12400.00
01260             -42.00    12400.00
01261             -34.00    12400.00
01262             -16.00    12400.00
01263               0.00    12400.00
01264              -2.00    12400.00
01265             -22.00    12400.00
01266             -30.00    12400.00
01267             -22.00    12400.00
01268             -24.00    12400.00
01269             -14.00    12400.00
01270             -10.00    12200.00
01271             -14.00    12400.00
01272             -22.00    12200.00
01273             -30.00    12400.00
01274             -20.00    12200.00
01275              -6.00    12200.00
01276             -10.00    12200.00
01277             -26.00    12200.00
01278             -26.00    12000.00
01279             -14.00    12000.00
01280              -8.00    12000.00
01281             -16.00    12000.00
01282             -26.00    12000.00
01283             -26.00    11800.00
01284             -16.00    11800.00
01285             -10.00    11600.00
01286              -8.00    11600.00
01287             -16.00    11600.00
01288             -24.00    11400.00
01289             -26.00    11200.00
01290             -22.00    11400.00
01291             -14.00    11200.00
01292             -12.00    11000.00
01293             -16.00    10800.00
01294             -22.00    10800.00
01295             -22.00    10800.00
01296             -18.00    10600.00
01297             -16.00    10600.00
01298             -12.00    10400.00
01299             -14.00    10400.00
01300             -16.00    10200.00
01301             -20.00    10000.00
01302             -24.00     9800.00
01303             -22.00     9800.00
01304             -10.00     9800.00
01305             -10.00     9600.00
01306             -16.00     9400.00
01307             -22.00     9400.00
01308             -22.00     9200.00
01309             -16.00     9000.00
01310              -8.00     8800.00
01311             -10.00     8800.00
01312             -16.00     8600.00
01313             -20.00     8400.00
01314             -14.00     8400.00
01315             -14.00     8200.00
01316             -16.00     8000.00
01317             -16.00     8000.00
01318             -14.00     7600.00
01319             -10.00     7600.00
01320             -10.00     7400.00
01321             -16.00     7200.00
01322             -12.00     7200.00
01323             -10.00     6800.00
01324             -10.00     6800.00
01325             -12.00     6600.00
01326             -14.00     6400.00
01327             -14.00     6200.00
01328             -10.00     6000.00
01329             -10.00     6000.00
01330              -8.00     5800.00
01331             -10.00     5600.00
01332             -10.00     5400.00
01333              -8.00     5400.00
01334             -10.00     5000.00
01335             -10.00     4800.00
01336             -10.00     4600.00
01337             -10.00     4400.00
01338              -6.00     4200.00
01339              -6.00     4000.00
01340             -10.00     4000.00
01341             -10.00     3600.00
01342             -14.00     3400.00
01343              -8.00     3400.00
01344              -2.00     3200.00
01345              -2.00     2800.00
01346              -8.00     2800.00
01347             -10.00     2600.00
01348             -10.00     2400.00
01349              -8.00     2000.00
01350              -2.00     1800.00
01351              -6.00     1800.00
01352              -6.00     1600.00
01353             -10.00     1200.00
01354              -6.00     1000.00
01355             -10.00     1200.00
01356              -4.00      800.00
01357              -2.00      600.00
01358               0.00      400.00
01359               0.00      200.00
01360              -2.00        0.00
01361              14.00        0.00
01362              30.00     -400.00
01363               6.00     -600.00
01364             -22.00     -800.00
01365             -14.00     -800.00
01366              14.00     -800.00
01367              24.00    -1200.00
01368              78.00    -1400.00
01369             246.00    -1600.00
01370             122.00    -2200.00
01371            -254.00    -2400.00
01372            -254.00    -2600.00
01373               6.00    -2400.00
01374             190.00    -2600.00
01375             246.00    -2800.00
01376             176.00    -3200.00
01377            -254.00    -3200.00
01378             -48.00    -3400.00
01379             246.00    -4000.00
01380               8.00    -3200.00
01381               8.00    -4200.00
01382            -138.00    -4200.00
01383              64.00    -4400.00
01384             130.00    -4800.00
01385             -90.00    -4600.00
01386             -78.00    -5200.00
01387             -58.00    -4800.00
01388             160.00    -5400.00
01389              78.00    -5400.00
01390            -104.00    -5600.00
01391             -40.00    -6200.00
01392             -18.00    -5600.00
01393             116.00    -6400.00
01394              24.00    -6200.00
01395             -62.00    -6400.00
01396             -10.00    -6800.00
01397              22.00    -6800.00
01398              48.00    -7200.00
01399             -34.00    -7200.00
01400               2.00    -7200.00
01401              22.00    -7600.00
01402              22.00    -7800.00
01403              22.00    -7800.00
01404             -38.00    -8000.00
01405              14.00    -8400.00
01406              40.00    -8400.00
01407               6.00    -8400.00
01408             -10.00    -8600.00
01409               0.00    -8600.00
01410              14.00    -8800.00
01411              24.00    -9000.00
01412              16.00    -9200.00
01413             -10.00    -9200.00
01414               2.00    -9400.00
01415              16.00    -9600.00
01416               6.00    -9600.00
01417              14.00    -9600.00
01418              16.00    -9600.00
01419               0.00   -10000.00
01420              10.00   -10200.00
01421              -2.00   -10200.00
01422              10.00   -10200.00
01423              30.00   -10400.00
01424              16.00   -10600.00
01425               0.00   -10400.00
01426              -2.00   -10800.00
01427               6.00   -10800.00
01428              14.00   -10800.00
01429              24.00   -11000.00
01430              12.00   -11200.00
01431               6.00   -11200.00
01432               8.00   -11200.00
01433               2.00   -11200.00
01434               8.00   -11200.00
01435              16.00   -11400.00
01436              16.00   -11600.00
01437              18.00   -11600.00
01438              10.00   -11600.00
01439               0.00   -11600.00
01440               6.00   -11600.00
01441              14.00   -11800.00
01442              12.00   -11800.00
01443              16.00   -11800.00
01444              14.00   -11800.00
01445               6.00   -12000.00
01446               6.00   -11800.00
01447               6.00   -12000.00
01448               8.00   -11800.00
01449              20.00   -12000.00
01450              18.00   -12000.00
01451              14.00   -12000.00
01452              10.00   -12000.00
01453               0.00   -12000.00
01454               8.00   -12000.00
01455              16.00   -12000.00
01456              16.00   -12000.00
01457              18.00   -11800.00
01458              14.00   -12000.00
01459               6.00   -12000.00
01460               6.00   -12000.00
01461              12.00   -11800.00
01462              14.00   -11800.00
01463              16.00   -11800.00
01464              16.00   -11800.00
01465               8.00   -11800.00
01466               6.00   -11800.00
01467               8.00   -11600.00
01468               8.00   -11800.00
01469              18.00   -11600.00
01470              16.00   -11600.00
01471              16.00   -11600.00
01472               8.00   -11600.00
01473               8.00   -11600.00
01474              10.00   -11200.00
01475              14.00   -11400.00
01476              16.00   -11200.00
01477              14.00   -11200.00
01478              10.00   -11000.00
01479               8.00   -11000.00
01480               6.00   -11000.00
01481              14.00   -11000.00
01482              14.00   -10800.00
01483              16.00   -10800.00
01484              10.00   -10800.00
01485               8.00   -10600.00
01486               6.00   -10400.00
01487               6.00   -10400.00
01488               8.00   -10200.00
01489              10.00   -10000.00
01490              14.00   -10000.00
01491               8.00   -10000.00
01492               6.00    -9600.00
01493               6.00    -9600.00
01494               6.00    -9600.00
01495               8.00    -9400.00
01496               8.00    -9400.00
01497              10.00    -9200.00
01498               6.00    -9000.00
01499               2.00    -8800.00
01500               2.00    -8800.00
01501               2.00    -8600.00
01502               8.00    -8400.00
01503              12.00    -8400.00
01504               8.00    -8000.00
01505               6.00    -8000.00
01506               2.00    -8000.00
01507               2.00    -7800.00
01508               6.00    -7600.00
01509               8.00    -7400.00
01510               8.00    -7200.00
01511               6.00    -7000.00
01512               6.00    -7000.00
01513               4.00    -7000.00
01514               8.00    -6600.00
01515               8.00    -6800.00
01516               6.00    -6400.00
01517               6.00    -6200.00
01518               6.00    -6200.00
01519               0.00    -5600.00
01520               0.00    -5600.00
01521               0.00    -5400.00
01522               4.00    -5200.00
01523               8.00    -5200.00
01524               8.00    -4800.00
01525               4.00    -4800.00
01526               0.00    -4600.00
01527               0.00    -4400.00
01528               2.00    -4200.00
01529               6.00    -4000.00
01530               6.00    -3800.00
01531               2.00    -3600.00
01532               0.00    -3400.00
01533              -4.00    -3200.00
01534               0.00    -3000.00
01535               6.00    -3000.00
01536               6.00    -2600.00
01537               2.00    -2400.00
01538               0.00    -2400.00
01539              -2.00    -2000.00
01540               0.00    -2000.00
01541               0.00    -1800.00
01542               0.00    -1600.00
01543               0.00    -1400.00
01544               0.00    -1000.00
01545               2.00     -800.00
01546              -2.00     -800.00
01547              -6.00     -400.00
01548              -6.00     -200.00
01549               0.00     -200.00
01550               6.00        0.00
01551               2.00      200.00
01552               0.00      600.00
01553              14.00      600.00
01554              30.00      800.00
01555               6.00     1000.00
01556             -22.00     1200.00
01557             -10.00     1400.00
01558              14.00     1600.00
01559              52.00     1800.00
01560             246.00     2000.00
01561             246.00     2400.00
01562            -254.00     2400.00
01563            -254.00     2600.00
01564            -150.00     2800.00
01565             230.00     2800.00
01566             246.00     3400.00
01567             104.00     3400.00
01568            -254.00     3400.00
01569              66.00     3800.00
01570             246.00     3800.00
01571             -40.00     4000.00
01572              86.00     4600.00
01573            -254.00     4400.00
01574              74.00     4400.00
01575             204.00     4800.00
01576            -214.00     5000.00
01577             -50.00     5400.00
01578              -8.00     5600.00
01579              88.00     5600.00
01580              62.00     5600.00
01581             -60.00     6000.00
01582             -90.00     6000.00
01583             -42.00     6200.00
01584             148.00     6600.00
01585             -76.00     6600.00
01586             -42.00     6800.00
01587              18.00     7200.00
01588             -30.00     7000.00
01589              48.00     7400.00
01590             -50.00     7400.00
01591             -46.00     7800.00
01592              20.00     7600.00
01593              40.00     8000.00
01594             -48.00     8200.00
01595             -30.00     8200.00
01596             -10.00     8400.00
01597             -10.00     8600.00
01598              24.00     8800.00
01599             -34.00     8800.00
01600             -38.00     9000.00
01601             -10.00     9200.00
01602              16.00     9400.00
01603             -14.00     9400.00
01604               0.00     9600.00
01605             -38.00     9600.00
01606             -30.00     9600.00
01607               2.00    10000.00
01608             -18.00    10000.00
01609               0.00    10200.00
01610              -6.00    10400.00
01611             -32.00    10400.00
01612             -34.00    10400.00
01613              -2.00    10600.00
01614             -10.00    10800.00
01615              -2.00    10800.00
01616             -14.00    10800.00
01617             -40.00    11000.00
01618             -22.00    11000.00
01619              -8.00    11200.00
01620              -8.00    11400.00
01621              -8.00    11400.00
01622             -22.00    11600.00
01623             -32.00    11600.00
01624             -10.00    11800.00
01625             -18.00    11800.00
01626             -26.00    11600.00
01627              -6.00    11800.00
01628             -10.00    12000.00
01629             -16.00    12000.00
01630             -22.00    12000.00
01631             -34.00    12000.00
01632             -26.00    12200.00
01633              -8.00    12200.00
01634              -6.00    12200.00
01635             -12.00    12200.00
01636             -24.00    12400.00
01637             -32.00    12400.00
01638             -18.00    12400.00
01639              -6.00    12400.00
01640             -18.00    12400.00
01641             -18.00    12400.00
01642             -22.00    12200.00
01643             -24.00    12400.00
01644             -18.00    12400.00
01645             -16.00    12400.00
01646             -18.00    12400.00
01647             -18.00    12400.00
01648             -16.00    12400.00
01649             -16.00    12400.00
01650             -16.00    12400.00
01651             -20.00    12400.00
01652             -26.00    12400.00
01653             -22.00    12400.00
01654             -18.00    12200.00
01655             -16.00    12200.00
01656             -10.00    12400.00
01657             -16.00    12200.00
01658             -26.00    12200.00
01659             -24.00    12200.00
01660             -22.00    12200.00
01661             -10.00    12200.00
01662             -10.00    12000.00
01663             -18.00    12000.00
01664             -26.00    12000.00
01665             -22.00    11800.00
01666             -16.00    11800.00
01667             -10.00    12000.00
01668             -14.00    11600.00
01669             -22.00    11800.00
01670             -18.00    11600.00
01671             -16.00    11400.00
01672             -18.00    11400.00
01673             -18.00    11200.00
01674             -18.00    11200.00
01675             -14.00    11200.00
01676             -10.00    11200.00
01677             -16.00    10800.00
01678             -24.00    10800.00
01679             -22.00    10800.00
01680             -14.00    10600.00
01681             -10.00    10400.00
01682             -16.00    10400.00
01683             -18.00    10200.00
01684             -22.00    10200.00
01685             -22.00    10000.00
01686             -14.00    10000.00
01687             -14.00     9800.00
01688             -14.00     9800.00
01689             -16.00     9400.00
01690             -18.00     9200.00
01691             -18.00     9200.00
01692             -22.00     9200.00
01693             -16.00     9000.00
01694             -10.00     8800.00
01695              -8.00     8800.00
01696             -14.00     8400.00
01697             -22.00     8400.00
01698             -18.00     8200.00
01699             -14.00     8200.00
01700             -14.00     8000.00
01701             -14.00     7800.00
01702             -10.00     7600.00
01703              -2.00     7400.00
01704             -14.00     7400.00
01705             -22.00     7200.00
01706             -22.00     6800.00
01707             -14.00     6800.00
01708              -2.00     6600.00
01709              -6.00     6400.00
01710             -16.00     6400.00
01711             -16.00     6200.00
01712             -16.00     6000.00
01713              -8.00     6000.00
01714              -6.00     5800.00
01715              -8.00     5600.00
01716             -12.00     5400.00
01717             -12.00     5000.00
01718             -14.00     5000.00
01719             -10.00     4600.00
01720              -6.00     4400.00
01721              -4.00     4400.00
01722             -10.00     4200.00
01723             -10.00     4000.00
01724             -10.00     4000.00
01725             -10.00     3600.00
01726              -8.00     3600.00
01727               0.00     3400.00
01728               2.00     3000.00
01729              -8.00     2800.00
01730             -16.00     2600.00
01731             -10.00     2400.00
01732              -6.00     2200.00
01733              -4.00     2000.00
01734              -4.00     1800.00
01735              -2.00     1600.00
01736              -6.00     1600.00
01737              -8.00     1200.00
01738             -10.00     1000.00
01739              -2.00     1000.00
01740               2.00      800.00
01741               4.00      400.00
01742              -4.00      200.00
01743              -8.00      200.00
01744              -2.00        0.00
01745              30.00     -400.00
01746              32.00     -400.00
01747              -2.00     -600.00
01748             -24.00     -800.00
01749              -6.00     -800.00
01750              14.00    -1200.00
01751              32.00    -1400.00
01752             160.00    -1600.00
01753             246.00    -1800.00
01754            -126.00    -2400.00
01755            -254.00    -2400.00
01756            -248.00    -2600.00
01757             144.00    -2600.00
01758             234.00    -2400.00
01759             246.00    -3000.00
01760            -192.00    -3200.00
01761            -254.00    -3000.00
01762             230.00    -3800.00
01763             158.00    -3600.00
01764              10.00    -3600.00
01765             -74.00    -4400.00
01766            -110.00    -4000.00
01767             166.00    -4800.00
01768              28.00    -4800.00
01769             -88.00    -4800.00
01770             -80.00    -5200.00
01771              16.00    -5000.00
01772             180.00    -5600.00
01773             -40.00    -5200.00
01774             -72.00    -6000.00
01775             -42.00    -6000.00
01776              40.00    -6000.00
01777             114.00    -6400.00
01778             -40.00    -6200.00
01779             -38.00    -6800.00
01780             -10.00    -6800.00
01781              48.00    -6800.00
01782              10.00    -7200.00
01783             -32.00    -7000.00
01784              22.00    -7600.00
01785              12.00    -7400.00
01786              36.00    -7800.00
01787             -10.00    -8000.00
01788             -30.00    -8000.00
01789              30.00    -8400.00
01790              20.00    -8200.00
01791               0.00    -8600.00
01792               0.00    -8400.00
01793               6.00    -8600.00
01794              16.00    -9000.00
01795              22.00    -9000.00
01796               2.00    -9200.00
01797              -6.00    -9200.00
01798              16.00    -9400.00
01799              14.00    -9600.00
01800               8.00    -9600.00
01801              16.00    -9600.00
01802               6.00   -10000.00
01803               6.00   -10000.00
01804               8.00   -10000.00
01805               0.00   -10200.00
01806              24.00   -10200.00
01807              26.00   -10200.00
01808               6.00   -10400.00
01809               0.00   -10600.00
01810               0.00   -10800.00
01811               6.00   -10800.00
01812              18.00   -10800.00
01813              18.00   -11000.00
01814               6.00   -11200.00
01815              10.00   -11200.00
01816               8.00   -11200.00
01817               0.00   -11200.00
01818              14.00   -11200.00
01819              14.00   -11200.00
01820              14.00   -11400.00
01821              18.00   -11600.00
01822               6.00   -11600.00
01823               0.00   -11600.00
01824               8.00   -11600.00
01825              10.00   -11800.00
01826              16.00   -11800.00
01827              22.00   -11800.00
01828              14.00   -11800.00
01829               6.00   -11800.00
01830               8.00   -11800.00
01831               4.00   -12000.00
01832              14.00   -12000.00
01833              18.00   -11800.00
01834              12.00   -12000.00
01835              14.00   -12000.00
01836               8.00   -12000.00
01837               2.00   -12000.00
01838              14.00   -12000.00
01839              14.00   -12000.00
01840              16.00   -11800.00
01841              16.00   -12000.00
01842              10.00   -12000.00
01843               6.00   -11800.00
01844               6.00   -12000.00
01845              10.00   -11800.00
01846              22.00   -12000.00
01847              20.00   -11800.00
01848              10.00   -12000.00
01849               6.00   -11800.00
01850               8.00   -11800.00
01851              10.00   -11600.00
01852              14.00   -11600.00
01853              16.00   -11600.00
01854              12.00   -11600.00
01855              10.00   -11600.00
01856              14.00   -11600.00
01857               8.00   -11600.00
01858               8.00   -11200.00
01859               8.00   -11400.00
01860              16.00   -11200.00
01861              18.00   -11200.00
01862              14.00   -11000.00
01863               6.00   -11000.00
01864               6.00   -11000.00
01865               8.00   -10800.00
01866              16.00   -10800.00
01867              16.00   -10800.00
01868              14.00   -10600.00
01869               6.00   -10400.00
01870               2.00   -10400.00
01871               6.00   -10400.00
01872              16.00   -10200.00
01873              16.00   -10000.00
01874              14.00   -10000.00
01875               2.00   -10000.00
01876               2.00    -9800.00
01877               2.00    -9600.00
01878              12.00    -9400.00
01879              12.00    -9400.00
01880              14.00    -9200.00
01881               8.00    -9000.00
01882               2.00    -9200.00
01883               4.00    -8800.00
01884               8.00    -8600.00
01885              10.00    -8400.00
01886              10.00    -8600.00
01887               8.00    -8400.00
01888               2.00    -8200.00
01889               2.00    -8000.00
01890               6.00    -7800.00
01891               6.00    -7600.00
01892               6.00    -7400.00
01893               6.00    -7200.00
01894               8.00    -7000.00
01895               8.00    -7200.00
01896               6.00    -7000.00
01897               0.00    -6800.00
01898               0.00    -6600.00
01899               6.00    -6400.00
01900              10.00    -6200.00
01901              10.00    -6200.00
01902               4.00    -6000.00
01903               0.00    -5600.00
01904               6.00    -5400.00
01905               6.00    -5200.00
01906               2.00    -5200.00
01907               0.00    -4800.00
01908               6.00    -4800.00
01909               2.00    -4600.00
01910               0.00    -4400.00
01911               0.00    -4400.00
01912               2.00    -4000.00
01913               6.00    -3800.00
01914               0.00    -3800.00
01915               0.00    -3600.00
01916               2.00    -3200.00
01917               4.00    -3200.00
01918               0.00    -3000.00
01919               0.00    -2800.00
01920               2.00    -2400.00
01921               6.00    -2400.00
01922               0.00    -2200.00
01923              -2.00    -2000.00
01924              -8.00    -2000.00
01925               0.00    -1600.00
01926               6.00    -1400.00
01927               2.00    -1200.00
01928              -2.00     -800.00
01929              -2.00     -800.00
01930              -2.00     -600.00
01931              -2.00     -400.00
01932               0.00        0.00
01933              -2.00        0.00
01934               2.00      200.00
01935               6.00      400.00
01936               6.00      600.00
01937              30.00      800.00
01938              18.00      800.00
01939             -10.00     1000.00
01940             -22.00     1200.00
01941               0.00     1600.00
01942              24.00     1600.00
01943             118.00     2000.00
01944             246.00     2000.00
01945               0.00     2400.00
01946            -254.00     2400.00
01947            -254.00     2600.00
01948              12.00     2800.00
01949             246.00     3200.00
01950             246.00     3400.00
01951            -254.00     3200.00
01952            -254.00     3600.00
01953             246.00     4000.00
01954              74.00     4000.00
01955              48.00     4200.00
01956             -62.00     4400.00
01957            -228.00     4400.00
01958             246.00     4800.00
01959              -6.00     5000.00
01960            -162.00     5000.00
01961              -8.00     5400.00
01962             -24.00     5600.00
01963             104.00     5600.00
01964              10.00     6000.00
01965             -46.00     6200.00
01966            -128.00     6000.00
01967              58.00     6600.00
01968              82.00     6600.00
01969            -112.00     6600.00
01970              28.00     7200.00
01971             -34.00     7000.00
01972              16.00     7400.00
01973              16.00     7200.00
01974             -70.00     7600.00
01975             -14.00     7800.00
01976              38.00     8000.00
01977               2.00     8200.00
01978             -56.00     8000.00
01979              -8.00     8400.00
01980             -32.00     8400.00
01981              14.00     8800.00
01982               8.00     9000.00
01983             -32.00     9000.00
01984             -30.00     9200.00
01985              -6.00     9200.00
01986              -8.00     9600.00
01987              -8.00     9600.00
01988              -2.00     9600.00
01989             -50.00     9800.00
01990               0.00     9800.00
01991              -2.00    10000.00
01992             -10.00    10200.00
01993              -4.00    10200.00
01994             -30.00    10400.00
01995             -42.00    10400.00
01996               0.00    10600.00
01997              14.00    10600.00
01998             -14.00    10600.00
01999             -22.00    10800.00
02000             -42.00    11000.00
02001             -26.00    11200.00
02002               2.00    11200.00
02003              -2.00    11400.00
02004             -18.00    11400.00
02005             -18.00    11400.00
02006             -30.00    11400.00
02007             -18.00    11600.00
02008              -6.00    11600.00
02009             -24.00    11800.00
02010             -18.00    11800.00
02011             -10.00    11800.00
02012             -18.00    12000.00
02013             -20.00    12000.00
02014             -24.00    12000.00
02015             -26.00    12200.00
02016             -16.00    12200.00
02017              -8.00    12000.00
02018             -16.00    12200.00
02019             -16.00    12200.00
02020             -24.00    12400.00
02021             -32.00    12200.00
02022             -18.00    12200.00
02023             -14.00    12400.00
02024             -14.00    12400.00
02025             -10.00    12400.00
02026             -22.00    12400.00
02027             -26.00    12400.00
02028             -24.00    12400.00
02029             -24.00    12400.00
02030             -16.00    12400.00
02031             -10.00    12400.00
02032             -16.00    12400.00
02033             -20.00    12400.00
02034             -24.00    12400.00
02035             -26.00    12400.00
02036             -20.00    12400.00
02037             -14.00    12400.00
02038             -10.00    12400.00
02039             -14.00    12200.00
02040             -20.00    12400.00
02041             -30.00    12200.00
02042             -26.00    12200.00
02043             -16.00    12000.00
02044             -14.00    12200.00
02045             -10.00    12000.00
02046             -18.00    12200.00
02047             -24.00    12000.00
02048             -22.00    12000.00
02049             -18.00    12000.00
02050             -16.00    11800.00
02051             -14.00    11600.00
02052             -16.00    11800.00
02053             -16.00    11800.00
02054             -18.00    11400.00
02055             -20.00    11400.00
02056             -18.00    11400.00
02057             -16.00    11200.00
02058             -14.00    11000.00
02059             -14.00    11000.00
02060             -16.00    10800.00
02061             -20.00    10800.00
02062             -22.00    10800.00
02063             -14.00    10600.00
02064             -10.00    10600.00
02065             -14.00    10400.00
02066             -16.00    10400.00
02067             -18.00    10400.00
02068             -18.00    10000.00
02069             -16.00    10000.00
02070             -12.00     9800.00
02071             -10.00     9800.00
02072             -14.00     9600.00
02073             -16.00     9600.00
02074             -18.00     9200.00
02075             -18.00     9200.00
02076             -16.00     9000.00
02077             -14.00     9000.00
02078             -10.00     8800.00
02079             -14.00     8600.00
02080             -18.00     8400.00
02081             -18.00     8200.00
02082             -18.00     8400.00
02083             -10.00     8000.00
02084             -10.00     8000.00
02085             -14.00     7800.00
02086             -12.00     7600.00
02087             -16.00     7400.00
02088             -18.00     7200.00
02089             -14.00     7000.00
02090             -14.00     7000.00
02091             -10.00     6800.00
02092             -10.00     6600.00
02093             -14.00     6400.00
02094             -18.00     6400.00
02095             -14.00     6000.00
02096             -10.00     6000.00
02097              -8.00     5800.00
02098              -8.00     5600.00
02099             -10.00     5400.00
02100             -10.00     5200.00
02101             -16.00     5000.00
02102             -16.00     4800.00
02103             -10.00     4600.00
02104              -2.00     4400.00
02105              -2.00     4200.00
02106              -8.00     4000.00
02107             -16.00     3800.00
02108             -16.00     3600.00
02109              -8.00     3600.00
02110              -4.00     3400.00
02111              -4.00     3200.00
02112              -8.00     2800.00
02113              -2.00     2800.00
02114              -6.00     2600.00
02115              -6.00     2400.00
02116             -12.00     2000.00
02117             -10.00     1800.00
02118               0.00     1800.00
02119               0.00     1600.00
02120              -6.00     1200.00
02121             -14.00     1200.00
02122             -10.00     1000.00
02123              -2.00      800.00
02124               0.00      800.00
02125               2.00      400.00
02126               2.00      200.00
02127               0.00        0.00
02128              10.00        0.00
02129              30.00     -400.00
02130               6.00     -400.00
02131             -24.00     -600.00
02132             -14.00     -800.00
02133              18.00    -1000.00
02134              30.00    -1200.00
02135              70.00    -1400.00
02136             240.00    -1600.00
02137             154.00    -2200.00
02138            -254.00    -2400.00
02139            -254.00    -2400.00
02140             -28.00    -2600.00
02141             184.00    -2600.00
02142             246.00    -2400.00
02143             230.00    -3200.00
02144            -254.00    -3200.00
02145            -118.00    -3200.00
02146             246.00    -4000.00
02147              22.00    -3600.00
02148              10.00    -4200.00
02149            -138.00    -4000.00
02150              32.00    -4400.00
02151             156.00    -4800.00
02152             -74.00    -4800.00
02153             -88.00    -5000.00
02154             -80.00    -4800.00
02155             136.00    -5400.00
02156             108.00    -5600.00
02157             -90.00    -5400.00
02158             -50.00    -6000.00
02159             -40.00    -6000.00
02160             102.00    -6400.00
02161              54.00    -6400.00
02162             -56.00    -6400.00
02163             -16.00    -7000.00
02164               8.00    -6800.00
02165              48.00    -7000.00
02166             -30.00    -7200.00
02167              -8.00    -7200.00
02168              18.00    -7600.00
02169              18.00    -7600.00
02170              30.00    -8000.00
02171             -34.00    -7800.00
02172               2.00    -8400.00
02173              30.00    -8200.00
02174               4.00    -8400.00
02175              -6.00    -8600.00
02176               2.00    -8600.00
02177              10.00    -8800.00
02178              18.00    -9000.00
02179              14.00    -9000.00
02180              -2.00    -9200.00
02181               2.00    -9400.00
02182              18.00    -9400.00
02183               2.00    -9600.00
02184               8.00    -9600.00
02185              10.00    -9800.00
02186               2.00    -9800.00
02187              16.00   -10000.00
02188               6.00   -10000.00
02189               6.00   -10200.00
02190              22.00   -10200.00
02191              14.00   -10600.00
02192               4.00   -10600.00
02193               6.00   -10600.00
02194               6.00   -10800.00
02195              14.00   -10800.00
02196              16.00   -10800.00
02197              10.00   -11000.00
02198              10.00   -11200.00
02199              14.00   -11200.00
02200               6.00   -11200.00
02201               8.00   -11200.00
02202              14.00   -11200.00
02203              10.00   -11200.00
02204              16.00   -11600.00
02205              10.00   -11600.00
02206               0.00   -11600.00
02207               6.00   -11800.00
02208              14.00   -11800.00
02209              14.00   -11800.00
02210              16.00   -11600.00
02211              16.00   -11800.00
02212               6.00   -12000.00
02213               6.00   -11800.00
02214               8.00   -11800.00
02215               8.00   -12000.00
02216              16.00   -12000.00
02217              16.00   -12000.00
02218              14.00   -12000.00
02219               8.00   -12000.00
02220               2.00   -12000.00
02221               8.00   -12000.00
02222              16.00   -11800.00
02223              22.00   -12000.00
02224              16.00   -12000.00
02225              10.00   -12000.00
02226               6.00   -12000.00
02227               4.00   -12000.00
02228              10.00   -12000.00
02229              14.00   -11800.00
02230              16.00   -12000.00
02231              14.00   -11800.00
02232               8.00   -11800.00
02233               8.00   -11800.00
02234              10.00   -11800.00
02235              10.00   -11800.00
02236              16.00   -11600.00
02237              16.00   -11600.00
02238              10.00   -11600.00
02239               8.00   -11600.00
02240               8.00   -11600.00
02241               8.00   -11200.00
02242              14.00   -11200.00
02243              16.00   -11400.00
02244              14.00   -11200.00
02245              14.00   -11200.00
02246               8.00   -11000.00
02247               6.00   -11000.00
02248              10.00   -11000.00
02249              14.00   -10800.00
02250              16.00   -10800.00
02251              14.00   -10600.00
02252              10.00   -10400.00
02253               8.00   -10400.00
02254               8.00   -10200.00
02255              10.00   -10200.00
02256              14.00   -10200.00
02257              16.00   -10000.00
02258              10.00   -10000.00
02259               8.00    -9800.00
02260               6.00    -9600.00
02261               8.00    -9600.00
02262              10.00    -9400.00
02263              14.00    -9200.00
02264              14.00    -9200.00
02265               8.00    -9000.00
02266               0.00    -8800.00
02267               6.00    -8800.00
02268               8.00    -8600.00
02269               8.00    -8400.00
02270               8.00    -8400.00
02271              12.00    -8200.00
02272               8.00    -8000.00
02273               6.00    -7800.00
02274              -2.00    -7800.00
02275              -2.00    -7600.00
02276              16.00    -7400.00
02277              16.00    -7200.00
02278               2.00    -7200.00
02279              -6.00    -7000.00
02280               0.00    -6800.00
02281              12.00    -6800.00
02282               6.00    -6400.00
02283              -2.00    -6400.00
02284               6.00    -6400.00
02285              12.00    -6200.00
02286               6.00    -5800.00
02287              -4.00    -5600.00
02288               0.00    -5400.00
02289               4.00    -5200.00
02290               8.00    -5200.00
02291               0.00    -5200.00
02292              -2.00    -4800.00
02293               0.00    -4600.00
02294               2.00    -4400.00
02295               6.00    -4200.00
02296               6.00    -4000.00
02297               0.00    -3800.00
02298              -2.00    -3600.00
02299               0.00    -3400.00
02300               6.00    -3200.00
02301               0.00    -3200.00
02302              -2.00    -2800.00
02303               0.00    -2600.00
02304               8.00    -2400.00
02305               2.00    -2200.00
02306             -10.00    -2200.00
02307             -10.00    -2000.00
02308               6.00    -1600.00
02309               6.00    -1600.00
02310               0.00    -1200.00
02311              -4.00    -1000.00
02312              -8.00    -1000.00
02313              -2.00     -800.00
02314              -2.00     -600.00
02315              -2.00     -400.00
02316               2.00        0.00
02317               2.00        0.00
02318              -2.00      400.00
02319              -2.00      400.00
02320              14.00      600.00
02321              34.00      800.00
02322              10.00     1000.00
02323             -24.00     1200.00
02324             -18.00     1200.00
02325              10.00     1400.00
02326              50.00     1600.00
02327             238.00     2000.00
02328             246.00     2400.00
02329            -254.00     2400.00
02330            -254.00     2600.00
02331            -194.00     2800.00
02332             186.00     2800.00
02333             246.00     3200.00
02334             238.00     3400.00
02335            -254.00     3200.00
02336             -30.00     3800.00
02337             246.00     3800.00
02338             -42.00     4000.00
02339             102.00     4400.00
02340            -234.00     4400.00
02341               0.00     4400.00
02342             224.00     4800.00
02343            -202.00     5000.00
02344             -72.00     5400.00
02345               0.00     5400.00
02346              74.00     5600.00
02347              94.00     5600.00
02348             -34.00     6200.00
02349             -90.00     6000.00
02350             -74.00     6000.00
02351             136.00     6600.00
02352             -74.00     6400.00
02353             -70.00     6600.00
02354              24.00     7000.00
02355             -32.00     7200.00
02356              66.00     7400.00
02357             -34.00     7400.00
02358             -50.00     7600.00
02359              14.00     7800.00
02360              30.00     8000.00
02361             -46.00     8000.00
02362             -34.00     8200.00
02363             -18.00     8400.00
02364             -14.00     8400.00
02365              24.00     8800.00
02366             -26.00     8800.00
02367             -26.00     9000.00
02368             -12.00     9000.00
02369               8.00     9200.00
02370             -18.00     9600.00
02371             -10.00     9600.00
02372             -34.00     9600.00
02373             -30.00     9800.00
02374               4.00     9800.00
02375             -14.00    10000.00
02376              -6.00    10000.00
02377             -16.00    10400.00
02378             -26.00    10400.00
02379             -26.00    10400.00
02380               6.00    10400.00
02381               0.00    10800.00
02382             -16.00    10800.00
02383             -24.00    10800.00
02384             -42.00    11000.00
02385             -22.00    11200.00
02386               2.00    11200.00
02387              -2.00    11200.00
02388              -8.00    11400.00
02389             -10.00    11600.00
02390             -30.00    11800.00
02391             -18.00    11600.00
02392             -24.00    11800.00
02393             -28.00    11800.00
02394             -10.00    11800.00
02395              -6.00    12000.00
02396             -14.00    12000.00
02397             -16.00    12000.00
02398             -24.00    12000.00
02399             -30.00    12000.00
02400             -16.00    12200.00
02401             -14.00    12200.00
02402             -14.00    12200.00
02403             -10.00    12400.00
02404             -24.00    12400.00
02405             -26.00    12200.00
02406             -14.00    12400.00
02407             -18.00    12400.00
02408             -16.00    12400.00
02409             -14.00    12400.00
02410             -22.00    12400.00
02411             -22.00    12400.00
02412             -18.00    12400.00
02413             -20.00    12400.00
02414             -16.00    12600.00
02415             -10.00    12400.00
02416             -22.00    12400.00
02417             -20.00    12200.00
02418             -26.00    12200.00
02419             -26.00    12400.00
02420             -14.00    12200.00
02421             -10.00    12200.00
02422             -14.00    12400.00
02423             -18.00    12200.00
02424             -26.00    12400.00
02425             -30.00    12400.00
02426             -18.00    12200.00
02427             -14.00    12200.00
02428             -10.00    12000.00
02429             -14.00    12000.00
02430             -22.00    12000.00
02431             -26.00    12000.00
02432             -24.00    12000.00
02433             -18.00    11800.00
02434             -14.00    11600.00
02435             -14.00    11800.00
02436             -16.00    11600.00
02437             -18.00    11600.00
02438             -20.00    11400.00
02439             -18.00    11400.00
02440             -16.00    11200.00
02441             -14.00    11200.00
02442             -16.00    11200.00
02443             -14.00    11000.00
02444             -18.00    11000.00
02445             -22.00    10800.00
02446             -18.00    10800.00
02447             -14.00    10600.00
02448             -10.00    10600.00
02449             -10.00    10400.00
02450             -18.00    10400.00
02451             -22.00    10000.00
02452             -20.00    10000.00
02453             -12.00    10000.00
02454              -8.00     9800.00
02455             -10.00     9800.00
02456             -16.00     9600.00
02457             -18.00     9400.00
02458             -16.00     9200.00
02459             -16.00     9200.00
02460             -12.00     9000.00
02461              -6.00     8800.00
02462             -10.00     8800.00
02463             -22.00     8600.00
02464             -24.00     8400.00
02465             -18.00     8200.00
02466             -10.00     8200.00
02467              -8.00     8000.00
02468             -12.00     7800.00
02469             -16.00     7600.00
02470             -14.00     7600.00
02471             -18.00     7200.00
02472             -20.00     7200.00
02473             -16.00     6800.00
02474             -10.00     6800.00
02475              -8.00     6800.00
02476             -10.00     6600.00
02477             -16.00     6400.00
02478             -16.00     6200.00
02479             -10.00     6000.00
02480             -10.00     5800.00
02481              -8.00     5600.00
02482             -10.00     5600.00
02483             -14.00     5200.00
02484             -14.00     5200.00
02485             -14.00     5000.00
02486             -10.00     4800.00
02487              -8.00     4600.00
02488              -8.00     4400.00
02489              -8.00     4200.00
02490              -8.00     4000.00
02491             -10.00     3600.00
02492             -10.00     3600.00
02493             -10.00     3400.00
02494              -8.00     3200.00
02495              -6.00     3000.00
02496              -6.00     2800.00
02497             -10.00     2800.00
02498             -10.00     2600.00
02499              -8.00     2200.00
02500              -6.00     2000.00
02501              -6.00     1800.00
02502              -8.00     1800.00
02503              -6.00     1600.00
02504              -8.00     1200.00
02505              -2.00     1000.00
02506              -4.00     1000.00
02507              -8.00      800.00
02508               0.00      400.00
02509               2.00      400.00
02510              -2.00      200.00
02511              -4.00        0.00
02512              24.00     -200.00
02513              38.00     -400.00
02514               0.00     -600.00
02515             -32.00     -800.00
02516             -16.00     -800.00
02517              22.00    -1200.00
02518              38.00    -1400.00
02519             134.00    -1400.00
02520             246.00    -1800.00
02521             -62.00    -2400.00
02522            -254.00    -2400.00
02523            -254.00    -2600.00
02524             108.00    -2600.00
02525             214.00    -2400.00
02526             246.00    -3000.00
02527             -96.00    -3200.00
02528            -254.00    -3000.00
02529             176.00    -3800.00
02530             166.00    -3600.00
02531              -6.00    -3600.00
02532             -40.00    -4400.00
02533            -106.00    -4000.00
02534             154.00    -4600.00
02535              38.00    -4600.00
02536            -102.00    -4800.00
02537             -82.00    -5200.00
02538              -6.00    -5000.00
02539             184.00    -5600.00
02540             -14.00    -5200.00
02541             -74.00    -6000.00
02542             -44.00    -6000.00
02543              16.00    -5800.00
02544             118.00    -6400.00
02545             -30.00    -6200.00
02546             -40.00    -6800.00
02547             -10.00    -6800.00
02548              40.00    -6800.00
02549              22.00    -7200.00
02550             -38.00    -7000.00
02551              16.00    -7600.00
02552              10.00    -7400.00
02553              32.00    -7800.00
02554              -6.00    -7800.00
02555             -32.00    -8000.00
02556              34.00    -8400.00
02557              30.00    -8200.00
02558              -2.00    -8600.00
02559              -8.00    -8600.00
02560               0.00    -8800.00
02561              16.00    -9000.00
02562              26.00    -9200.00
02563               6.00    -9200.00
02564             -10.00    -9400.00
02565               8.00    -9400.00
02566              16.00    -9400.00
02567               8.00    -9600.00
02568              18.00    -9800.00
02569               6.00   -10000.00
02570               6.00   -10000.00
02571               8.00   -10000.00
02572               0.00   -10200.00
02573              20.00   -10200.00
02574              26.00   -10400.00
02575               6.00   -10600.00
02576               0.00   -10800.00
02577               6.00   -10600.00
02578              10.00   -10800.00
02579              18.00   -11000.00
02580              18.00   -11000.00
02581               6.00   -11000.00
02582              14.00   -11000.00
02583               8.00   -11200.00
02584               4.00   -11000.00
02585              14.00   -11400.00
02586              12.00   -11400.00
02587              16.00   -11600.00
02588              22.00   -11600.00
02589               8.00   -11600.00
02590               0.00   -11600.00
02591              10.00   -11800.00
02592              16.00   -11800.00
02593              16.00   -11800.00
02594              16.00   -11800.00
02595              10.00   -12000.00
02596               2.00   -11800.00
02597               6.00   -12000.00
02598               8.00   -12000.00
02599              14.00   -12000.00
02600              16.00   -12000.00
02601              14.00   -12000.00
02602              14.00   -12000.00
02603               8.00   -12000.00
02604               4.00   -12000.00
02605              10.00   -12000.00
02606              16.00   -12000.00
02607              16.00   -12000.00
02608              16.00   -12000.00
02609               8.00   -12000.00
02610               2.00   -11800.00
02611               6.00   -11800.00
02612              12.00   -11800.00
02613              16.00   -11800.00
02614              18.00   -11800.00
02615              10.00   -11800.00
02616               6.00   -12000.00
02617               6.00   -11800.00
02618               8.00   -11600.00
02619              14.00   -11800.00
02620              16.00   -11800.00
02621              16.00   -11600.00
02622               8.00   -11600.00
02623               8.00   -11600.00
02624               8.00   -11400.00
02625              10.00   -11400.00
02626              12.00   -11200.00
02627              16.00   -11400.00
02628              14.00   -11200.00
02629              14.00   -11200.00
02630               4.00   -11000.00
02631               6.00   -11000.00
02632              10.00   -10800.00
02633              14.00   -10800.00
02634              14.00   -10800.00
02635              14.00   -10600.00
02636               6.00   -10400.00
02637               8.00   -10400.00
02638               8.00   -10200.00
02639              10.00   -10200.00
02640              14.00   -10000.00
02641              14.00   -10000.00
02642               8.00    -9600.00
02643               6.00    -9800.00
02644               4.00    -9600.00
02645               8.00    -9600.00
02646              10.00    -9400.00
02647              14.00    -9200.00
02648              12.00    -9200.00
02649               6.00    -9000.00
02650               4.00    -8800.00
02651               4.00    -8800.00
02652               8.00    -8600.00
02653              10.00    -8400.00
02654              10.00    -8400.00
02655               6.00    -8400.00
02656               2.00    -8000.00
02657               0.00    -7800.00
02658               6.00    -7600.00
02659               6.00    -7400.00
02660               8.00    -7400.00
02661               8.00    -7200.00
02662               6.00    -7200.00
02663               0.00    -7000.00
02664               0.00    -6800.00
02665               0.00    -6600.00
02666               6.00    -6400.00
02667               8.00    -6200.00
02668               6.00    -6200.00
02669               0.00    -6000.00
02670              -2.00    -5800.00
02671               0.00    -5600.00
02672               2.00    -5400.00
02673               6.00    -5200.00
02674               6.00    -5200.00
02675               2.00    -4800.00
02676              -2.00    -4600.00
02677              -2.00    -4600.00
02678              -2.00    -4400.00
02679               2.00    -4000.00
02680               6.00    -3800.00
02681               2.00    -3800.00
02682              -2.00    -3600.00
02683              -2.00    -3200.00
02684              -2.00    -3200.00
02685               0.00    -2800.00
02686               0.00    -2800.00
02687               2.00    -2600.00
02688               2.00    -2400.00
02689               0.00    -2400.00
02690              -6.00    -2000.00
02691              -2.00    -1800.00
02692               0.00    -1600.00
02693               2.00    -1400.00
02694               0.00    -1000.00
02695               0.00    -1000.00
02696              -2.00    -1000.00
02697              -6.00     -600.00
02698              -4.00     -400.00
02699              -2.00        0.00
02700               2.00        0.00
02701               2.00      200.00
02702               2.00      400.00
02703               2.00      400.00
02704              30.00      800.00
02705              24.00     1000.00
02706              -6.00     1000.00
02707             -22.00     1200.00
02708               0.00     1600.00
02709              18.00     1600.00
02710              96.00     1800.00
02711             246.00     2400.00
02712              64.00     2400.00
02713            -254.00     2400.00
02714            -254.00     2600.00
02715             -12.00     2800.00
02716             246.00     3000.00
02717             246.00     3600.00
02718            -254.00     3200.00
02719            -254.00     3600.00
02720             246.00     4000.00
02721             116.00     4000.00
02722              26.00     4200.00
02723             -14.00     4400.00
02724            -242.00     4400.00
02725             240.00     4800.00
02726              26.00     5000.00
02727            -194.00     5200.00
02728               0.00     5400.00
02729              -6.00     5600.00
02730             112.00     5600.00
02731              -2.00     5600.00
02732             -64.00     6000.00
02733            -112.00     6000.00
02734              56.00     6400.00
02735             104.00     6600.00
02736            -122.00     6400.00
02737              12.00     7000.00
02738             -30.00     7000.00
02739               4.00     7200.00
02740              30.00     7400.00
02741             -66.00     7600.00
02742             -24.00     7600.00
02743              30.00     7800.00
02744              10.00     8000.00
02745             -56.00     8000.00
02746              -8.00     8400.00
02747             -24.00     8400.00
02748               8.00     8600.00
02749               2.00     8800.00
02750             -42.00     8800.00
02751             -26.00     9200.00
02752               4.00     9200.00
02753               0.00     9400.00
02754             -18.00     9600.00
02755              -6.00     9600.00
02756             -48.00     9600.00
02757              -4.00     9800.00
02758              -2.00    10000.00
02759             -16.00    10000.00
02760              -6.00    10400.00
02761             -24.00    10400.00
02762             -38.00    10400.00
02763             -10.00    10400.00
02764               6.00    10800.00
02765             -10.00    10800.00
02766              -6.00    10800.00
02767             -32.00    11200.00
02768             -32.00    11000.00
02769             -10.00    11200.00
02770              -8.00    11200.00
02771             -16.00    11400.00
02772              -8.00    11400.00
02773             -18.00    11600.00
02774             -18.00    11800.00
02775             -10.00    11800.00
02776             -26.00    11800.00
02777             -16.00    11800.00
02778              -6.00    12000.00
02779             -16.00    12000.00
02780             -18.00    12000.00
02781             -20.00    12000.00
02782             -26.00    12000.00
02783             -16.00    12200.00
02784             -10.00    12200.00
02785             -14.00    12200.00
02786             -10.00    12200.00
02787             -18.00    12400.00
02788             -30.00    12400.00
02789             -22.00    12400.00
02790             -16.00    12400.00
02791             -14.00    12400.00
02792              -8.00    12400.00
02793             -18.00    12400.00
02794             -26.00    12400.00
02795             -22.00    12400.00
02796             -20.00    12400.00
02797             -18.00    12400.00
02798             -14.00    12400.00
02799             -14.00    12400.00
02800             -16.00    12400.00
02801             -22.00    12600.00
02802             -30.00    12400.00
02803             -24.00    12400.00
02804             -10.00    12400.00
02805             -10.00    12200.00
02806             -14.00    12400.00
02807             -24.00    12400.00
02808             -32.00    12200.00
02809             -26.00    12200.00
02810             -16.00    12200.00
02811             -10.00    12200.00
02812             -14.00    12000.00
02813             -18.00    12000.00
02814             -26.00    12000.00
02815             -24.00    12000.00
02816             -22.00    12000.00
02817             -16.00    11800.00
02818             -10.00    11800.00
02819             -14.00    11800.00
02820             -18.00    11600.00
02821             -22.00    11800.00
02822             -22.00    11400.00
02823             -16.00    11200.00
02824             -10.00    11200.00
02825             -14.00    11200.00
02826             -18.00    11000.00
02827             -24.00    10800.00
02828             -22.00    10800.00
02829             -18.00    10800.00
02830             -12.00    10600.00
02831             -10.00    10400.00
02832             -10.00    10400.00
02833             -16.00    10400.00
02834             -24.00    10200.00
02835             -22.00    10000.00
02836             -16.00    10000.00
02837             -12.00     9800.00
02838             -10.00     9800.00
02839             -16.00     9600.00
02840             -16.00     9600.00
02841             -14.00     9400.00
02842             -16.00     9200.00
02843             -16.00     9000.00
02844             -10.00     9000.00
02845             -10.00     8800.00
02846             -10.00     8800.00
02847             -16.00     8400.00
02848             -20.00     8400.00
02849             -16.00     8200.00
02850             -10.00     8000.00
02851              -8.00     8000.00
02852             -10.00     8000.00
02853             -14.00     7600.00
02854             -10.00     7400.00
02855             -16.00     7200.00
02856             -18.00     7200.00
02857             -16.00     7000.00
02858             -10.00     6800.00
02859             -10.00     6600.00
02860             -12.00     6400.00
02861             -14.00     6400.00
02862             -10.00     6000.00
02863              -8.00     5800.00
02864             -22.00     5800.00
02865             -16.00     5400.00
02866             -10.00     5400.00
02867              -6.00     5200.00
02868              -8.00     5000.00
02869             -18.00     4600.00
02870             -16.00     4800.00
02871              -6.00     4400.00
02872              -8.00     4200.00
02873             -10.00     4000.00
02874             -12.00     4000.00
02875             -14.00     3600.00
02876             -10.00     3400.00
02877              -8.00     3200.00
02878              -8.00     3200.00
02879              -8.00     3000.00
02880             -10.00     2800.00
02881             -10.00     2600.00
02882             -10.00     2400.00
02883              -8.00     2000.00
02884              -6.00     2000.00
02885              -4.00     1800.00
02886              -2.00     1600.00
02887              -8.00     1400.00
02888              -8.00     1200.00
02889             -10.00     1000.00
02890             -10.00      800.00
02891              -2.00      600.00
02892               0.00      400.00
02893               2.00      200.00
02894               0.00        0.00
02895               6.00     -200.00
02896              30.00     -400.00
02897              14.00     -400.00
02898             -14.00     -600.00
02899             -18.00     -800.00
02900               8.00    -1000.00
02901              22.00    -1200.00
02902              58.00    -1400.00
02903             228.00    -1600.00
02904             198.00    -2200.00
02905            -254.00    -2400.00
02906            -254.00    -2400.00
02907             -74.00    -2600.00
02908             178.00    -2400.00
02909             246.00    -2600.00
02910             246.00    -3200.00
02911            -254.00    -3200.00
02912            -182.00    -3200.00
02913             246.00    -3800.00
02914              34.00    -3600.00
02915              10.00    -4000.00
02916            -114.00    -4200.00
02917               8.00    -4200.00
02918             160.00    -4800.00
02919             -64.00    -4600.00
02920             -80.00    -5200.00
02921             -78.00    -5000.00
02922             114.00    -5400.00
02923             124.00    -5400.00
02924             -96.00    -5400.00
02925             -42.00    -6000.00
02926             -30.00    -6000.00
02927              94.00    -6200.00
02928              58.00    -6400.00
02929             -74.00    -6200.00
02930             -18.00    -6800.00
02931              16.00    -6800.00
02932              62.00    -7000.00
02933             -24.00    -7200.00
02934             -22.00    -7200.00
02935              16.00    -7600.00
02936              20.00    -7400.00
02937              38.00    -8000.00
02938             -30.00    -7800.00
02939              -6.00    -8200.00
02940              26.00    -8400.00
02941              -2.00    -8400.00
02942              -4.00    -8600.00
02943              10.00    -8600.00
02944              22.00    -8800.00
02945              22.00    -9000.00
02946              -2.00    -9200.00
02947             -16.00    -9200.00
02948               6.00    -9200.00
02949              32.00    -9400.00
02950              14.00    -9600.00
02951               4.00    -9600.00
02952               4.00    -9800.00
02953               0.00   -10000.00
02954              18.00   -10000.00
02955               6.00   -10200.00
02956               2.00   -10200.00
02957              22.00   -10400.00
02958              18.00   -10400.00
02959               0.00   -10600.00
02960              -2.00   -10600.00
02961               6.00   -10800.00
02962              16.00   -10800.00
02963              28.00   -11000.00
02964              14.00   -11000.00
02965               2.00   -11000.00
02966              14.00   -11200.00
02967               8.00   -11200.00
02968               8.00   -11200.00
02969              16.00   -11200.00
02970              12.00   -11400.00
02971              16.00   -11600.00
02972              14.00   -11600.00
02973               6.00   -11600.00
02974              14.00   -11600.00
02975              16.00   -11600.00
02976              10.00   -11800.00
02977              14.00   -11800.00
02978              18.00   -11800.00
02979              14.00   -11800.00
02980               8.00   -12000.00
02981               6.00   -12000.00
02982               8.00   -12000.00
02983              24.00   -11800.00
02984              22.00   -12000.00
02985              10.00   -12000.00
02986               4.00   -12000.00
02987               0.00   -12000.00
02988               8.00   -12000.00
02989              22.00   -12000.00
02990              20.00   -12000.00
02991              16.00   -12000.00
02992               8.00   -12000.00
02993               4.00   -12000.00
02994               8.00   -12000.00
02995              16.00   -12000.00
02996              16.00   -12000.00
02997              16.00   -11800.00
02998              10.00   -12000.00
02999               6.00   -11800.00
03000               8.00   -11800.00
03001               8.00   -11800.00
03002               8.00   -11600.00
03003              16.00   -11600.00
03004              16.00   -11600.00
03005              10.00   -11600.00
03006               6.00   -11600.00
03007               6.00   -11600.00
03008               8.00   -11400.00
03009              14.00   -11400.00
03010              14.00   -11200.00
03011              14.00   -11200.00
03012              10.00   -11200.00
03013               8.00   -11200.00
03014               6.00   -11000.00
03015               8.00   -10800.00
03016              10.00   -10800.00
03017              16.00   -10800.00
03018              14.00   -10600.00
03019               8.00   -10600.00
03020               6.00   -10400.00
03021               8.00   -10400.00
03022               8.00   -10200.00
03023               8.00   -10000.00
03024              10.00   -10000.00
03025              14.00   -10000.00
03026              14.00    -9600.00
03027               6.00    -9600.00
03028               2.00    -9600.00
03029               8.00    -9400.00
03030              10.00    -9200.00
03031              14.00    -9200.00
03032              10.00    -9200.00
03033               6.00    -8800.00
03034               6.00    -8800.00
03035               2.00    -8600.00
03036              14.00    -8400.00
03037              16.00    -8400.00
03038               8.00    -8200.00
03039               2.00    -8000.00
03040               0.00    -7800.00
03041               4.00    -7800.00
03042              10.00    -7400.00
03043              16.00    -7400.00
03044              14.00    -7200.00
03045               0.00    -7200.00
03046              -8.00    -7000.00
03047              -2.00    -6800.00
03048              16.00    -6800.00
03049              22.00    -6400.00
03050               2.00    -6200.00
03051              -6.00    -6400.00
03052              -4.00    -6000.00
03053               8.00    -6000.00
03054              10.00    -5600.00
03055               4.00    -5400.00
03056               0.00    -5400.00
03057               2.00    -5200.00
03058               6.00    -4800.00
03059               2.00    -4800.00
03060              -8.00    -4600.00
03061              -6.00    -4400.00
03062               8.00    -4200.00
03063              16.00    -4000.00
03064               6.00    -3800.00
03065             -16.00    -3600.00
03066             -10.00    -3600.00
03067               8.00    -3200.00
03068              14.00    -3000.00
03069               2.00    -3000.00
03070             -10.00    -2800.00
03071             -10.00    -2400.00
03072               2.00    -2400.00
03073               6.00    -2200.00
03074              -2.00    -2000.00
03075              -2.00    -1600.00
03076              -2.00    -1600.00
03077              -2.00    -1200.00
03078               2.00    -1000.00
03079               0.00    -1000.00
03080              -2.00     -800.00
03081              -6.00     -600.00
03082              -8.00     -400.00
03083              -2.00        0.00
03084               2.00      200.00
03085               2.00      200.00
03086               4.00      400.00
03087              10.00      400.00
03088              26.00     1000.00
03089              10.00      800.00
03090             -14.00     1200.00
03091             -10.00     1200.00
03092              12.00     1600.00
03093              32.00     1800.00
03094             206.00     2000.00
03095             246.00     2400.00
03096            -242.00     2400.00
03097            -254.00     2600.00
03098            -242.00     2800.00
03099             146.00     2800.00
03100             246.00     3400.00
03101             246.00     3400.00
03102            -254.00     3400.00
03103            -128.00     3600.00
03104             246.00     3800.00
03105             -38.00     4000.00
03106             102.00     4400.00
03107            -198.00     4400.00
03108             -42.00     4400.00
03109             246.00     4800.00
03110            -170.00     5200.00
03111             -86.00     5400.00
03112              -2.00     5600.00
03113              54.00     5800.00
03114              86.00     5600.00
03115             -54.00     6000.00
03116             -78.00     6200.00
03117             -76.00     6200.00
03118             142.00     6600.00
03119             -26.00     6600.00
03120             -80.00     6800.00
03121              34.00     7000.00
03122             -48.00     7000.00
03123              38.00     7400.00
03124             -32.00     7600.00
03125             -48.00     7800.00
03126              14.00     7600.00
03127              40.00     8000.00
03128             -38.00     8000.00
03129             -48.00     8200.00
03130               0.00     8600.00
03131             -14.00     8400.00
03132              12.00     8800.00
03133             -40.00     8800.00
03134             -32.00     9000.00
03135               6.00     9200.00
03136              16.00     9400.00
03137             -40.00     9600.00
03138             -20.00     9600.00
03139             -14.00     9800.00
03140             -18.00     9800.00
03141               6.00    10000.00
03142             -24.00    10000.00
03143             -14.00    10000.00
03144             -16.00    10400.00
03145             -30.00    10400.00
03146             -26.00    10400.00
03147              10.00    10600.00
03148              -2.00    10800.00
03149             -16.00    10800.00
03150             -22.00    10800.00
03151             -42.00    10800.00
03152             -24.00    11000.00
03153               2.00    11200.00
03154              -2.00    11400.00
03155             -12.00    11400.00
03156             -24.00    11600.00
03157             -30.00    11600.00
03158              -6.00    11600.00
03159             -10.00    11800.00
03160             -26.00    11800.00
03161             -16.00    11800.00
03162             -10.00    12000.00
03163             -16.00    12000.00
03164             -16.00    12000.00
03165             -16.00    12000.00
03166             -24.00    12200.00
03167             -16.00    12200.00
03168             -16.00    12200.00
03169             -14.00    12200.00
03170              -8.00    12200.00
03171             -22.00    12400.00
03172             -26.00    12400.00
03173             -20.00    12400.00
03174             -18.00    12400.00
03175             -10.00    12400.00
03176              -6.00    12400.00
03177             -20.00    12400.00
03178             -30.00    12400.00
03179             -22.00    12600.00
03180             -16.00    12400.00
03181             -14.00    12400.00
03182             -12.00    12400.00
03183             -24.00    12400.00
03184             -22.00    12400.00
03185             -22.00    12400.00
03186             -24.00    12400.00
03187             -16.00    12200.00
03188             -14.00    12400.00
03189             -14.00    12200.00
03190             -16.00    12200.00
03191             -22.00    12200.00
03192             -28.00    12200.00
03193             -22.00    12200.00
03194             -14.00    12200.00
03195             -14.00    12000.00
03196             -14.00    12000.00
03197             -24.00    12000.00
03198             -26.00    12000.00
03199             -22.00    12000.00
03200             -18.00    12000.00
03201             -14.00    11800.00
03202             -16.00    11600.00
03203             -18.00    11800.00
03204             -18.00    11600.00
03205             -24.00    11400.00
03206             -24.00    11400.00
03207             -16.00    11200.00
03208             -10.00    11200.00
03209             -12.00    11000.00
03210             -16.00    11000.00
03211             -22.00    11000.00
03212             -24.00    10800.00
03213             -18.00    10600.00
03214             -16.00    10600.00
03215             -16.00    10600.00
03216             -12.00    10400.00
03217             -18.00    10400.00
03218             -18.00    10000.00
03219             -22.00    10000.00
03220             -18.00     9800.00
03221             -10.00     9800.00
03222              -8.00     9800.00
03223             -16.00     9600.00
03224             -18.00     9600.00
03225             -20.00     9400.00
03226             -16.00     9200.00
03227             -10.00     9000.00
03228             -10.00     9000.00
03229             -16.00     8600.00
03230             -16.00     8600.00
03231             -16.00     8400.00
03232             -14.00     8200.00
03233             -14.00     8200.00
03234             -14.00     8200.00
03235             -10.00     7800.00
03236             -14.00     7600.00
03237             -10.00     7600.00
03238             -16.00     7400.00
03239             -16.00     7200.00
03240             -10.00     7200.00
03241              -8.00     6800.00
03242              -8.00     6600.00
03243             -10.00     6600.00
03244             -16.00     6400.00
03245             -14.00     6200.00
03246             -12.00     6000.00
03247             -10.00     5800.00
03248             -12.00     5600.00
03249              -8.00     5600.00
03250             -14.00     5400.00
03251             -10.00     5200.00
03252             -16.00     5000.00
03253             -14.00     4800.00
03254             -14.00     4400.00
03255              -6.00     4400.00
03256              -8.00     4200.00
03257             -10.00     4000.00
03258             -14.00     3800.00
03259             -14.00     3600.00
03260              -8.00     3600.00
03261              -6.00     3200.00
03262              -6.00     3200.00
03263              -6.00     2800.00
03264             -10.00     2600.00
03265             -14.00     2600.00
03266             -10.00     2400.00
03267              -8.00     2000.00
03268              -2.00     1800.00
03269               0.00     1600.00
03270              -6.00     1600.00
03271              -8.00     1200.00
03272              -8.00     1000.00
03273              -8.00     1000.00
03274              -2.00      800.00
03275              -2.00      400.00
03276               0.00      200.00
03277               0.00      200.00
03278               2.00        0.00
03279              22.00     -200.00
03280              30.00     -400.00
03281              -2.00     -600.00
03282             -24.00     -800.00
03283              -6.00    -1000.00
03284              16.00    -1000.00
03285              30.00    -1200.00
03286             118.00    -1400.00
03287             246.00    -1800.00
03288             -14.00    -2400.00
03289            -254.00    -2400.00
03290            -254.00    -2600.00
03291              96.00    -2400.00
03292             208.00    -2600.00
03293             246.00    -2800.00
03294             -26.00    -3400.00
03295            -254.00    -3000.00
03296             126.00    -3600.00
03297             216.00    -3600.00
03298               0.00    -3600.00
03299             -26.00    -4400.00
03300            -130.00    -4000.00
03301             136.00    -4600.00
03302              72.00    -4600.00
03303             -96.00    -4800.00
03304             -80.00    -5200.00
03305             -26.00    -4800.00
03306             186.00    -5600.00
03307              10.00    -5400.00
03308             -86.00    -5600.00
03309             -42.00    -6200.00
03310               6.00    -5800.00
03311             122.00    -6400.00
03312             -16.00    -6200.00
03313             -48.00    -6400.00
03314             -10.00    -6800.00
03315              36.00    -6800.00
03316              26.00    -7200.00
03317             -40.00    -7200.00
03318              14.00    -7400.00
03319              10.00    -7600.00
03320              32.00    -7800.00
03321               6.00    -7800.00
03322             -36.00    -8000.00
03323              22.00    -8400.00
03324              24.00    -8400.00
03325              -6.00    -8600.00
03326              -2.00    -8600.00
03327               6.00    -8800.00
03328              16.00    -8800.00
03329              18.00    -9000.00
03330               6.00    -9200.00
03331              -8.00    -9400.00
03332              10.00    -9400.00
03333              16.00    -9600.00
03334               2.00    -9600.00
03335              16.00    -9600.00
03336               6.00   -10000.00
03337               4.00   -10000.00
03338              10.00   -10200.00
03339              -2.00   -10200.00
03340              16.00   -10200.00
03341              30.00   -10400.00
03342              10.00   -10400.00
03343              -2.00   -10600.00
03344               0.00   -10800.00
03345               0.00   -10800.00
03346              18.00   -10800.00
03347              24.00   -11000.00
03348              10.00   -11000.00
03349               6.00   -11200.00
03350               8.00   -11200.00
03351               2.00   -11200.00
03352              14.00   -11200.00
03353              18.00   -11200.00
03354              14.00   -11600.00
03355              20.00   -11600.00
03356               8.00   -11600.00
03357               0.00   -11600.00
03358               8.00   -11600.00
03359              14.00   -11600.00
03360              16.00   -11800.00
03361              18.00   -11800.00
03362              14.00   -11800.00
03363               8.00   -11800.00
03364              12.00   -12000.00
03365               8.00   -12000.00
03366              14.00   -11800.00
03367              16.00   -12000.00
03368              16.00   -12000.00
03369              16.00   -12000.00
03370              10.00   -12000.00
03371               2.00   -12000.00
03372               8.00   -12000.00
03373              14.00   -11800.00
03374              16.00   -12000.00
03375              16.00   -12000.00
03376              14.00   -12000.00
03377               8.00   -12000.00
03378               6.00   -12000.00
03379               8.00   -12000.00
03380              14.00   -11800.00
03381              18.00   -12000.00
03382              12.00   -11800.00
03383               6.00   -12000.00
03384               8.00   -11800.00
03385               6.00   -11800.00
03386              10.00   -11800.00
03387              18.00   -11600.00
03388              16.00   -11800.00
03389               8.00   -11600.00
03390               6.00   -11400.00
03391               6.00   -11600.00
03392               8.00   -11400.00
03393              14.00   -11200.00
03394              16.00   -11200.00
03395              14.00   -11200.00
03396               6.00   -11200.00
03397               6.00   -11000.00
03398               6.00   -11000.00
03399              12.00   -10800.00
03400              14.00   -10800.00
03401              10.00   -10800.00
03402              10.00   -10600.00
03403               6.00   -10400.00
03404               4.00   -10400.00
03405               6.00   -10200.00
03406              10.00   -10200.00
03407              10.00   -10200.00
03408              14.00    -9800.00
03409               8.00    -9800.00
03410               6.00    -9600.00
03411               4.00    -9600.00
03412               6.00    -9600.00
03413               8.00    -9400.00
03414              12.00    -9200.00
03415              10.00    -9200.00
03416               6.00    -9200.00
03417               6.00    -8800.00
03418               2.00    -8800.00
03419               6.00    -8600.00
03420              10.00    -8400.00
03421              14.00    -8400.00
03422              10.00    -8200.00
03423               6.00    -8000.00
03424               2.00    -7800.00
03425               6.00    -7400.00
03426               8.00    -7600.00
03427              10.00    -7200.00
03428               8.00    -7200.00
03429               6.00    -7200.00
03430               4.00    -7000.00
03431               2.00    -6800.00
03432               6.00    -6800.00
03433               8.00    -6400.00
03434               8.00    -6400.00
03435              10.00    -6200.00
03436               4.00    -6000.00
03437               2.00    -6000.00
03438               0.00    -5600.00
03439               2.00    -5400.00
03440               6.00    -5200.00
03441               2.00    -5200.00
03442               6.00    -4800.00
03443               0.00    -4800.00
03444              -2.00    -4600.00
03445              -2.00    -4400.00
03446               0.00    -4000.00
03447               4.00    -4000.00
03448               4.00    -3800.00
03449               0.00    -3600.00
03450              -2.00    -3400.00
03451              -2.00    -3200.00
03452               0.00    -3000.00
03453               4.00    -2800.00
03454               2.00    -2600.00
03455               0.00    -2400.00
03456              -4.00    -2400.00
03457               0.00    -2000.00
03458               0.00    -1800.00
03459               0.00    -1600.00
03460              -6.00    -1400.00
03461              -6.00    -1400.00
03462               0.00    -1000.00
03463               6.00     -800.00
03464               0.00     -600.00
03465              -6.00     -400.00
03466             -10.00     -400.00
03467              -6.00        0.00
03468               2.00      200.00
03469               8.00      400.00
03470               6.00      400.00
03471              22.00      600.00
03472              22.00      800.00
03473              -6.00     1000.00
03474             -18.00     1200.00
03475               0.00     1400.00
03476              18.00     1600.00
03477              78.00     1800.00
03478             246.00     2400.00
03479             128.00     2600.00
03480            -254.00     2400.00
03481            -254.00     2600.00
03482             -48.00     2800.00
03483             246.00     3000.00
03484             246.00     3400.00
03485            -250.00     3400.00
03486            -254.00     3400.00
03487             246.00     4000.00
03488             166.00     4000.00
03489               2.00     4200.00
03490              22.00     4600.00
03491            -254.00     4400.00
03492             206.00     4800.00
03493              80.00     5000.00
03494            -206.00     5200.00
03495              -6.00     5400.00
03496              -6.00     5600.00
03497             108.00     5600.00
03498              16.00     5600.00
03499             -62.00     6000.00
03500            -106.00     6000.00
03501              30.00     6400.00
03502             128.00     6600.00
03503            -112.00     6600.00
03504               0.00     7200.00
03505             -18.00     7000.00
03506             -10.00     7200.00
03507              40.00     7400.00
03508             -62.00     7600.00
03509             -22.00     7600.00
03510              30.00     7800.00
03511              14.00     8000.00
03512             -58.00     8000.00
03513             -10.00     8400.00
03514             -22.00     8400.00
03515               6.00     8800.00
03516               8.00     8800.00
03517             -40.00     8800.00
03518             -30.00     9000.00
03519              -2.00     9200.00
03520               2.00     9400.00
03521             -16.00     9400.00
03522              -8.00     9600.00
03523             -50.00     9600.00
03524             -10.00     9800.00
03525               0.00    10000.00
03526             -16.00    10000.00
03527              -8.00    10200.00
03528             -22.00    10400.00
03529             -40.00    10400.00
03530             -16.00    10600.00
03531               8.00    10600.00
03532             -14.00    10600.00
03533             -10.00    10800.00
03534             -32.00    10800.00
03535             -32.00    10800.00
03536             -14.00    11200.00
03537              -6.00    11200.00
03538             -16.00    11200.00
03539             -10.00    11400.00
03540             -16.00    11600.00
03541             -18.00    11800.00
03542             -12.00    11800.00
03543             -26.00    11800.00
03544             -20.00    12000.00
03545             -10.00    11800.00
03546             -16.00    12000.00
03547             -16.00    12000.00
03548             -10.00    12000.00
03549             -24.00    12000.00
03550             -26.00    12200.00
03551             -10.00    12000.00
03552              -8.00    12200.00
03553              -6.00    12200.00
03554             -20.00    12200.00
03555             -34.00    12200.00
03556             -22.00    12400.00
03557             -10.00    12400.00
03558             -16.00    12400.00
03559             -10.00    12400.00
03560             -18.00    12400.00
03561             -24.00    12400.00
03562             -24.00    12400.00
03563             -24.00    12400.00
03564             -18.00    12400.00
03565             -10.00    12200.00
03566              -8.00    12600.00
03567             -12.00    12400.00
03568             -26.00    12400.00
03569             -34.00    12200.00
03570             -26.00    12400.00
03571             -10.00    12400.00
03572              -6.00    12200.00
03573             -10.00    12200.00
03574             -24.00    12200.00
03575             -30.00    12200.00
03576             -22.00    12200.00
03577             -16.00    12200.00
03578             -18.00    12000.00
03579             -18.00    12200.00
03580             -20.00    12000.00
03581             -18.00    12000.00
03582             -18.00    12000.00
03583             -22.00    12000.00
03584             -18.00    11600.00
03585             -16.00    11800.00
03586             -18.00    11800.00
03587             -18.00    11800.00
03588             -14.00    11600.00
03589             -16.00    11600.00
03590             -18.00    11400.00
03591             -22.00    11200.00
03592             -22.00    11200.00
03593             -16.00    11200.00
03594             -16.00    11000.00
03595             -16.00    10800.00
03596             -18.00    10800.00
03597             -18.00    10600.00
03598             -18.00    10600.00
03599             -16.00    10400.00
03600             -16.00    10400.00
03601             -14.00    10200.00
03602             -18.00    10200.00
03603             -16.00     9800.00
03604             -16.00     9800.00
03605             -18.00     9800.00
03606             -14.00     9600.00
03607             -14.00     9400.00
03608             -16.00     9400.00
03609             -16.00     9200.00
03610             -16.00     9200.00
03611             -16.00     9000.00
03612             -10.00     9000.00
03613             -10.00     8800.00
03614             -10.00     8400.00
03615             -16.00     8400.00
03616             -22.00     8200.00
03617             -16.00     8000.00
03618              -8.00     8000.00
03619              -8.00     7800.00
03620             -10.00     7600.00
03621             -14.00     7600.00
03622             -16.00     7400.00
03623             -14.00     7200.00
03624             -14.00     6800.00
03625             -10.00     6800.00
03626              -8.00     6600.00
03627             -10.00     6600.00
03628             -14.00     6400.00
03629             -14.00     6000.00
03630             -10.00     6000.00
03631              -8.00     5800.00
03632              -4.00     5600.00
03633             -10.00     5600.00
03634             -10.00     5200.00
03635             -10.00     5000.00
03636             -14.00     4800.00
03637             -10.00     4800.00
03638              -6.00     4400.00
03639              -4.00     4200.00
03640              -8.00     4200.00
03641             -10.00     4000.00
03642             -14.00     3600.00
03643             -10.00     3400.00
03644              -8.00     3400.00
03645              -6.00     3200.00
03646              -8.00     2800.00
03647             -10.00     2800.00
03648              -8.00     2600.00
03649              -2.00     2400.00
03650              -6.00     2200.00
03651             -12.00     2000.00
03652             -10.00     1800.00
03653              -2.00     1600.00
03654              -2.00     1600.00
03655              -8.00     1200.00
03656             -14.00     1000.00
03657             -10.00      800.00
03658              -4.00      600.00
03659               2.00      200.00
03660               4.00      400.00
03661               4.00        0.00
03662               2.00     -200.00
03663              26.00     -400.00
03664              14.00     -600.00
03665             -18.00     -800.00
03666             -18.00     -800.00
03667               6.00    -1000.00
03668              24.00    -1200.00
03669              56.00    -1400.00
03670             210.00    -1600.00
03671             226.00    -2200.00
03672            -254.00    -2400.00
03673            -254.00    -2400.00
03674            -118.00    -2800.00
03675             174.00    -2600.00
03676             246.00    -2600.00
03677             246.00    -3200.00
03678            -254.00    -3200.00
03679            -250.00    -3200.00
03680             246.00    -4000.00
03681              66.00    -3600.00
03682              10.00    -4000.00
03683            -122.00    -4200.00
03684             -30.00    -4000.00
03685             186.00    -4800.00
03686             -32.00    -4600.00
03687             -88.00    -4800.00
03688             -94.00    -5000.00
03689              78.00    -5200.00
03690             150.00    -5600.00
03691             -72.00    -5400.00
03692             -42.00    -6000.00
03693             -46.00    -6000.00
03694              70.00    -6200.00
03695              78.00    -6400.00
03696             -50.00    -6400.00
03697             -10.00    -6800.00
03698               2.00    -6800.00
03699              48.00    -7000.00
03700             -18.00    -7200.00
03701             -16.00    -7200.00
03702              28.00    -7600.00
03703              16.00    -7400.00
03704              30.00    -7800.00
03705             -38.00    -7800.00
03706             -14.00    -8200.00
03707              42.00    -8400.00
03708              18.00    -8400.00
03709              -8.00    -8800.00
03710              -8.00    -8600.00
03711               4.00    -8800.00
03712              18.00    -8800.00
03713              18.00    -9000.00
03714              -2.00    -9200.00
03715               0.00    -9400.00
03716              18.00    -9600.00
03717               8.00    -9600.00
03718               6.00    -9600.00
03719              10.00    -9800.00
03720              -6.00   -10000.00
03721              10.00   -10000.00
03722               8.00   -10000.00
03723               8.00   -10200.00
03724              24.00   -10200.00
03725              14.00   -10400.00
03726              -2.00   -10600.00
03727               0.00   -10800.00
03728               8.00   -10800.00
03729              14.00   -10800.00
03730              22.00   -11000.00
03731              10.00   -10800.00
03732               2.00   -11000.00
03733              14.00   -11200.00
03734               6.00   -11200.00
03735               8.00   -11200.00
03736              14.00   -11200.00
03737               8.00   -11400.00
03738              16.00   -11600.00
03739              16.00   -11600.00
03740               2.00   -11600.00
03741               6.00   -11600.00
03742               8.00   -11800.00
03743              14.00   -11800.00
03744              20.00   -11600.00
03745              22.00   -11800.00
03746              10.00   -11800.00
03747               6.00   -11800.00
03748               6.00   -12000.00
03749               6.00   -12000.00
03750              18.00   -12000.00
03751              18.00   -12000.00
03752              14.00   -12000.00
03753              10.00   -12000.00
03754               6.00   -12000.00
03755               6.00   -12000.00
03756              14.00   -12000.00
03757              18.00   -12000.00
03758              18.00   -12000.00
03759              16.00   -12000.00
03760              10.00   -12000.00
03761               6.00   -12000.00
03762               8.00   -12000.00
03763              14.00   -12000.00
03764              18.00   -11800.00
03765              18.00   -11800.00
03766              12.00   -11800.00
03767               8.00   -11800.00
03768               8.00   -11800.00
03769              10.00   -11800.00
03770              14.00   -11800.00
03771              16.00   -11600.00
03772              10.00   -11600.00
03773               6.00   -11600.00
03774              10.00   -11600.00
03775               8.00   -11600.00
03776               8.00   -11200.00
03777              14.00   -11200.00
03778              16.00   -11200.00
03779              14.00   -11200.00
03780              10.00   -11000.00
03781               2.00   -11000.00
03782               8.00   -11000.00
03783               8.00   -10800.00
03784              14.00   -10800.00
03785              16.00   -10600.00
03786              14.00   -10600.00
03787               4.00   -10600.00
03788               6.00   -10400.00
03789              10.00   -10400.00
03790              10.00   -10000.00
03791              10.00   -10200.00
03792               8.00   -10000.00
03793               6.00    -9800.00
03794               8.00    -9800.00
03795               8.00    -9600.00
03796               6.00    -9600.00
03797               2.00    -9400.00
03798               8.00    -9200.00
03799              10.00    -9200.00
03800              14.00    -9000.00
03801               6.00    -8600.00
03802               0.00    -8800.00
03803               0.00    -8600.00
03804               8.00    -8600.00
03805              16.00    -8200.00
03806              14.00    -8400.00
03807               2.00    -8000.00
03808               0.00    -7600.00
03809               4.00    -7600.00
03810              10.00    -7400.00
03811              14.00    -7200.00
03812              10.00    -7200.00
03813               2.00    -7000.00
03814               0.00    -6800.00
03815               0.00    -6800.00
03816               6.00    -6600.00
03817              12.00    -6400.00
03818              10.00    -6200.00
03819               2.00    -6200.00
03820              -2.00    -6000.00
03821               0.00    -5600.00
03822               6.00    -5400.00
03823              14.00    -5400.00
03824               8.00    -5200.00
03825               2.00    -5200.00
03826               0.00    -4800.00
03827              -2.00    -4600.00
03828               0.00    -4400.00
03829               8.00    -4200.00
03830               8.00    -4000.00
03831               2.00    -3800.00
03832              -2.00    -3600.00
03833              -2.00    -3600.00
03834               0.00    -3200.00
03835               2.00    -3000.00
03836              -2.00    -3000.00
03837              -6.00    -2800.00
03838               0.00    -2600.00
03839               6.00    -2200.00
03840               6.00    -2200.00
03841              -2.00    -2000.00
03842             -10.00    -2000.00
03843              -2.00    -1600.00
03844               0.00    -1400.00
03845               2.00    -1200.00
03846               0.00    -1000.00
03847              -2.00     -800.00
03848              -6.00     -600.00
03849              -6.00     -400.00
03850              -2.00        0.00
03851               2.00        0.00
03852               6.00      200.00
03853               6.00      400.00
03854               2.00      400.00
03855              22.00      800.00
03856              16.00      800.00
03857             -10.00     1200.00
03858             -18.00     1200.00
03859               6.00     1600.00
03860              38.00     1600.00
03861             178.00     1800.00
03862             246.00     2400.00
03863            -186.00     2400.00
03864            -254.00     2600.00
03865            -254.00     2800.00
03866             120.00     2800.00
03867             246.00     3200.00
03868             246.00     3400.00
03869            -254.00     3400.00
03870            -220.00     3600.00
03871             246.00     4000.00
03872             -20.00     4000.00
03873              66.00     4400.00
03874            -176.00     4400.00
03875             -84.00     4400.00
03876             246.00     4800.00
03877            -142.00     5000.00
03878            -118.00     5400.00
03879               0.00     5400.00
03880              36.00     5600.00
03881              94.00     5600.00
03882             -42.00     6000.00
03883             -66.00     6200.00
03884             -90.00     6000.00
03885             128.00     6800.00
03886              -2.00     6400.00
03887             -96.00     6800.00
03888              42.00     6800.00
03889             -38.00     6800.00
03890              36.00     7200.00
03891             -26.00     7600.00
03892             -68.00     7600.00
03893               8.00     7600.00
03894              48.00     8000.00
03895             -24.00     8000.00
03896             -48.00     8200.00
03897              -2.00     8400.00
03898             -24.00     8400.00
03899              22.00     8800.00
03900             -24.00     8800.00
03901             -46.00     9000.00
03902             -16.00     9000.00
03903              18.00     9200.00
03904             -10.00     9200.00
03905             -16.00     9600.00
03906             -34.00     9600.00
03907             -46.00     9600.00
03908              16.00    10000.00
03909              -6.00    10000.00
03910              -6.00    10000.00
03911             -12.00    10200.00
03912             -40.00    10400.00
03913             -42.00    10400.00
03914               0.00    10800.00
03915               6.00    10600.00
03916              -8.00    10600.00
03917             -16.00    10800.00
03918             -40.00    10800.00
03919             -30.00    10800.00
03920             -10.00    11200.00
03921             -14.00    11200.00
03922             -10.00    11400.00
03923              -8.00    11400.00
03924             -26.00    11600.00
03925             -18.00    11800.00
03926             -16.00    11600.00
03927             -32.00    11800.00
03928             -12.00    11800.00
03929              -8.00    11800.00
03930             -16.00    12000.00
03931             -18.00    12000.00
03932             -24.00    12200.00
03933             -26.00    12000.00
03934             -16.00    12000.00
03935             -14.00    12200.00
03936             -14.00    12200.00
03937             -12.00    12200.00
03938             -22.00    12200.00
03939             -26.00    12400.00
03940             -16.00    12400.00
03941             -16.00    12400.00
03942             -16.00    12400.00
03943             -14.00    12400.00
03944             -22.00    12400.00
03945             -22.00    12400.00
03946             -18.00    12400.00
03947             -22.00    12400.00
03948             -14.00    12400.00
03949             -10.00    12400.00
03950             -16.00    12400.00
03951             -20.00    12400.00
03952             -22.00    12600.00
03953             -24.00    12400.00
03954             -16.00    12400.00
03955             -10.00    12400.00
03956             -14.00    12400.00
03957             -16.00    12200.00
03958             -24.00    12400.00
03959             -24.00    12200.00
03960             -16.00    12200.00
03961             -10.00    12200.00
03962             -16.00    12200.00
03963             -18.00    12000.00
03964             -24.00    12000.00
03965             -22.00    11800.00
03966             -18.00    12000.00
03967             -16.00    11600.00
03968             -14.00    11800.00
03969             -16.00    11600.00
03970             -16.00    11600.00
03971             -22.00    11400.00
03972             -24.00    11400.00
03973             -26.00    11400.00
03974             -16.00    11200.00
03975              -8.00    11200.00
03976             -14.00    11200.00
03977             -18.00    11000.00
03978             -24.00    10800.00
03979             -24.00    10800.00
03980             -16.00    10800.00
03981             -10.00    10400.00
03982             -10.00    10600.00
03983             -16.00    10400.00
03984             -24.00    10200.00
03985             -24.00    10200.00
03986             -18.00    10000.00
03987             -14.00     9800.00
03988             -10.00     9800.00
03989             -10.00     9800.00
03990             -16.00     9600.00
03991             -18.00     9400.00
03992             -14.00     9200.00
03993             -14.00     9200.00
03994             -16.00     9000.00
03995             -16.00     8800.00
03996             -16.00     8800.00
03997             -14.00     8600.00
03998             -10.00     8400.00
03999             -16.00     8200.00
04000             -18.00     8200.00
04001             -16.00     8000.00
04002             -10.00     8000.00
04003             -10.00     7600.00
04004              -8.00     7600.00
04005             -16.00     7200.00
04006             -16.00     7200.00
04007             -16.00     7200.00
04008             -10.00     7000.00
04009              -8.00     6800.00
04010              -6.00     6600.00
04011             -10.00     6400.00
04012             -10.00     6200.00
04013             -14.00     6000.00
04014             -10.00     6000.00
04015             -12.00     5800.00
04016              -8.00     5600.00
04017             -10.00     5400.00
04018             -10.00     5200.00
04019             -12.00     5200.00
04020             -10.00     4800.00
04021              -6.00     4600.00
04022              -2.00     4400.00
04023              -6.00     4200.00
04024             -10.00     4000.00
04025             -10.00     4000.00
04026             -14.00     3600.00
04027              -8.00     3400.00
04028              -6.00     3400.00
04029              -6.00     3200.00
04030              -6.00     2800.00
04031             -10.00     2800.00
04032             -10.00     2600.00
04033             -10.00     2000.00
04034              -8.00     2200.00
04035              -6.00     2000.00
04036              -6.00     1600.00
04037              -6.00     1400.00
04038              -8.00     1200.00
04039              -8.00     1200.00
04040             -10.00      800.00
04041              -6.00      800.00
04042              -2.00      600.00
04043               0.00      400.00
04044               0.00      200.00
04045               0.00        0.00
04046              16.00        0.00
04047              28.00     -400.00
04048               0.00     -600.00
04049             -24.00     -600.00
04050              -8.00    -1000.00
04051              14.00    -1000.00
04052              24.00    -1400.00
04053              98.00    -1400.00
04054             246.00    -1800.00
04055              38.00    -2400.00
04056            -254.00    -2400.00
04057            -254.00    -2600.00
04058              64.00    -2800.00
04059             200.00    -2600.00
04060             246.00    -2800.00
04061              54.00    -3400.00
04062            -254.00    -3200.00
04063              64.00    -3600.00
04064             244.00    -3800.00
04065               0.00    -3600.00
04066             -14.00    -4400.00
04067            -142.00    -4000.00
04068             112.00    -4400.00
04069              98.00    -4600.00
04070             -94.00    -4600.00
04071             -78.00    -5200.00
04072             -40.00    -4800.00
04073             176.00    -5600.00
04074              34.00    -5400.00
04075             -92.00    -5600.00
04076             -42.00    -6200.00
04077              -8.00    -5800.00
04078             122.00    -6400.00
04079               0.00    -6200.00
04080             -50.00    -6600.00
04081             -10.00    -6800.00
04082              30.00    -6800.00
04083              38.00    -7200.00
04084             -38.00    -7200.00
04085              10.00    -7400.00
04086              14.00    -7600.00
04087              30.00    -7600.00
04088              14.00    -8000.00
04089             -38.00    -7800.00
04090              22.00    -8400.00
04091              30.00    -8400.00
04092               0.00    -8600.00
04093              -8.00    -8600.00
04094               2.00    -8600.00
04095              16.00    -8800.00
04096              22.00    -9000.00
04097               4.00    -9200.00
04098             -10.00    -9200.00
04099               6.00    -9200.00
04100              16.00    -9600.00
04101               6.00    -9600.00
04102              14.00    -9800.00
04103               6.00    -9800.00
04104               2.00   -10200.00
04105               8.00   -10000.00
04106              -2.00   -10200.00
04107              14.00   -10200.00
04108              26.00   -10400.00
04109              14.00   -10400.00
04110               0.00   -10600.00
04111              -2.00   -10600.00
04112               2.00   -10800.00
04113              16.00   -10800.00
04114              24.00   -11000.00
04115              10.00   -11000.00
04116               8.00   -11200.00
04117               8.00   -11200.00
04118               2.00   -11200.00
04119              10.00   -11400.00
04120              14.00   -11600.00
04121              10.00   -11400.00
04122              18.00   -11600.00
04123              10.00   -11600.00
04124               4.00   -11600.00
04125               8.00   -11600.00
04126              10.00   -11800.00
04127              14.00   -11800.00
04128              18.00   -12000.00
04129              14.00   -11800.00
04130               6.00   -11800.00
04131               8.00   -12000.00
04132              10.00   -11800.00
04133              14.00   -12000.00
04134              18.00   -12000.00
04135              14.00   -12000.00
04136              16.00   -12000.00
04137              12.00   -12000.00
04138               6.00   -12000.00
04139              10.00   -12000.00
04140              14.00   -12000.00
04141              16.00   -12000.00
04142              18.00   -12000.00
04143              14.00   -12000.00
04144               6.00   -12000.00
04145               8.00   -12000.00
04146              14.00   -12000.00
04147              20.00   -11800.00
04148              18.00   -11800.00
04149              14.00   -11800.00
04150               6.00   -11800.00
04151               8.00   -12000.00
04152              10.00   -11800.00
04153              14.00   -11600.00
04154              18.00   -11600.00
04155              18.00   -11600.00
04156              10.00   -11600.00
04157               8.00   -11600.00
04158               6.00   -11200.00
04159              10.00   -11400.00
04160              16.00   -11200.00
04161              18.00   -11200.00
04162              14.00   -11200.00
04163               8.00   -11200.00
04164               4.00   -11200.00
04165               2.00   -11000.00
04166              10.00   -10800.00
04167              16.00   -10800.00
04168              14.00   -10800.00
04169               8.00   -10600.00
04170               0.00   -10400.00
04171               6.00   -10400.00
04172              14.00   -10400.00
04173              10.00   -10200.00
04174               8.00   -10200.00
04175              14.00   -10000.00
04176              10.00   -10000.00
04177               4.00   -10000.00
04178               6.00    -9600.00
04179               8.00    -9600.00
04180               6.00    -9400.00
04181              10.00    -9200.00
04182              12.00    -9200.00
04183              10.00    -9000.00
04184               6.00    -8800.00
04185              -2.00    -8800.00
04186              -2.00    -8600.00
04187              16.00    -8600.00
04188              18.00    -8400.00
04189               6.00    -8200.00
04190              -4.00    -8000.00
04191               2.00    -7800.00
04192              14.00    -7800.00
04193               8.00    -7600.00
04194               0.00    -7400.00
04195               8.00    -7200.00
04196              16.00    -7000.00
04197               6.00    -7000.00
04198               0.00    -6800.00
04199               0.00    -6600.00
04200              10.00    -6400.00
04201              10.00    -6400.00
04202               6.00    -6200.00
04203               2.00    -6000.00
04204               6.00    -5800.00
04205               2.00    -5600.00
04206               2.00    -5600.00
04207              10.00    -5400.00
04208               0.00    -5000.00
04209               0.00    -4800.00
04210               0.00    -4600.00
04211               6.00    -4600.00
04212               2.00    -4400.00
04213               0.00    -4200.00
04214               0.00    -4000.00
04215               8.00    -3800.00
04216               4.00    -3600.00
04217              -8.00    -3400.00
04218              -2.00    -3200.00
04219               6.00    -3000.00
04220               6.00    -2800.00
04221               2.00    -2800.00
04222              -2.00    -2400.00
04223              -2.00    -2200.00
04224              -2.00    -2200.00
04225               0.00    -2000.00
04226              -2.00    -1600.00
04227               0.00    -1400.00
04228               0.00    -1400.00
04229               0.00    -1000.00
04230              -6.00     -800.00
04231              -6.00     -800.00
04232              -6.00     -400.00
04233               0.00     -200.00
04234              -6.00        0.00
04235               0.00      200.00
04236               2.00      400.00
04237               2.00      400.00
04238              22.00      800.00
04239              24.00      800.00
04240              -6.00     1000.00
04241             -22.00     1200.00
04242              -6.00     1400.00
04243              16.00     1600.00
04244              66.00     1800.00
04245             246.00     2000.00
04246             176.00     2400.00
04247            -254.00     2400.00
04248            -254.00     2600.00
04249             -86.00     2800.00
04250             246.00     3000.00
04251             246.00     3400.00
04252            -114.00     3400.00
04253            -254.00     3400.00
04254             208.00     4000.00
04255             216.00     4000.00
04256             -22.00     4200.00
04257              54.00     4400.00
04258            -254.00     4400.00
04259             160.00     4400.00
04260             130.00     4800.00
04261            -218.00     5000.00
04262             -22.00     5400.00
04263             -14.00     5600.00
04264             102.00     5600.00
04265              32.00     5600.00
04266             -56.00     6200.00
04267            -104.00     6000.00
04268               0.00     6400.00
04269             138.00     6600.00
04270            -104.00     6600.00
04271             -14.00     6800.00
04272              -2.00     6800.00
04273             -22.00     7200.00
04274              42.00     7600.00
04275             -62.00     7400.00
04276             -32.00     7600.00
04277              26.00     7800.00
04278              26.00     8000.00
04279             -50.00     8000.00
04280             -14.00     8400.00
04281             -18.00     8400.00
04282              -6.00     8400.00
04283              16.00     9000.00
04284             -36.00     8800.00
04285             -30.00     9200.00
04286              -2.00     9200.00
04287               6.00     9400.00
04288             -18.00     9600.00
04289              -2.00     9600.00
04290             -46.00     9800.00
04291             -16.00     9800.00
04292               2.00    10000.00
04293             -16.00    10000.00
04294               0.00    10200.00
04295             -18.00    10200.00
04296             -42.00    10400.00
04297             -24.00    10400.00
04298               8.00    10800.00
04299              -8.00    10600.00
04300              -8.00    10800.00
04301             -32.00    10800.00
04302             -38.00    11000.00
04303             -14.00    11200.00
04304              -8.00    11200.00
04305             -14.00    11200.00
04306             -10.00    11400.00
04307             -22.00    11600.00
04308             -24.00    11800.00
04309             -12.00    11800.00
04310             -24.00    11600.00
04311             -22.00    11800.00
04312              -8.00    11800.00
04313             -14.00    12000.00
04314             -18.00    12000.00
04315             -18.00    12000.00
04316             -26.00    12200.00
04317             -22.00    12200.00
04318              -8.00    12000.00
04319             -14.00    12200.00
04320             -10.00    12400.00
04321             -18.00    12400.00
04322             -30.00    12400.00
04323             -22.00    12400.00
04324             -16.00    12200.00
04325             -14.00    12400.00
04326             -10.00    12400.00
04327             -14.00    12400.00
04328             -26.00    12400.00
04329             -22.00    12400.00
04330             -18.00    12400.00
04331             -18.00    12400.00
04332             -10.00    12400.00
04333             -10.00    12400.00
04334             -18.00    12400.00
04335             -22.00    12400.00
04336             -26.00    12400.00
04337             -22.00    12200.00
04338             -14.00    12400.00
04339             -14.00    12200.00
04340             -12.00    12400.00
04341             -18.00    12400.00
04342             -26.00    12200.00
04343             -26.00    12200.00
04344             -16.00    12200.00
04345             -10.00    12000.00
04346             -10.00    12000.00
04347             -16.00    12000.00
04348             -24.00    12000.00
04349             -22.00    12000.00
04350             -18.00    11800.00
04351             -14.00    11800.00
04352             -10.00    11600.00
04353             -14.00    11800.00
04354             -22.00    11800.00
04355             -22.00    11600.00
04356             -22.00    11400.00
04357             -20.00    11200.00
04358             -14.00    11200.00
04359             -14.00    11200.00
04360             -14.00    11000.00
04361             -16.00    10800.00
04362             -22.00    10800.00
04363             -24.00    10800.00
04364             -16.00    10600.00
04365             -12.00    10400.00
04366             -10.00    10400.00
04367             -16.00    10400.00
04368             -24.00    10400.00
04369             -22.00    10000.00
04370             -16.00    10000.00
04371             -14.00    10000.00
04372             -10.00     9600.00
04373             -16.00     9600.00
04374             -16.00     9400.00
04375             -18.00     9600.00
04376             -18.00     9200.00
04377             -16.00     9200.00
04378             -16.00     9000.00
04379             -14.00     8800.00
04380             -14.00     8600.00
04381             -16.00     8400.00
04382             -16.00     8400.00
04383             -16.00     8200.00
04384             -16.00     8000.00
04385             -14.00     8000.00
04386             -10.00     8000.00
04387             -10.00     7600.00
04388             -14.00     7400.00
04389             -18.00     7400.00
04390             -18.00     7200.00
04391             -14.00     7200.00
04392             -10.00     6800.00
04393             -10.00     6600.00
04394             -10.00     6400.00
04395             -16.00     6200.00
04396             -14.00     6400.00
04397             -14.00     6000.00
04398             -10.00     5800.00
04399              -6.00     5600.00
04400             -10.00     5400.00
04401             -14.00     5200.00
04402             -14.00     5000.00
04403             -12.00     4800.00
04404             -10.00     4600.00
04405              -2.00     4400.00
04406              -8.00     4200.00
04407              -8.00     4000.00
04408             -10.00     4000.00
04409             -10.00     3800.00
04410             -10.00     3400.00
04411              -6.00     3400.00
04412              -8.00     3200.00
04413              -6.00     3000.00
04414              -8.00     2800.00
04415             -10.00     2600.00
04416              -8.00     2400.00
04417             -10.00     2200.00
04418              -2.00     2000.00
04419               0.00     1800.00
04420              -2.00     1600.00
04421               0.00     1400.00
04422             -24.00     1200.00
04423             -10.00     1000.00
04424             -18.00      800.00
04425             -10.00      400.00
04426               6.00      400.00
04427             -38.00        0.00
04428              56.00      200.00
04429              30.00        0.00
04430              56.00     -400.00
04431              -8.00     -400.00
04432             -32.00     -800.00
04433             -58.00     -800.00
04434             -22.00    -1200.00
04435              -2.00    -1000.00
04436              74.00    -1400.00
04437             238.00    -1400.00
04438             246.00    -2200.00
04439            -222.00    -2400.00
04440            -254.00    -2400.00
04441            -170.00    -2800.00
04442             152.00    -2400.00
04443             246.00    -2600.00
04444             246.00    -3000.00
04445            -254.00    -3400.00
04446            -254.00    -3200.00
04447             246.00    -3800.00
04448             116.00    -3600.00
04449              32.00    -3800.00
04450             -96.00    -4400.00
04451             -64.00    -4000.00
04452             178.00    -4600.00
04453             -24.00    -4600.00
04454             -96.00    -5000.00
04455             -96.00    -5200.00
04456              56.00    -5200.00
04457             174.00    -5600.00
04458             -74.00    -5200.00
04459             -50.00    -6000.00
04460             -24.00    -5800.00
04461              82.00    -6000.00
04462              80.00    -6400.00
04463             -74.00    -6200.00
04464             -42.00    -6800.00
04465               4.00    -6800.00
04466              66.00    -6800.00
04467              -2.00    -7200.00
04468             -30.00    -7200.00
04469              22.00    -7600.00
04470              20.00    -7400.00
04471              48.00    -7800.00
04472             -18.00    -7800.00
04473             -34.00    -8200.00
04474              16.00    -8400.00
04475              14.00    -8400.00
04476              14.00    -8600.00
04477              16.00    -8800.00
04478               6.00    -8800.00
04479              10.00    -9000.00
04480              10.00    -9200.00
04481               0.00    -9200.00
04482               2.00    -9400.00
04483              22.00    -9600.00
04484              10.00    -9600.00
04485               6.00    -9800.00
04486              14.00   -10000.00
04487               0.00   -10000.00
04488               6.00   -10000.00
04489               2.00   -10200.00
04490               2.00   -10200.00
04491              30.00   -10400.00
04492              24.00   -10400.00
04493               2.00   -10800.00
04494              -2.00   -10800.00
04495              -2.00   -10800.00
04496              10.00   -10800.00
04497              24.00   -10800.00
04498              14.00   -11000.00
04499               2.00   -11000.00
04500              16.00   -11200.00
04501              12.00   -11200.00
04502               6.00   -11200.00
04503               6.00   -11200.00
04504               6.00   -11400.00
04505              18.00   -11600.00
04506              24.00   -11600.00
04507               8.00   -11600.00
04508              -2.00   -11600.00
04509               2.00   -11600.00
04510              10.00   -11600.00
04511              18.00   -11800.00
04512              24.00   -11800.00
04513              14.00   -11800.00
04514               6.00   -12000.00
04515               6.00   -12000.00
04516               4.00   -11800.00
04517              14.00   -12000.00
04518              20.00   -12000.00
04519              16.00   -12000.00
04520              16.00   -12000.00
04521               6.00   -12000.00
04522               6.00   -12000.00
04523              14.00   -12000.00
04524              16.00   -12000.00
04525              18.00   -12000.00
04526              14.00   -12000.00
04527              10.00   -12000.00
04528               8.00   -12000.00
04529              10.00   -11800.00
04530              14.00   -12000.00
04531              16.00   -12000.00
04532              18.00   -11800.00
04533              10.00   -11800.00
04534               6.00   -11800.00
04535               4.00   -11800.00
04536              12.00   -11600.00
04537              20.00   -11800.00
04538              22.00   -11600.00
04539              10.00   -11800.00
04540               0.00   -11600.00
04541               8.00   -11400.00
04542              16.00   -11400.00
04543              16.00   -11200.00
04544              14.00   -11200.00
04545              14.00   -11200.00
04546              12.00   -11200.00
04547              10.00   -11000.00
04548               6.00   -11000.00
04549               6.00   -10800.00
04550              14.00   -10800.00
04551              18.00   -10800.00
04552              14.00   -10800.00
04553              10.00   -10800.00
04554               2.00   -10600.00
04555               2.00   -10200.00
04556               6.00   -10200.00
04557              10.00   -10000.00
04558              16.00   -10000.00
04559              16.00   -10000.00
04560               4.00   -10000.00
04561               0.00    -9600.00
04562               2.00    -9600.00
04563               6.00    -9400.00
04564              10.00    -9200.00
04565              10.00    -9200.00
04566               8.00    -9200.00
04567               8.00    -8800.00
04568               0.00    -8800.00
04569               0.00    -8800.00
04570               8.00    -8600.00
04571              12.00    -8400.00
04572              14.00    -8400.00
04573               2.00    -8000.00
04574               0.00    -8000.00
04575               2.00    -7800.00
04576               6.00    -7600.00
04577               8.00    -7400.00
04578              10.00    -7400.00
04579               8.00    -7200.00
04580               2.00    -7000.00
04581               4.00    -7000.00
04582               0.00    -6800.00
04583               2.00    -6400.00
04584              10.00    -6200.00
04585               6.00    -6200.00
04586               6.00    -6000.00
04587               2.00    -5800.00
04588               2.00    -5600.00
04589               2.00    -5600.00
04590              -2.00    -5400.00
04591               0.00    -5200.00
04592              16.00    -5000.00
04593              10.00    -4800.00
04594              -8.00    -4600.00
04595              -2.00    -4400.00
04596               6.00    -4200.00
04597               6.00    -4000.00
04598               6.00    -3800.00
04599               0.00    -3800.00
04600              -8.00    -3400.00
04601               0.00    -3200.00
04602               6.00    -3200.00
04603               8.00    -2800.00
04604              -2.00    -2800.00
04605             -10.00    -2400.00
04606              -6.00    -2400.00
04607               8.00    -2200.00
04608               8.00    -2000.00
04609               0.00    -1600.00
04610              -6.00    -1400.00
04611              -8.00    -1400.00
04612               0.00    -1200.00
04613               0.00    -1000.00
04614               2.00     -800.00
04615               0.00     -600.00
04616              -8.00     -600.00
04617             -14.00     -200.00
04618              -8.00        0.00
04619              10.00      200.00
04620              18.00      400.00
04621              14.00      400.00
04622              14.00      800.00
04623              -2.00      800.00
04624             -10.00     1200.00
04625               0.00     1200.00
04626              14.00     1600.00
04627              16.00     1600.00
04628             138.00     1800.00
04629             246.00     2400.00
04630             -98.00     2400.00
04631            -254.00     2600.00
04632            -254.00     2600.00
04633              72.00     2800.00
04634             246.00     3000.00
04635             246.00     3400.00
04636            -254.00     3200.00
04637            -254.00     3600.00
04638             246.00     4000.00
04639               8.00     4000.00
04640              78.00     4200.00
04641            -122.00     4400.00
04642            -152.00     4400.00
04643             246.00     4800.00
04644             -98.00     5200.00
04645            -130.00     5200.00
04646               6.00     5400.00
04647              18.00     5600.00
04648              98.00     5600.00
04649             -36.00     5800.00
04650             -58.00     6000.00
04651             -94.00     6000.00
04652             112.00     6400.00
04653              30.00     6600.00
04654            -116.00     6600.00
04655              38.00     7000.00
04656             -40.00     7000.00
04657              32.00     7200.00
04658              -2.00     7400.00
04659             -62.00     7600.00
04660              -4.00     7600.00
04661              38.00     8000.00
04662             -14.00     8000.00
04663             -50.00     8200.00
04664              -2.00     8600.00
04665             -26.00     8400.00
04666              22.00     8800.00
04667             -10.00     9000.00
04668             -40.00     8800.00
04669             -22.00     9200.00
04670               8.00     9200.00
04671              -8.00     9400.00
04672              -6.00     9600.00
04673             -14.00     9600.00
04674             -48.00     9800.00
04675               2.00     9800.00
04676             -10.00    10000.00
04677              -8.00    10000.00
04678              -4.00    10400.00
04679             -26.00    10200.00
04680             -34.00    10400.00
04681              -6.00    10600.00
04682               0.00    10600.00
04683             -14.00    10800.00
04684             -10.00    10800.00
04685             -34.00    11000.00
04686             -26.00    11200.00
04687             -10.00    11000.00
04688             -10.00    11200.00
04689             -14.00    11400.00
04690             -10.00    11400.00
04691             -24.00    11400.00
04692             -18.00    11600.00
04693             -16.00    11800.00
04694             -26.00    11800.00
04695             -14.00    11800.00
04696             -10.00    11800.00
04697             -16.00    12000.00
04698             -18.00    12000.00
04699             -22.00    12200.00
04700             -28.00    12000.00
04701             -16.00    12200.00
04702             -10.00    12200.00
04703             -14.00    12200.00
04704             -14.00    12200.00
04705             -26.00    12200.00
04706             -28.00    12400.00
04707             -18.00    12200.00
04708             -16.00    12400.00
04709             -14.00    12400.00
04710             -10.00    12200.00
04711             -22.00    12400.00
04712             -22.00    12400.00
04713             -22.00    12400.00
04714             -24.00    12400.00
04715             -16.00    12400.00
04716             -10.00    12400.00
04717             -16.00    12400.00
04718             -18.00    12400.00
04719             -24.00    12400.00
04720             -26.00    12200.00
04721             -16.00    12200.00
04722             -10.00    12200.00
04723             -14.00    12200.00
04724             -16.00    12200.00
04725             -18.00    12400.00
04726             -26.00    12200.00
04727             -22.00    12200.00
04728             -16.00    12200.00
04729             -14.00    12000.00
04730             -12.00    12200.00
04731             -16.00    12000.00
04732             -24.00    12000.00
04733             -22.00    12000.00
04734             -18.00    12000.00
04735             -16.00    11800.00
04736             -10.00    11600.00
04737             -16.00    11800.00
04738             -18.00    11600.00
04739             -22.00    11400.00
04740             -24.00    11400.00
04741             -18.00    11400.00
04742              -8.00    11200.00
04743             -10.00    11200.00
04744             -16.00    11000.00
04745             -18.00    11000.00
04746             -22.00    10800.00
04747             -22.00    10800.00
04748             -16.00    10600.00
04749             -10.00    10400.00
04750             -14.00    10400.00
04751             -24.00    10200.00
04752             -28.00    10200.00
04753             -16.00    10200.00
04754             -10.00    10000.00
04755             -16.00     9600.00
04756             -16.00     9800.00
04757             -22.00     9600.00
04758             -16.00     9400.00
04759             -12.00     9200.00
04760             -22.00     9200.00
04761             -18.00     9000.00
04762             -16.00     9000.00
04763             -14.00     8800.00
04764             -14.00     8400.00
04765             -18.00     8400.00
04766             -16.00     8400.00
04767             -14.00     8200.00
04768             -14.00     8000.00
04769             -16.00     8000.00
04770             -16.00     7600.00
04771             -14.00     7600.00
04772             -14.00     7400.00
04773             -16.00     7200.00
04774             -18.00     7000.00
04775             -12.00     6800.00
04776              -6.00     6800.00
04777              -8.00     6600.00
04778             -14.00     6400.00
04779             -16.00     6400.00
04780             -16.00     6000.00
04781             -14.00     5800.00
04782             -10.00     5600.00
04783              -2.00     5600.00
04784              -4.00     5400.00
04785             -14.00     5200.00
04786             -18.00     5000.00
04787             -16.00     4800.00
04788             -10.00     4600.00
04789               0.00     4400.00
04790              -4.00     4200.00
04791              -8.00     4000.00
04792             -14.00     3800.00
04793             -16.00     3600.00
04794             -10.00     3400.00
04795              -2.00     3400.00
04796              -4.00     3200.00
04797              -8.00     2800.00
04798             -10.00     2600.00
04799             -10.00     2400.00
04800              -8.00     2200.00
04801              -6.00     2200.00
04802              -2.00     1800.00
04803              -2.00     1600.00
04804              -6.00     1600.00
04805              -4.00     1400.00
04806              -2.00     1200.00
04807             -10.00     1000.00
04808             -10.00      800.00
04809              -6.00      600.00
04810               6.00      200.00
04811               2.00      200.00
04812              -2.00        0.00
04813              16.00     -200.00
04814              32.00     -400.00
04815               0.00     -600.00
04816             -26.00     -800.00
04817             -14.00     -800.00
04818              16.00    -1000.00
04819              26.00    -1400.00
04820              88.00    -1400.00
04821             246.00    -1800.00
04822              88.00    -2200.00
04823            -254.00    -2400.00
04824            -254.00    -2400.00
04825              34.00    -2600.00
04826             196.00    -2600.00
04827             246.00    -2600.00
04828             124.00    -3200.00
04829            -254.00    -3200.00
04830               0.00    -3600.00
04831             246.00    -3800.00
04832               0.00    -3400.00
04833              -2.00    -4400.00
04834            -142.00    -4000.00
04835              82.00    -4400.00
04836             126.00    -4800.00
04837             -90.00    -4600.00
04838             -80.00    -5200.00
04839             -58.00    -5000.00
04840             162.00    -5400.00
04841              64.00    -5600.00
04842             -92.00    -5600.00
04843             -40.00    -6200.00
04844             -22.00    -5800.00
04845             118.00    -6400.00
04846              18.00    -6200.00
04847             -58.00    -6400.00
04848             -10.00    -7000.00
04849              22.00    -6800.00
04850              46.00    -7200.00
04851             -34.00    -7200.00
04852               2.00    -7200.00
04853              14.00    -7600.00
04854              22.00    -7600.00
04855              18.00    -7800.00
04856             -34.00    -8000.00
04857              18.00    -8400.00
04858              32.00    -8400.00
04859              -2.00    -8400.00
04860             -10.00    -8600.00
04861               2.00    -8600.00
04862              22.00    -9000.00
04863              26.00    -8800.00
04864               8.00    -9200.00
04865             -14.00    -9200.00
04866               8.00    -9400.00
04867              24.00    -9400.00
04868               8.00    -9600.00
04869              14.00    -9600.00
04870               8.00   -10000.00
04871               2.00   -10000.00
04872              14.00   -10000.00
04873              -2.00   -10000.00
04874              14.00   -10400.00
04875              32.00   -10200.00
04876              14.00   -10400.00
04877              -2.00   -10400.00
04878               0.00   -10800.00
04879               2.00   -10800.00
04880              18.00   -11000.00
04881              24.00   -11000.00
04882               8.00   -11200.00
04883              10.00   -11000.00
04884              10.00   -11200.00
04885               0.00   -11200.00
04886               8.00   -11200.00
04887              16.00   -11200.00
04888              16.00   -11600.00
04889              22.00   -11600.00
04890               8.00   -11600.00
04891              -2.00   -11600.00
04892               8.00   -11800.00
04893              14.00   -11800.00
04894              16.00   -11800.00
04895              22.00   -11800.00
04896              14.00   -11800.00
04897               2.00   -11800.00
04898               6.00   -12000.00
04899               8.00   -12000.00
04900              14.00   -11800.00
04901              18.00   -12000.00
04902              14.00   -12000.00
04903              14.00   -12000.00
04904              10.00   -12000.00
04905               2.00   -12000.00
04906               8.00   -12000.00
04907              16.00   -12000.00
04908              20.00   -12000.00
04909              20.00   -12000.00
04910              10.00   -12000.00
04911               0.00   -12000.00
04912               6.00   -12000.00
04913              16.00   -12000.00
04914              18.00   -12000.00
04915              16.00   -11800.00
04916              14.00   -11800.00
04917               8.00   -11800.00
04918               8.00   -11800.00
04919               8.00   -11600.00
04920              12.00   -11600.00
04921              18.00   -11600.00
04922              16.00   -11600.00
04923              10.00   -11600.00
04924               8.00   -11600.00
04925               8.00   -11400.00
04926               8.00   -11400.00
04927              14.00   -11200.00
04928              16.00   -11200.00
04929              18.00   -11200.00
04930              10.00   -11200.00
04931               2.00   -11200.00
04932               2.00   -11000.00
04933              16.00   -11000.00
04934              22.00   -10800.00
04935              14.00   -10800.00
04936              10.00   -10600.00
04937               6.00   -10600.00
04938               6.00   -10400.00
04939              10.00   -10200.00
04940              14.00   -10200.00
04941              14.00   -10000.00
04942              10.00   -10000.00
04943               8.00   -10000.00
04944               4.00    -9800.00
04945               6.00    -9600.00
04946               4.00    -9400.00
04947              10.00    -9400.00
04948              12.00    -9400.00
04949               8.00    -9200.00
04950               6.00    -9200.00
04951               2.00    -8800.00
04952               6.00    -8800.00
04953               8.00    -8600.00
04954              10.00    -8600.00
04955              10.00    -8400.00
04956               6.00    -8400.00
04957               2.00    -8000.00
04958               6.00    -8000.00
04959               6.00    -7800.00
04960               6.00    -7800.00
04961               8.00    -7400.00
04962               8.00    -7200.00
04963               8.00    -7200.00
04964               6.00    -7000.00
04965               0.00    -6800.00
04966               2.00    -6800.00
04967               6.00    -6400.00
04968               6.00    -6400.00
04969               6.00    -6200.00
04970               6.00    -6000.00
04971               4.00    -5600.00
04972               2.00    -5600.00
04973               0.00    -5400.00
04974               2.00    -5200.00
04975               8.00    -5200.00
04976               8.00    -4800.00
04977               2.00    -4600.00
04978              -2.00    -4600.00
04979              -4.00    -4400.00
04980               2.00    -4200.00
04981               8.00    -4000.00
04982               6.00    -3800.00
04983               2.00    -3800.00
04984               0.00    -3400.00
04985              -6.00    -3200.00
04986               2.00    -3000.00
04987               6.00    -2800.00
04988               2.00    -2600.00
04989              -2.00    -2400.00
04990              -2.00    -2200.00
04991               0.00    -2000.00
04992               2.00    -1800.00
04993               0.00    -1600.00
04994              -2.00    -1400.00
04995              -2.00    -1200.00
04996               2.00    -1000.00
04997               2.00     -800.00
04998              -2.00     -600.00
04999              -4.00     -600.00
05000              -2.00     -400.00
