Unit:(mV)
                     CH1         CH2
Frequency              ? 258.116 kHz
00001               2.00    -3000.00
00002               0.00    -2800.00
00003               6.00    -2600.00
00004               6.00    -2600.00
00005               2.00    -2400.00
00006               2.00    -2200.00
00007              -2.00    -2000.00
00008               0.00    -1600.00
00009               6.00    -1400.00
00010               2.00    -1200.00
00011               0.00    -1000.00
00012              -2.00     -800.00
00013              -6.00     -800.00
00014              -6.00     -600.00
00015               0.00     -200.00
00016              -2.00        0.00
00017               0.00        0.00
00018               2.00      200.00
00019               0.00      400.00
00020              14.00      600.00
00021              30.00      800.00
00022               6.00      800.00
00023             -18.00     1000.00
00024             -10.00     1200.00
00025               8.00     1600.00
00026              38.00     1800.00
00027             234.00     2000.00
00028             246.00     2400.00
00029            -254.00     2400.00
00030            -254.00     2600.00
00031            -166.00     2600.00
00032             164.00     2800.00
00033             246.00     3200.00
00034             136.00     3400.00
00035            -254.00     3200.00
00036              78.00     3600.00
00037             246.00     4000.00
00038            -110.00     4000.00
00039              96.00     4400.00
00040            -178.00     4400.00
00041              58.00     4400.00
00042             162.00     5000.00
00043            -226.00     5000.00
00044             -32.00     5400.00
00045              16.00     5400.00
00046              54.00     5600.00
00047              30.00     5600.00
00048             -64.00     6000.00
00049             -62.00     6000.00
00050             -40.00     6000.00
00051             120.00     6600.00
00052             -78.00     6400.00
00053             -54.00     6800.00
00054              24.00     6800.00
00055             -38.00     7000.00
00056              30.00     7200.00
00057             -58.00     7400.00
00058             -40.00     7600.00
00059              14.00     7800.00
00060              20.00     8000.00
00061             -48.00     8000.00
00062             -32.00     8200.00
00063             -14.00     8400.00
00064             -22.00     8400.00
00065               6.00     8800.00
00066             -40.00     8800.00
00067             -34.00     9000.00
00068             -16.00     9200.00
00069               0.00     9200.00
00070             -26.00     9400.00
00071             -10.00     9600.00
00072             -40.00     9600.00
00073             -34.00     9600.00
00074              -6.00     9800.00
00075             -26.00    10000.00
00076              -8.00    10000.00
00077             -24.00    10400.00
00078             -44.00    10200.00
00079             -38.00    10400.00
00080              -6.00    10200.00
00081             -16.00    10600.00
00082             -18.00    10600.00
00083             -30.00    10800.00
00084             -44.00    10800.00
00085             -26.00    11200.00
00086             -16.00    11000.00
00087             -22.00    11200.00
00088             -24.00    11200.00
00089             -26.00    11400.00
00090             -32.00    11400.00
00091             -24.00    11400.00
00092             -30.00    11800.00
00093             -34.00    11600.00
00094             -18.00    11800.00
00095             -20.00    11800.00
00096             -26.00    11800.00
00097             -28.00    12000.00
00098             -34.00    12000.00
00099             -32.00    12000.00
00100             -24.00    12000.00
00101             -22.00    12000.00
00102             -24.00    12200.00
00103             -24.00    12200.00
00104             -36.00    12000.00
00105             -34.00    12200.00
00106             -26.00    12400.00
00107             -26.00    12200.00
00108             -22.00    12200.00
00109             -26.00    12200.00
00110             -34.00    12400.00
00111             -30.00    12200.00
00112             -32.00    12400.00
00113             -30.00    12400.00
00114             -20.00    12200.00
00115             -18.00    12400.00
00116             -26.00    12400.00
00117             -32.00    12200.00
00118             -32.00    12400.00
00119             -28.00    12200.00
00120             -24.00    12200.00
00121             -24.00    12200.00
00122             -26.00    12200.00
00123             -28.00    12000.00
00124             -32.00    12200.00
00125             -32.00    12200.00
00126             -26.00    12200.00
00127             -24.00    12000.00
00128             -24.00    12000.00
00129             -26.00    12000.00
00130             -30.00    12000.00
00131             -32.00    12000.00
00132             -32.00    11800.00
00133             -26.00    11800.00
00134             -22.00    11600.00
00135             -24.00    11400.00
00136             -26.00    11400.00
00137             -28.00    11600.00
00138             -32.00    11400.00
00139             -30.00    11200.00
00140             -26.00    11200.00
00141             -24.00    11000.00
00142             -24.00    11200.00
00143             -30.00    10800.00
00144             -30.00    10800.00
00145             -32.00    10800.00
00146             -26.00    10600.00
00147             -22.00    10400.00
00148             -22.00    10400.00
00149             -24.00    10200.00
00150             -30.00    10200.00
00151             -30.00    10000.00
00152             -30.00    10000.00
00153             -26.00     9800.00
00154             -22.00     9800.00
00155             -22.00     9600.00
00156             -24.00     9400.00
00157             -30.00     9200.00
00158             -30.00     9200.00
00159             -26.00     9000.00
00160             -22.00     9000.00
00161             -18.00     8800.00
00162             -22.00     8600.00
00163             -26.00     8400.00
00164             -24.00     8400.00
00165             -24.00     8200.00
00166             -24.00     8000.00
00167             -22.00     8000.00
00168             -16.00     7800.00
00169             -16.00     7400.00
00170             -16.00     7400.00
00171             -26.00     7200.00
00172             -22.00     7200.00
00173             -18.00     7000.00
00174             -16.00     6800.00
00175             -16.00     6600.00
00176             -16.00     6600.00
00177             -16.00     6400.00
00178             -14.00     6000.00
00179             -20.00     5800.00
00180             -16.00     5800.00
00181             -10.00     5600.00
00182             -10.00     5600.00
00183             -14.00     5200.00
00184             -22.00     5200.00
00185             -20.00     4800.00
00186             -14.00     4600.00
00187             -10.00     4400.00
00188             -10.00     4200.00
00189             -10.00     4200.00
00190             -12.00     4000.00
00191             -14.00     3600.00
00192             -10.00     3600.00
00193             -10.00     3400.00
00194             -10.00     3200.00
00195              -8.00     3200.00
00196              -8.00     2800.00
00197              -8.00     2600.00
00198             -10.00     2400.00
00199             -10.00     2200.00
00200              -8.00     2000.00
00201              -4.00     1800.00
00202              -4.00     1600.00
00203              -6.00     1600.00
00204             -10.00     1200.00
00205             -10.00     1000.00
00206             -10.00      800.00
00207              -6.00      800.00
00208               0.00      600.00
00209               0.00      400.00
00210               0.00      200.00
00211               0.00     -200.00
00212              22.00     -400.00
00213              22.00     -600.00
00214              -6.00     -600.00
00215             -18.00     -800.00
00216              -2.00    -1000.00
00217              14.00    -1200.00
00218              30.00    -1400.00
00219             144.00    -1600.00
00220             246.00    -2000.00
00221             -90.00    -2400.00
00222            -254.00    -2400.00
00223            -242.00    -2600.00
00224             102.00    -2600.00
00225             192.00    -2600.00
00226             246.00    -3000.00
00227            -134.00    -3200.00
00228            -254.00    -3200.00
00229             208.00    -3600.00
00230             114.00    -3600.00
00231             -14.00    -3800.00
00232             -32.00    -4400.00
00233             -64.00    -3800.00
00234             160.00    -4600.00
00235               0.00    -4800.00
00236             -96.00    -4800.00
00237             -54.00    -5000.00
00238              28.00    -5200.00
00239             166.00    -5600.00
00240             -46.00    -5400.00
00241             -60.00    -6000.00
00242             -16.00    -6000.00
00243              38.00    -5800.00
00244             104.00    -6400.00
00245             -34.00    -6200.00
00246             -26.00    -6800.00
00247               0.00    -6800.00
00248              46.00    -6800.00
00249              18.00    -7200.00
00250             -18.00    -7000.00
00251              30.00    -7600.00
00252              14.00    -7400.00
00253              32.00    -7600.00
00254              -2.00    -7800.00
00255             -14.00    -8000.00
00256              48.00    -8400.00
00257              30.00    -8400.00
00258              -8.00    -8600.00
00259             -10.00    -8600.00
00260              14.00    -8800.00
00261              42.00    -8800.00
00262              40.00    -9000.00
00263               6.00    -9200.00
00264             -14.00    -9400.00
00265              14.00    -9400.00
00266              28.00    -9400.00
00267              22.00    -9400.00
00268              24.00    -9600.00
00269              10.00    -9800.00
00270              12.00   -10000.00
00271              16.00   -10000.00
00272               8.00   -10000.00
00273              26.00   -10200.00
00274              34.00   -10200.00
00275              18.00   -10400.00
00276               6.00   -10800.00
00277               0.00   -10600.00
00278              12.00   -10800.00
00279              30.00   -10800.00
00280              32.00   -11000.00
00281              22.00   -11000.00
00282              20.00   -11000.00
00283              16.00   -11200.00
00284               8.00   -11200.00
00285              18.00   -11200.00
00286              22.00   -11200.00
00287              30.00   -11200.00
00288              26.00   -11600.00
00289               8.00   -11600.00
00290              10.00   -11600.00
00291              24.00   -11800.00
00292              30.00   -11600.00
00293              22.00   -11600.00
00294              24.00   -11600.00
00295              18.00   -11800.00
00296              14.00   -11800.00
00297              14.00   -11800.00
00298              14.00   -11800.00
00299              26.00   -11800.00
00300              34.00   -11800.00
00301              26.00   -12000.00
00302              22.00   -11800.00
00303              12.00   -12000.00
00304              14.00   -12000.00
00305              22.00   -11800.00
00306              30.00   -11800.00
00307              30.00   -12000.00
00308              26.00   -12000.00
00309              18.00   -11800.00
00310              16.00   -11800.00
00311              16.00   -11800.00
00312              22.00   -11800.00
00313              24.00   -11800.00
00314              32.00   -11800.00
00315              24.00   -11800.00
00316              16.00   -11800.00
00317              14.00   -11600.00
00318              12.00   -11800.00
00319              22.00   -11600.00
00320              32.00   -11600.00
00321              32.00   -11600.00
00322              24.00   -11600.00
00323              16.00   -11600.00
00324               6.00   -11400.00
00325              14.00   -11400.00
00326              24.00   -11200.00
00327              32.00   -11200.00
00328              24.00   -11000.00
00329              16.00   -11000.00
00330              14.00   -11000.00
00331              16.00   -10800.00
00332              20.00   -10800.00
00333              22.00   -10600.00
00334              18.00   -10600.00
00335              22.00   -10400.00
00336              18.00   -10400.00
00337              10.00   -10200.00
00338              12.00   -10200.00
00339              18.00   -10000.00
00340              22.00   -10000.00
00341              20.00   -10000.00
00342              14.00    -9600.00
00343              10.00    -9600.00
00344              16.00    -9600.00
00345              16.00    -9600.00
00346              16.00    -9200.00
00347              18.00    -9200.00
00348              16.00    -9200.00
00349              16.00    -8800.00
00350              14.00    -8800.00
00351              10.00    -8600.00
00352              14.00    -8600.00
00353              18.00    -8400.00
00354              16.00    -8400.00
00355              10.00    -8000.00
00356               8.00    -8000.00
00357               6.00    -7800.00
00358              14.00    -7600.00
00359              18.00    -7400.00
00360              16.00    -7200.00
00361              10.00    -7200.00
00362              10.00    -7200.00
00363               6.00    -6800.00
00364              10.00    -6800.00
00365              14.00    -6400.00
00366              10.00    -6400.00
00367              10.00    -6400.00
00368               8.00    -6200.00
00369               6.00    -6000.00
00370               6.00    -5800.00
00371               6.00    -5600.00
00372               8.00    -5400.00
00373              10.00    -5200.00
00374              14.00    -4800.00
00375               8.00    -4800.00
00376               6.00    -4800.00
00377               2.00    -4400.00
00378               2.00    -4400.00
00379               8.00    -4000.00
00380               8.00    -3800.00
00381               8.00    -3600.00
00382               6.00    -3400.00
00383               0.00    -3400.00
00384               0.00    -3200.00
00385               2.00    -3000.00
00386               6.00    -2800.00
00387               6.00    -2600.00
00388               2.00    -2400.00
00389               2.00    -2200.00
00390               0.00    -2200.00
00391              -2.00    -1600.00
00392               0.00    -1600.00
00393               0.00    -1400.00
00394               4.00    -1200.00
00395               0.00    -1000.00
00396              -2.00     -800.00
00397               0.00     -400.00
00398              -2.00     -400.00
00399               0.00     -200.00
00400              -6.00        0.00
00401              -4.00      200.00
00402               2.00      400.00
00403               8.00      400.00
00404              24.00      800.00
00405              16.00      800.00
00406              -8.00     1000.00
00407             -16.00     1200.00
00408               2.00     1600.00
00409              14.00     1600.00
00410              96.00     1800.00
00411             246.00     2400.00
00412              22.00     2400.00
00413            -254.00     2400.00
00414            -254.00     2600.00
00415             -16.00     2800.00
00416             246.00     3000.00
00417             246.00     3400.00
00418            -254.00     3200.00
00419            -254.00     3400.00
00420             246.00     4000.00
00421               6.00     4000.00
00422              -8.00     4200.00
00423               0.00     4400.00
00424            -174.00     4400.00
00425             226.00     4800.00
00426             -50.00     5000.00
00427            -182.00     5000.00
00428              32.00     5200.00
00429               6.00     5600.00
00430              80.00     5600.00
00431             -34.00     5800.00
00432             -50.00     6200.00
00433             -80.00     6000.00
00434              56.00     6600.00
00435              62.00     6400.00
00436            -128.00     6600.00
00437              22.00     7000.00
00438             -22.00     6800.00
00439               0.00     7200.00
00440              -2.00     7400.00
00441             -66.00     7600.00
00442              -2.00     7600.00
00443              26.00     7800.00
00444             -10.00     8000.00
00445             -66.00     8000.00
00446             -10.00     8400.00
00447             -24.00     8200.00
00448               6.00     8400.00
00449             -10.00     8800.00
00450             -48.00     8800.00
00451             -30.00     9000.00
00452              -4.00     9200.00
00453             -10.00     9200.00
00454             -22.00     9200.00
00455             -16.00     9600.00
00456             -48.00     9600.00
00457             -12.00     9800.00
00458             -16.00     9800.00
00459             -18.00     9800.00
00460             -10.00    10200.00
00461             -32.00    10400.00
00462             -46.00    10400.00
00463             -24.00    10400.00
00464              -4.00    10400.00
00465             -18.00    10600.00
00466             -18.00    10800.00
00467             -40.00    10800.00
00468             -40.00    11000.00
00469             -18.00    11000.00
00470             -16.00    11000.00
00471             -24.00    11200.00
00472             -22.00    11400.00
00473             -32.00    11400.00
00474             -32.00    11400.00
00475             -26.00    11600.00
00476             -34.00    11600.00
00477             -24.00    11800.00
00478             -16.00    11800.00
00479             -26.00    11800.00
00480             -32.00    12000.00
00481             -30.00    12000.00
00482             -32.00    12000.00
00483             -30.00    12000.00
00484             -24.00    12000.00
00485             -24.00    12200.00
00486             -22.00    12200.00
00487             -32.00    12200.00
00488             -40.00    12200.00
00489             -30.00    12200.00
00490             -28.00    12400.00
00491             -24.00    12200.00
00492             -20.00    12200.00
00493             -26.00    12400.00
00494             -34.00    12200.00
00495             -32.00    12400.00
00496             -30.00    12200.00
00497             -26.00    12200.00
00498             -22.00    12400.00
00499             -24.00    12400.00
00500             -26.00    12400.00
00501             -32.00    12400.00
00502             -34.00    12200.00
00503             -30.00    12400.00
00504             -26.00    12200.00
00505             -22.00    12200.00
00506             -22.00    12200.00
00507             -26.00    12200.00
00508             -38.00    12200.00
00509             -34.00    12000.00
00510             -26.00    12200.00
00511             -18.00    12000.00
00512             -22.00    12000.00
00513             -26.00    12000.00
00514             -34.00    12000.00
00515             -38.00    12000.00
00516             -30.00    11800.00
00517             -22.00    11800.00
00518             -22.00    11600.00
00519             -24.00    11600.00
00520             -26.00    11400.00
00521             -28.00    11600.00
00522             -32.00    11200.00
00523             -30.00    11400.00
00524             -24.00    11200.00
00525             -24.00    11200.00
00526             -26.00    10800.00
00527             -24.00    10800.00
00528             -26.00    10800.00
00529             -26.00    10600.00
00530             -26.00    10400.00
00531             -24.00    10400.00
00532             -24.00    10400.00
00533             -22.00    10200.00
00534             -26.00    10000.00
00535             -30.00    10000.00
00536             -30.00     9800.00
00537             -28.00     9600.00
00538             -22.00     9600.00
00539             -16.00     9600.00
00540             -20.00     9400.00
00541             -26.00     9200.00
00542             -30.00     9200.00
00543             -26.00     9000.00
00544             -22.00     8800.00
00545             -18.00     8600.00
00546             -18.00     8600.00
00547             -24.00     8400.00
00548             -26.00     8400.00
00549             -24.00     8000.00
00550             -22.00     8000.00
00551             -18.00     7800.00
00552             -16.00     7600.00
00553             -18.00     7600.00
00554             -26.00     7200.00
00555             -24.00     7200.00
00556             -22.00     7000.00
00557             -16.00     6800.00
00558             -14.00     6800.00
00559             -20.00     6600.00
00560             -24.00     6400.00
00561             -18.00     6200.00
00562             -14.00     6000.00
00563             -10.00     6000.00
00564             -16.00     5600.00
00565             -16.00     5600.00
00566             -16.00     5400.00
00567             -14.00     5200.00
00568             -16.00     4800.00
00569             -16.00     5000.00
00570             -10.00     4800.00
00571             -10.00     4400.00
00572             -10.00     4200.00
00573             -16.00     4200.00
00574             -12.00     3800.00
00575             -10.00     3600.00
00576             -10.00     3400.00
00577             -16.00     3200.00
00578             -14.00     3200.00
00579              -2.00     2800.00
00580               0.00     2600.00
00581              -8.00     2600.00
00582             -20.00     2200.00
00583             -16.00     2200.00
00584              -6.00     2000.00
00585               8.00     1600.00
00586               0.00     1600.00
00587             -22.00     1200.00
00588             -24.00     1200.00
00589               2.00     1000.00
00590              16.00      800.00
00591               0.00      400.00
00592             -22.00      400.00
00593             -10.00      200.00
00594              12.00        0.00
00595              22.00        0.00
00596              26.00     -400.00
00597               6.00     -600.00
00598             -22.00     -800.00
00599             -16.00    -1000.00
00600               6.00    -1200.00
00601              24.00    -1200.00
00602              70.00    -1400.00
00603             232.00    -1400.00
00604             162.00    -2200.00
00605            -254.00    -2400.00
00606            -254.00    -2400.00
00607             -46.00    -2800.00
00608             150.00    -2600.00
00609             246.00    -2600.00
00610             246.00    -3200.00
00611            -254.00    -3200.00
00612            -106.00    -3400.00
00613             246.00    -4000.00
00614              -6.00    -3400.00
00615              10.00    -4400.00
00616             -98.00    -4200.00
00617              38.00    -4200.00
00618             136.00    -4800.00
00619             -80.00    -4600.00
00620             -62.00    -5200.00
00621             -48.00    -4800.00
00622             118.00    -5200.00
00623              88.00    -5600.00
00624             -88.00    -5400.00
00625             -14.00    -6000.00
00626             -12.00    -5600.00
00627              86.00    -6400.00
00628              32.00    -6200.00
00629             -54.00    -6400.00
00630              10.00    -6800.00
00631              26.00    -6800.00
00632              48.00    -7000.00
00633             -32.00    -7200.00
00634               2.00    -7200.00
00635              38.00    -7400.00
00636              22.00    -7600.00
00637              26.00    -7800.00
00638             -24.00    -7800.00
00639              22.00    -8000.00
00640              42.00    -8200.00
00641               2.00    -8400.00
00642              -2.00    -8600.00
00643              10.00    -8400.00
00644              24.00    -8800.00
00645              30.00    -8800.00
00646              18.00    -9000.00
00647               0.00    -9200.00
00648              12.00    -9400.00
00649              26.00    -9600.00
00650              16.00    -9400.00
00651              18.00    -9600.00
00652              22.00    -9600.00
00653              10.00    -9800.00
00654              22.00   -10000.00
00655              10.00   -10000.00
00656              14.00   -10200.00
00657              34.00   -10200.00
00658              26.00   -10400.00
00659              14.00   -10400.00
00660               8.00   -10600.00
00661              10.00   -10600.00
00662              18.00   -10800.00
00663              30.00   -11000.00
00664              18.00   -11000.00
00665              16.00   -11000.00
00666              22.00   -11000.00
00667              14.00   -11200.00
00668              14.00   -11200.00
00669              22.00   -11200.00
00670              18.00   -11200.00
00671              30.00   -11400.00
00672              26.00   -11600.00
00673              12.00   -11600.00
00674              14.00   -11600.00
00675              16.00   -11600.00
00676              22.00   -11600.00
00677              30.00   -11800.00
00678              26.00   -11800.00
00679              16.00   -11800.00
00680              14.00   -12000.00
00681              16.00   -11800.00
00682              18.00   -11800.00
00683              28.00   -12000.00
00684              24.00   -12000.00
00685              22.00   -12000.00
00686              22.00   -11800.00
00687              14.00   -12000.00
00688              16.00   -12000.00
00689              24.00   -12000.00
00690              28.00   -11800.00
00691              26.00   -12000.00
00692              22.00   -12000.00
00693              16.00   -11800.00
00694              16.00   -11800.00
00695              18.00   -11800.00
00696              22.00   -11800.00
00697              26.00   -11600.00
00698              26.00   -11600.00
00699              20.00   -11800.00
00700              14.00   -11600.00
00701              16.00   -11600.00
00702              22.00   -11600.00
00703              26.00   -11600.00
00704              26.00   -11600.00
00705              22.00   -11400.00
00706              16.00   -11600.00
00707              18.00   -11400.00
00708              16.00   -11200.00
00709              20.00   -11200.00
00710              24.00   -11200.00
00711              26.00   -11200.00
00712              20.00   -11000.00
00713              18.00   -11000.00
00714              14.00   -10800.00
00715              20.00   -10800.00
00716              22.00   -10800.00
00717              22.00   -10800.00
00718              22.00   -10600.00
00719              18.00   -10400.00
00720              16.00   -10200.00
00721              14.00   -10200.00
00722              16.00   -10000.00
00723              22.00   -10000.00
00724              22.00   -10000.00
00725              18.00    -9800.00
00726              14.00    -9800.00
00727              10.00    -9600.00
00728              14.00    -9400.00
00729              16.00    -9400.00
00730              22.00    -9200.00
00731              18.00    -9200.00
00732              14.00    -9000.00
00733              10.00    -8800.00
00734              10.00    -8800.00
00735              10.00    -8800.00
00736              16.00    -8400.00
00737              16.00    -8400.00
00738              16.00    -8000.00
00739              14.00    -8000.00
00740              10.00    -8000.00
00741               8.00    -7800.00
00742              14.00    -7400.00
00743              14.00    -7400.00
00744              16.00    -7200.00
00745              14.00    -7000.00
00746               8.00    -7000.00
00747               6.00    -6800.00
00748              10.00    -6600.00
00749              10.00    -6400.00
00750              14.00    -6200.00
00751              14.00    -6200.00
00752               8.00    -6000.00
00753               6.00    -5800.00
00754               6.00    -5600.00
00755               8.00    -5400.00
00756              10.00    -5200.00
00757              10.00    -5000.00
00758               8.00    -4800.00
00759               6.00    -4800.00
00760               6.00    -4600.00
00761               6.00    -4400.00
00762               6.00    -4000.00
00763               6.00    -4000.00
00764               8.00    -3800.00
00765               8.00    -3600.00
00766               6.00    -3600.00
00767               0.00    -3200.00
00768               0.00    -3000.00
00769               6.00    -2800.00
00770               2.00    -2800.00
00771               6.00    -2400.00
00772               6.00    -2200.00
00773               0.00    -2200.00
00774              -2.00    -2000.00
00775              -2.00    -1800.00
00776               2.00    -1400.00
00777               8.00    -1200.00
00778               6.00    -1000.00
00779              -2.00     -800.00
00780              -4.00     -800.00
00781              -2.00     -600.00
00782               0.00     -400.00
00783               2.00        0.00
00784               0.00        0.00
00785               2.00      200.00
00786               2.00      400.00
00787              14.00      800.00
00788              32.00      800.00
00789               8.00     1000.00
00790             -16.00     1200.00
00791             -10.00     1400.00
00792               8.00     1600.00
00793              34.00     1600.00
00794             208.00     2000.00
00795             246.00     2200.00
00796            -254.00     2400.00
00797            -254.00     2400.00
00798            -206.00     2800.00
00799             126.00     2800.00
00800             246.00     3200.00
00801             246.00     3400.00
00802            -254.00     3200.00
00803             -14.00     3800.00
00804             246.00     3800.00
00805            -112.00     4000.00
00806              94.00     4400.00
00807            -158.00     4200.00
00808               8.00     4400.00
00809             196.00     4800.00
00810            -208.00     5000.00
00811             -56.00     5400.00
00812              22.00     5400.00
00813              42.00     5600.00
00814              42.00     5400.00
00815             -66.00     6000.00
00816             -58.00     6000.00
00817             -58.00     6200.00
00818             118.00     6600.00
00819             -58.00     6400.00
00820             -72.00     6800.00
00821              34.00     7000.00
00822             -40.00     7000.00
00823              26.00     7200.00
00824             -52.00     7400.00
00825             -48.00     7600.00
00826              14.00     7600.00
00827              22.00     8000.00
00828             -44.00     8000.00
00829             -42.00     8200.00
00830             -10.00     8400.00
00831             -26.00     8400.00
00832               8.00     8800.00
00833             -32.00     8600.00
00834             -38.00     9000.00
00835             -18.00     9200.00
00836               0.00     9200.00
00837             -26.00     9400.00
00838             -14.00     9600.00
00839             -32.00     9600.00
00840             -38.00     9600.00
00841              -6.00     9800.00
00842             -26.00     9800.00
00843             -10.00    10000.00
00844             -16.00    10200.00
00845             -40.00    10400.00
00846             -42.00    10400.00
00847              -8.00    10400.00
00848             -14.00    10600.00
00849             -16.00    10800.00
00850             -26.00    10800.00
00851             -46.00    10800.00
00852             -28.00    11200.00
00853             -18.00    11200.00
00854             -22.00    11200.00
00855             -20.00    11200.00
00856             -24.00    11400.00
00857             -34.00    11400.00
00858             -26.00    11600.00
00859             -28.00    11600.00
00860             -34.00    11800.00
00861             -24.00    11800.00
00862             -24.00    12000.00
00863             -26.00    11800.00
00864             -26.00    12000.00
00865             -36.00    12000.00
00866             -38.00    12000.00
00867             -24.00    12200.00
00868             -18.00    12000.00
00869             -22.00    12200.00
00870             -30.00    12000.00
00871             -38.00    12200.00
00872             -36.00    12400.00
00873             -28.00    12200.00
00874             -26.00    12200.00
00875             -24.00    12200.00
00876             -24.00    12200.00
00877             -32.00    12400.00
00878             -34.00    12200.00
00879             -30.00    12400.00
00880             -32.00    12400.00
00881             -26.00    12200.00
00882             -24.00    12200.00
00883             -32.00    12200.00
00884             -30.00    12400.00
00885             -30.00    12400.00
00886             -32.00    12400.00
00887             -26.00    12200.00
00888             -22.00    12200.00
00889             -22.00    12200.00
00890             -30.00    12200.00
00891             -38.00    12000.00
00892             -38.00    12000.00
00893             -24.00    12200.00
00894             -18.00    12000.00
00895             -26.00    12000.00
00896             -30.00    12000.00
00897             -32.00    11800.00
00898             -32.00    11800.00
00899             -26.00    11800.00
00900             -28.00    11800.00
00901             -24.00    11600.00
00902             -22.00    11600.00
00903             -26.00    11400.00
00904             -30.00    11600.00
00905             -26.00    11400.00
00906             -30.00    11400.00
00907             -26.00    11200.00
00908             -24.00    11200.00
00909             -24.00    11000.00
00910             -18.00    11000.00
00911             -24.00    10800.00
00912             -32.00    10600.00
00913             -30.00    10600.00
00914             -22.00    10400.00
00915             -18.00    10400.00
00916             -18.00    10400.00
00917             -26.00    10200.00
00918             -26.00    10000.00
00919             -26.00    10000.00
00920             -26.00     9800.00
00921             -22.00     9600.00
00922             -18.00     9600.00
00923             -22.00     9400.00
00924             -24.00     9400.00
00925             -26.00     9200.00
00926             -26.00     9000.00
00927             -22.00     8800.00
00928             -18.00     8800.00
00929             -22.00     8600.00
00930             -24.00     8400.00
00931             -24.00     8200.00
00932             -26.00     8200.00
00933             -24.00     8000.00
00934             -18.00     7800.00
00935             -16.00     7600.00
00936             -16.00     7600.00
00937             -22.00     7400.00
00938             -24.00     7200.00
00939             -16.00     7000.00
00940             -16.00     7000.00
00941             -16.00     6800.00
00942             -24.00     6600.00
00943             -20.00     6400.00
00944             -16.00     6400.00
00945             -14.00     6200.00
00946             -18.00     6000.00
00947             -20.00     5800.00
00948             -16.00     5600.00
00949             -10.00     5400.00
00950             -14.00     5200.00
00951             -14.00     5200.00
00952             -16.00     5000.00
00953             -16.00     4600.00
00954             -14.00     4400.00
00955             -14.00     4200.00
00956             -10.00     4000.00
00957             -14.00     4000.00
00958             -16.00     4000.00
00959             -14.00     3600.00
00960              -8.00     3400.00
00961              -8.00     3200.00
00962              -8.00     2800.00
00963              -8.00     2800.00
00964             -14.00     2400.00
00965             -14.00     2400.00
00966             -10.00     2200.00
00967              -2.00     2000.00
00968               2.00     1800.00
00969              -2.00     1800.00
00970             -14.00     1400.00
00971             -14.00     1200.00
00972             -10.00     1200.00
00973              -2.00      800.00
00974              -2.00      600.00
00975              -2.00      400.00
00976               0.00      400.00
00977               2.00        0.00
00978              -2.00        0.00
00979              18.00        0.00
00980              24.00     -400.00
00981               2.00     -600.00
00982             -14.00     -800.00
00983              -2.00     -800.00
00984               8.00    -1200.00
00985              26.00    -1400.00
00986             128.00    -1600.00
00987             246.00    -2000.00
00988             -42.00    -2200.00
00989            -254.00    -2400.00
00990            -254.00    -2600.00
00991              88.00    -2600.00
00992             176.00    -2600.00
00993             246.00    -2800.00
00994             -64.00    -3200.00
00995            -254.00    -3000.00
00996             170.00    -3600.00
00997             152.00    -3800.00
00998             -24.00    -3600.00
00999             -18.00    -4400.00
01000             -86.00    -4000.00
01001             142.00    -4600.00
01002              30.00    -4600.00
01003             -96.00    -4800.00
01004             -54.00    -5200.00
01005               8.00    -4800.00
01006             170.00    -5600.00
01007             -22.00    -5400.00
01008             -70.00    -5800.00
01009             -18.00    -6000.00
01010              18.00    -6000.00
01011             102.00    -6400.00
01012             -26.00    -6200.00
01013             -24.00    -6800.00
01014              14.00    -6800.00
01015              40.00    -6800.00
01016              16.00    -7200.00
01017             -32.00    -7000.00
01018              32.00    -7600.00
01019              22.00    -7400.00
01020              30.00    -7600.00
01021               6.00    -8000.00
01022             -24.00    -7800.00
01023              38.00    -8400.00
01024              24.00    -8400.00
01025              -6.00    -8600.00
01026               6.00    -8400.00
01027              22.00    -8600.00
01028              24.00    -9000.00
01029              22.00    -8800.00
01030               8.00    -9200.00
01031               0.00    -9200.00
01032              22.00    -9400.00
01033              20.00    -9600.00
01034              14.00    -9600.00
01035              28.00    -9600.00
01036              16.00    -9800.00
01037              12.00   -10000.00
01038              16.00   -10000.00
01039               8.00   -10200.00
01040              26.00   -10200.00
01041              32.00   -10200.00
01042              14.00   -10400.00
01043              12.00   -10600.00
01044              14.00   -10600.00
01045              12.00   -10800.00
01046              24.00   -10800.00
01047              28.00   -11000.00
01048              18.00   -11000.00
01049              22.00   -11200.00
01050              18.00   -11200.00
01051              10.00   -11200.00
01052              20.00   -11200.00
01053              22.00   -11200.00
01054              22.00   -11400.00
01055              26.00   -11600.00
01056              16.00   -11600.00
01057              12.00   -11600.00
01058              18.00   -11600.00
01059              18.00   -11600.00
01060              22.00   -11800.00
01061              26.00   -11800.00
01062              22.00   -11800.00
01063              16.00   -11800.00
01064              16.00   -11800.00
01065              16.00   -11800.00
01066              22.00   -11800.00
01067              26.00   -11800.00
01068              24.00   -12000.00
01069              22.00   -12000.00
01070              16.00   -11800.00
01071              10.00   -12000.00
01072              18.00   -12000.00
01073              24.00   -12000.00
01074              24.00   -12000.00
01075              22.00   -12000.00
01076              22.00   -12000.00
01077              16.00   -12000.00
01078              16.00   -11800.00
01079              18.00   -11800.00
01080              22.00   -11800.00
01081              26.00   -11800.00
01082              22.00   -11800.00
01083              18.00   -11600.00
01084              16.00   -11800.00
01085              16.00   -11600.00
01086              22.00   -11600.00
01087              30.00   -11600.00
01088              24.00   -11600.00
01089              18.00   -11400.00
01090              16.00   -11600.00
01091              18.00   -11400.00
01092              18.00   -11200.00
01093              24.00   -11200.00
01094              24.00   -11200.00
01095              22.00   -11200.00
01096              18.00   -11000.00
01097              18.00   -11000.00
01098              18.00   -11000.00
01099              18.00   -10800.00
01100              22.00   -10800.00
01101              26.00   -10600.00
01102              24.00   -10600.00
01103              14.00   -10400.00
01104              12.00   -10400.00
01105              16.00   -10200.00
01106              24.00   -10000.00
01107              24.00   -10000.00
01108              22.00   -10000.00
01109              14.00    -9600.00
01110              14.00    -9600.00
01111              14.00    -9600.00
01112              16.00    -9400.00
01113              24.00    -9200.00
01114              22.00    -9200.00
01115              16.00    -9200.00
01116               8.00    -9000.00
01117               8.00    -8800.00
01118              16.00    -8800.00
01119              18.00    -8600.00
01120              16.00    -8400.00
01121              12.00    -8200.00
01122              10.00    -8000.00
01123              14.00    -8000.00
01124              14.00    -7800.00
01125              12.00    -7600.00
01126              10.00    -7400.00
01127              10.00    -7400.00
01128              16.00    -7200.00
01129              16.00    -7000.00
01130               8.00    -7000.00
01131              10.00    -6800.00
01132              10.00    -6600.00
01133               6.00    -6400.00
01134               8.00    -6400.00
01135              14.00    -6000.00
01136              16.00    -6000.00
01137              10.00    -5600.00
01138               0.00    -5600.00
01139              -2.00    -5400.00
01140              12.00    -5200.00
01141              20.00    -5200.00
01142              10.00    -4800.00
01143               2.00    -4800.00
01144              10.00    -4400.00
01145              -6.00    -4400.00
01146               8.00    -4000.00
01147             -14.00    -3800.00
01148              14.00    -3800.00
01149               0.00    -3400.00
01150              -8.00    -3600.00
01151              48.00    -3000.00
01152              22.00    -3000.00
01153              30.00    -3000.00
01154             -18.00    -2400.00
01155             -22.00    -2400.00
01156             -34.00    -2200.00
01157             -16.00    -2000.00
01158              -8.00    -1800.00
01159              40.00    -1600.00
01160              40.00    -1400.00
01161               8.00    -1200.00
01162             -10.00    -1000.00
01163             -16.00     -800.00
01164               6.00     -800.00
01165              -2.00     -400.00
01166               0.00     -400.00
01167              -8.00      200.00
01168             -10.00        0.00
01169             -14.00      400.00
01170               6.00      400.00
01171              44.00      800.00
01172              44.00      800.00
01173              -2.00     1000.00
01174             -26.00     1200.00
01175              -8.00     1400.00
01176               8.00     1600.00
01177              82.00     1800.00
01178             246.00     2000.00
01179              78.00     2400.00
01180            -254.00     2400.00
01181            -254.00     2600.00
01182             -26.00     2800.00
01183             246.00     3000.00
01184             246.00     3400.00
01185            -254.00     3200.00
01186            -254.00     3400.00
01187             246.00     3800.00
01188              62.00     3800.00
01189             -26.00     4000.00
01190              48.00     4400.00
01191            -192.00     4400.00
01192             202.00     4400.00
01193              -2.00     5000.00
01194            -202.00     5000.00
01195              24.00     5400.00
01196              -2.00     5600.00
01197              74.00     5600.00
01198             -26.00     5800.00
01199             -50.00     6000.00
01200             -80.00     6000.00
01201              32.00     6400.00
01202              80.00     6600.00
01203            -130.00     6400.00
01204               8.00     7000.00
01205             -10.00     6800.00
01206              -8.00     7200.00
01207              10.00     7400.00
01208             -80.00     7400.00
01209             -16.00     7600.00
01210              22.00     7800.00
01211              -6.00     8000.00
01212             -58.00     8000.00
01213             -10.00     8200.00
01214             -22.00     8400.00
01215              -6.00     8400.00
01216             -10.00     8800.00
01217             -46.00     8600.00
01218             -24.00     9000.00
01219              -2.00     9000.00
01220             -10.00     9200.00
01221             -32.00     9400.00
01222             -18.00     9600.00
01223             -48.00     9600.00
01224             -10.00     9800.00
01225             -10.00     9800.00
01226             -22.00    10000.00
01227             -10.00    10000.00
01228             -32.00    10200.00
01229             -52.00    10400.00
01230             -26.00    10400.00
01231               6.00    10400.00
01232              -8.00    10600.00
01233             -16.00    10800.00
01234             -48.00    10800.00
01235             -48.00    10800.00
01236             -16.00    11000.00
01237              -6.00    11200.00
01238             -16.00    11200.00
01239             -22.00    11200.00
01240             -38.00    11400.00
01241             -32.00    11400.00
01242             -22.00    11800.00
01243             -32.00    11600.00
01244             -26.00    11800.00
01245             -22.00    11800.00
01246             -26.00    11800.00
01247             -26.00    12000.00
01248             -32.00    12000.00
01249             -34.00    12000.00
01250             -26.00    12000.00
01251             -22.00    12000.00
01252             -24.00    12000.00
01253             -30.00    12200.00
01254             -34.00    12200.00
01255             -34.00    12200.00
01256             -24.00    12200.00
01257             -30.00    12200.00
01258             -34.00    12200.00
01259             -24.00    12200.00
01260             -22.00    12400.00
01261             -26.00    12200.00
01262             -34.00    12200.00
01263             -38.00    12200.00
01264             -30.00    12200.00
01265             -16.00    12200.00
01266             -22.00    12200.00
01267             -28.00    12200.00
01268             -32.00    12200.00
01269             -40.00    12200.00
01270             -32.00    12200.00
01271             -24.00    12200.00
01272             -20.00    12000.00
01273             -22.00    12200.00
01274             -32.00    12200.00
01275             -40.00    12000.00
01276             -34.00    12000.00
01277             -26.00    12000.00
01278             -22.00    12000.00
01279             -22.00    12000.00
01280             -26.00    12000.00
01281             -32.00    11800.00
01282             -32.00    11800.00
01283             -32.00    11600.00
01284             -26.00    11800.00
01285             -22.00    11600.00
01286             -22.00    11600.00
01287             -26.00    11600.00
01288             -30.00    11600.00
01289             -32.00    11200.00
01290             -26.00    11400.00
01291             -22.00    11200.00
01292             -22.00    11000.00
01293             -22.00    11000.00
01294             -26.00    10800.00
01295             -32.00    10800.00
01296             -26.00    10600.00
01297             -22.00    10600.00
01298             -16.00    10400.00
01299             -22.00    10400.00
01300             -28.00    10400.00
01301             -30.00    10000.00
01302             -22.00    10000.00
01303             -26.00    10000.00
01304             -22.00     9600.00
01305             -18.00     9600.00
01306             -26.00     9600.00
01307             -28.00     9400.00
01308             -26.00     9400.00
01309             -16.00     9400.00
01310             -12.00     9000.00
01311             -22.00     8800.00
01312             -30.00     8800.00
01313             -26.00     8600.00
01314             -24.00     8400.00
01315             -18.00     8200.00
01316             -16.00     8200.00
01317             -22.00     8000.00
01318             -24.00     7800.00
01319             -22.00     7600.00
01320             -18.00     7400.00
01321             -16.00     7400.00
01322             -24.00     7200.00
01323             -24.00     7000.00
01324             -20.00     7000.00
01325             -14.00     6600.00
01326             -14.00     6600.00
01327             -22.00     6400.00
01328             -26.00     6200.00
01329             -22.00     6000.00
01330             -14.00     5800.00
01331              -8.00     5600.00
01332              -8.00     5600.00
01333             -18.00     5400.00
01334             -26.00     5200.00
01335             -22.00     5000.00
01336             -16.00     4800.00
01337             -10.00     4600.00
01338             -10.00     4400.00
01339             -10.00     4200.00
01340             -16.00     4000.00
01341             -14.00     3800.00
01342             -16.00     3600.00
01343             -10.00     3600.00
01344              -8.00     3200.00
01345             -10.00     3200.00
01346              -8.00     2800.00
01347             -10.00     2800.00
01348             -12.00     2600.00
01349             -14.00     2400.00
01350             -10.00     2000.00
01351              -6.00     1800.00
01352               0.00     1800.00
01353              -6.00     1600.00
01354             -10.00     1400.00
01355             -10.00     1200.00
01356              -8.00     1000.00
01357              -2.00      800.00
01358              -2.00      600.00
01359              -2.00      400.00
01360               0.00      200.00
01361               0.00        0.00
01362               8.00     -200.00
01363              32.00     -400.00
01364              16.00     -400.00
01365             -14.00     -800.00
01366             -16.00     -800.00
01367               6.00     -800.00
01368              18.00    -1000.00
01369              54.00    -1400.00
01370             216.00    -1400.00
01371             206.00    -2200.00
01372            -254.00    -2400.00
01373            -254.00    -2400.00
01374             -88.00    -2800.00
01375             138.00    -2400.00
01376             246.00    -2600.00
01377             246.00    -3200.00
01378            -254.00    -3200.00
01379            -166.00    -3400.00
01380             246.00    -4000.00
01381              -2.00    -3400.00
01382              10.00    -4000.00
01383             -70.00    -4200.00
01384              26.00    -4000.00
01385             144.00    -4800.00
01386             -86.00    -4600.00
01387             -74.00    -5000.00
01388             -46.00    -4800.00
01389             112.00    -5200.00
01390             118.00    -5600.00
01391             -94.00    -5400.00
01392             -30.00    -6000.00
01393             -16.00    -5800.00
01394              80.00    -6200.00
01395              48.00    -6400.00
01396             -58.00    -6000.00
01397              14.00    -6800.00
01398              28.00    -6800.00
01399              48.00    -7000.00
01400             -40.00    -7200.00
01401             -10.00    -7200.00
01402              46.00    -7400.00
01403              32.00    -7600.00
01404              32.00    -7800.00
01405             -32.00    -7800.00
01406              -2.00    -8000.00
01407              48.00    -8400.00
01408              18.00    -8400.00
01409               0.00    -8600.00
01410              10.00    -8600.00
01411              18.00    -8800.00
01412              24.00    -8800.00
01413              18.00    -9200.00
01414               2.00    -9200.00
01415              10.00    -9400.00
01416              28.00    -9400.00
01417              14.00    -9600.00
01418              14.00    -9600.00
01419              24.00    -9600.00
01420              16.00   -10000.00
01421              22.00   -10000.00
01422              10.00   -10000.00
01423               8.00   -10200.00
01424              34.00   -10200.00
01425              26.00   -10400.00
01426              14.00   -10600.00
01427              10.00   -10800.00
01428              14.00   -10800.00
01429              18.00   -10800.00
01430              32.00   -10800.00
01431              24.00   -11000.00
01432              18.00   -11000.00
01433              24.00   -11000.00
01434              14.00   -11200.00
01435              16.00   -11200.00
01436              22.00   -11200.00
01437              22.00   -11200.00
01438              26.00   -11600.00
01439              28.00   -11600.00
01440              14.00   -11600.00
01441              14.00   -11600.00
01442              22.00   -11600.00
01443              22.00   -11600.00
01444              26.00   -11600.00
01445              26.00   -11800.00
01446              18.00   -11800.00
01447              16.00   -11800.00
01448              16.00   -12000.00
01449              18.00   -11800.00
01450              28.00   -11800.00
01451              30.00   -11800.00
01452              22.00   -11800.00
01453              22.00   -12000.00
01454              16.00   -12000.00
01455              14.00   -12000.00
01456              22.00   -12000.00
01457              24.00   -12000.00
01458              26.00   -11800.00
01459              24.00   -12000.00
01460              16.00   -11800.00
01461              14.00   -11800.00
01462              22.00   -11800.00
01463              24.00   -11800.00
01464              26.00   -11800.00
01465              24.00   -11600.00
01466              18.00   -11800.00
01467              16.00   -11800.00
01468              22.00   -11600.00
01469              18.00   -11600.00
01470              20.00   -11600.00
01471              26.00   -11600.00
01472              26.00   -11600.00
01473              16.00   -11400.00
01474              14.00   -11200.00
01475              18.00   -11200.00
01476              24.00   -11200.00
01477              24.00   -11200.00
01478              20.00   -11200.00
01479              20.00   -11000.00
01480              24.00   -11000.00
01481              14.00   -11000.00
01482              10.00   -10800.00
01483              22.00   -10800.00
01484              32.00   -10400.00
01485              24.00   -10600.00
01486              14.00   -10400.00
01487               8.00   -10400.00
01488              10.00   -10200.00
01489              22.00   -10200.00
01490              30.00   -10000.00
01491              30.00   -10000.00
01492              14.00   -10000.00
01493               0.00    -9600.00
01494               8.00    -9600.00
01495              26.00    -9400.00
01496              26.00    -9400.00
01497              18.00    -9200.00
01498              16.00    -9000.00
01499              16.00    -8800.00
01500              16.00    -8800.00
01501              14.00    -8800.00
01502              14.00    -8600.00
01503              22.00    -8600.00
01504              22.00    -8400.00
01505              14.00    -8200.00
01506              10.00    -8000.00
01507              12.00    -7800.00
01508              14.00    -7800.00
01509              10.00    -7600.00
01510              14.00    -7400.00
01511              16.00    -7400.00
01512              16.00    -7000.00
01513              14.00    -7000.00
01514               2.00    -6800.00
01515               8.00    -6800.00
01516               8.00    -6400.00
01517              12.00    -6400.00
01518              16.00    -6200.00
01519              16.00    -6200.00
01520               8.00    -5800.00
01521               0.00    -5600.00
01522               0.00    -5400.00
01523              10.00    -5400.00
01524              16.00    -5200.00
01525              14.00    -4800.00
01526               2.00    -4800.00
01527               0.00    -4600.00
01528               0.00    -4400.00
01529               6.00    -4200.00
01530               6.00    -4000.00
01531               6.00    -3800.00
01532               6.00    -3600.00
01533               6.00    -3400.00
01534               0.00    -3200.00
01535               0.00    -3000.00
01536               0.00    -2800.00
01537               0.00    -2800.00
01538               2.00    -2600.00
01539               6.00    -2200.00
01540               8.00    -2200.00
01541               2.00    -2000.00
01542               0.00    -1800.00
01543              -2.00    -1400.00
01544              -2.00    -1400.00
01545               6.00    -1000.00
01546               2.00     -800.00
01547               0.00     -800.00
01548              -6.00     -600.00
01549              -6.00     -400.00
01550               0.00        0.00
01551               6.00        0.00
01552               2.00      400.00
01553              -2.00      400.00
01554               6.00      400.00
01555              28.00      800.00
01556              18.00     1000.00
01557             -10.00     1200.00
01558             -14.00     1200.00
01559               0.00     1200.00
01560              22.00     1600.00
01561             190.00     2000.00
01562             246.00     2400.00
01563            -200.00     2200.00
01564            -254.00     2400.00
01565            -252.00     2800.00
01566              86.00     2800.00
01567             246.00     3200.00
01568             246.00     3400.00
01569            -254.00     3200.00
01570            -106.00     3800.00
01571             246.00     4000.00
01572            -106.00     4000.00
01573              80.00     4400.00
01574            -126.00     4200.00
01575             -40.00     4400.00
01576             222.00     4800.00
01577            -192.00     5000.00
01578             -84.00     5200.00
01579              24.00     5400.00
01580              34.00     5600.00
01581              54.00     5400.00
01582             -66.00     5800.00
01583             -54.00     6200.00
01584             -64.00     6000.00
01585             114.00     6600.00
01586             -34.00     6400.00
01587             -94.00     6600.00
01588              34.00     6800.00
01589             -42.00     6800.00
01590              26.00     7200.00
01591             -40.00     7400.00
01592             -56.00     7600.00
01593              10.00     7600.00
01594              22.00     8000.00
01595             -42.00     8000.00
01596             -54.00     8200.00
01597              -6.00     8200.00
01598             -22.00     8400.00
01599              12.00     8800.00
01600             -36.00     8800.00
01601             -46.00     8800.00
01602             -22.00     9000.00
01603               6.00     9200.00
01604             -18.00     9400.00
01605             -16.00     9600.00
01606             -34.00     9600.00
01607             -48.00     9600.00
01608              -2.00     9800.00
01609             -22.00    10000.00
01610             -10.00    10000.00
01611             -16.00    10000.00
01612             -40.00    10400.00
01613             -46.00    10400.00
01614             -10.00    10400.00
01615              -8.00    10600.00
01616             -16.00    10600.00
01617             -22.00    10800.00
01618             -46.00    10800.00
01619             -34.00    10800.00
01620             -16.00    11200.00
01621             -18.00    11200.00
01622             -18.00    11200.00
01623             -22.00    11400.00
01624             -32.00    11400.00
01625             -24.00    11800.00
01626             -26.00    11600.00
01627             -34.00    11400.00
01628             -18.00    11800.00
01629             -16.00    11800.00
01630             -24.00    11800.00
01631             -26.00    11800.00
01632             -32.00    12000.00
01633             -34.00    11800.00
01634             -24.00    12000.00
01635             -22.00    12000.00
01636             -22.00    12000.00
01637             -24.00    12200.00
01638             -34.00    12200.00
01639             -34.00    12400.00
01640             -28.00    12200.00
01641             -30.00    12200.00
01642             -22.00    12200.00
01643             -22.00    12200.00
01644             -30.00    12400.00
01645             -32.00    12400.00
01646             -34.00    12400.00
01647             -32.00    12200.00
01648             -26.00    12200.00
01649             -24.00    12400.00
01650             -26.00    12200.00
01651             -32.00    12400.00
01652             -32.00    12200.00
01653             -34.00    12200.00
01654             -28.00    12200.00
01655             -24.00    12200.00
01656             -24.00    12200.00
01657             -26.00    12200.00
01658             -32.00    12200.00
01659             -34.00    12200.00
01660             -32.00    12000.00
01661             -26.00    12000.00
01662             -26.00    12000.00
01663             -22.00    12000.00
01664             -28.00    12000.00
01665             -32.00    12000.00
01666             -32.00    11800.00
01667             -30.00    11800.00
01668             -22.00    11800.00
01669             -18.00    11600.00
01670             -24.00    11400.00
01671             -32.00    11400.00
01672             -34.00    11400.00
01673             -32.00    11400.00
01674             -24.00    11200.00
01675             -22.00    11200.00
01676             -22.00    10800.00
01677             -26.00    11000.00
01678             -30.00    10600.00
01679             -26.00    10800.00
01680             -26.00    10600.00
01681             -22.00    10400.00
01682             -22.00    10400.00
01683             -22.00    10200.00
01684             -26.00    10200.00
01685             -26.00    10000.00
01686             -26.00     9800.00
01687             -26.00     9800.00
01688             -22.00     9800.00
01689             -16.00     9600.00
01690             -20.00     9600.00
01691             -26.00     9400.00
01692             -26.00     9200.00
01693             -24.00     9200.00
01694             -22.00     9000.00
01695             -16.00     8800.00
01696             -18.00     8800.00
01697             -22.00     8600.00
01698             -24.00     8400.00
01699             -24.00     8400.00
01700             -22.00     8000.00
01701             -16.00     8000.00
01702             -16.00     7800.00
01703             -18.00     7600.00
01704             -16.00     7400.00
01705             -22.00     7200.00
01706             -20.00     7200.00
01707             -22.00     6800.00
01708             -18.00     6800.00
01709             -16.00     6600.00
01710             -14.00     6600.00
01711             -22.00     6200.00
01712             -18.00     6200.00
01713             -18.00     6000.00
01714             -16.00     5800.00
01715             -14.00     5600.00
01716             -12.00     5600.00
01717             -16.00     5200.00
01718             -16.00     5000.00
01719             -18.00     5000.00
01720             -16.00     4800.00
01721             -14.00     4600.00
01722              -8.00     4400.00
01723             -10.00     4200.00
01724             -14.00     4000.00
01725             -16.00     3800.00
01726             -14.00     3600.00
01727             -10.00     3400.00
01728              -8.00     3000.00
01729              -8.00     3000.00
01730              -6.00     2800.00
01731             -14.00     2600.00
01732             -14.00     2400.00
01733              -8.00     2400.00
01734               0.00     2000.00
01735             -10.00     1800.00
01736             -16.00     1600.00
01737              -8.00     1400.00
01738               0.00     1200.00
01739             -12.00     1000.00
01740              -8.00     1000.00
01741               2.00      800.00
01742               0.00      400.00
01743              -8.00      200.00
01744             -14.00      200.00
01745              -6.00        0.00
01746              30.00        0.00
01747              46.00     -400.00
01748               8.00     -600.00
01749             -34.00     -800.00
01750             -26.00    -1000.00
01751              14.00    -1200.00
01752              48.00    -1000.00
01753             120.00    -1600.00
01754             246.00    -1800.00
01755               2.00    -2400.00
01756            -254.00    -2400.00
01757            -254.00    -2600.00
01758              64.00    -2600.00
01759             174.00    -2400.00
01760             246.00    -2800.00
01761              10.00    -3400.00
01762            -254.00    -3000.00
01763             112.00    -3600.00
01764             186.00    -3800.00
01765             -14.00    -3600.00
01766               8.00    -4400.00
01767             -98.00    -4000.00
01768             110.00    -4600.00
01769              48.00    -4800.00
01770             -90.00    -4800.00
01771             -42.00    -5200.00
01772             -10.00    -4800.00
01773             152.00    -5600.00
01774              -2.00    -5400.00
01775             -68.00    -5600.00
01776             -10.00    -6000.00
01777              10.00    -6000.00
01778             104.00    -6400.00
01779             -16.00    -6400.00
01780             -32.00    -6400.00
01781               0.00    -6800.00
01782              26.00    -6800.00
01783              30.00    -7200.00
01784             -20.00    -7000.00
01785              34.00    -7600.00
01786              16.00    -7400.00
01787              16.00    -7600.00
01788               6.00    -8000.00
01789             -22.00    -8000.00
01790              40.00    -8400.00
01791              36.00    -8200.00
01792              -2.00    -8400.00
01793              -8.00    -8600.00
01794               6.00    -8800.00
01795              30.00    -9000.00
01796              34.00    -8800.00
01797              16.00    -9000.00
01798               0.00    -9200.00
01799              16.00    -9400.00
01800              20.00    -9400.00
01801              10.00    -9600.00
01802              22.00    -9600.00
01803              18.00   -10000.00
01804              16.00   -10000.00
01805              18.00   -10000.00
01806               8.00   -10000.00
01807              24.00   -10200.00
01808              34.00   -10200.00
01809              14.00   -10400.00
01810               8.00   -10600.00
01811              14.00   -10800.00
01812              20.00   -10800.00
01813              26.00   -10800.00
01814              28.00   -11000.00
01815              16.00   -11000.00
01816              18.00   -11200.00
01817              22.00   -11200.00
01818              14.00   -11200.00
01819              18.00   -11200.00
01820              22.00   -11200.00
01821              22.00   -11400.00
01822              32.00   -11400.00
01823              16.00   -11600.00
01824              10.00   -11600.00
01825              24.00   -11600.00
01826              30.00   -11600.00
01827              22.00   -11600.00
01828              24.00   -11800.00
01829              22.00   -11800.00
01830              18.00   -11800.00
01831              22.00   -11800.00
01832              18.00   -11800.00
01833              24.00   -11600.00
01834              30.00   -12000.00
01835              22.00   -11800.00
01836              18.00   -12000.00
01837              18.00   -11800.00
01838              16.00   -12000.00
01839              22.00   -12000.00
01840              30.00   -11800.00
01841              24.00   -12000.00
01842              22.00   -12000.00
01843              18.00   -12000.00
01844              16.00   -11800.00
01845              14.00   -11800.00
01846              18.00   -11800.00
01847              24.00   -11800.00
01848              32.00   -11800.00
01849              32.00   -11800.00
01850              16.00   -11800.00
01851               8.00   -11600.00
01852              10.00   -11600.00
01853              22.00   -11600.00
01854              32.00   -11600.00
01855              30.00   -11600.00
01856              16.00   -11600.00
01857              14.00   -11400.00
01858              14.00   -11400.00
01859              14.00   -11200.00
01860              22.00   -11200.00
01861              26.00   -11200.00
01862              30.00   -11200.00
01863              24.00   -11200.00
01864              10.00   -11000.00
01865               6.00   -11000.00
01866              16.00   -10800.00
01867              24.00   -10800.00
01868              26.00   -10600.00
01869              22.00   -10400.00
01870              16.00   -10400.00
01871              14.00   -10400.00
01872              16.00   -10200.00
01873              16.00   -10200.00
01874              22.00   -10000.00
01875              20.00    -9800.00
01876              18.00    -9800.00
01877              18.00    -9600.00
01878              16.00    -9600.00
01879              16.00    -9400.00
01880              16.00    -9400.00
01881              16.00    -9200.00
01882              16.00    -9200.00
01883              22.00    -9000.00
01884              16.00    -8800.00
01885              14.00    -8800.00
01886              10.00    -8600.00
01887              14.00    -8400.00
01888              16.00    -8400.00
01889              16.00    -8000.00
01890              14.00    -8000.00
01891              12.00    -7800.00
01892              14.00    -7800.00
01893              14.00    -7400.00
01894              16.00    -7400.00
01895              14.00    -7200.00
01896              10.00    -7000.00
01897               8.00    -6800.00
01898               8.00    -6800.00
01899              10.00    -6400.00
01900              12.00    -6400.00
01901              10.00    -6200.00
01902              10.00    -6200.00
01903               8.00    -6000.00
01904               2.00    -5600.00
01905               6.00    -5600.00
01906              10.00    -5400.00
01907              10.00    -5200.00
01908              10.00    -5200.00
01909               6.00    -4800.00
01910               2.00    -4600.00
01911               0.00    -4600.00
01912               2.00    -4400.00
01913              10.00    -4000.00
01914              12.00    -4000.00
01915               6.00    -3600.00
01916               0.00    -3600.00
01917              -2.00    -3200.00
01918               0.00    -3200.00
01919               2.00    -3000.00
01920               6.00    -2800.00
01921               6.00    -2800.00
01922               2.00    -2400.00
01923               0.00    -2200.00
01924              -2.00    -2000.00
01925              -4.00    -2000.00
01926              -2.00    -1600.00
01927               2.00    -1400.00
01928               6.00    -1200.00
01929               2.00    -1000.00
01930               0.00     -800.00
01931              -8.00     -600.00
01932              -6.00     -600.00
01933              -2.00     -400.00
01934               0.00        0.00
01935               0.00      200.00
01936               2.00      200.00
01937               2.00      400.00
01938              22.00      800.00
01939              26.00      800.00
01940              -2.00     1200.00
01941             -16.00     1200.00
01942              -2.00     1200.00
01943              14.00     1600.00
01944              66.00     1800.00
01945             246.00     2000.00
01946             136.00     2400.00
01947            -254.00     2400.00
01948            -254.00     2600.00
01949             -74.00     2800.00
01950             246.00     2800.00
01951             246.00     3400.00
01952            -194.00     3200.00
01953            -254.00     3400.00
01954             246.00     3800.00
01955             120.00     3800.00
01956             -64.00     4000.00
01957              58.00     4400.00
01958            -200.00     4400.00
01959             178.00     4600.00
01960              48.00     4800.00
01961            -218.00     5000.00
01962              14.00     5200.00
01963               6.00     5600.00
01964              78.00     5600.00
01965              -8.00     5600.00
01966             -62.00     6200.00
01967             -78.00     6000.00
01968              12.00     6400.00
01969              98.00     6600.00
01970            -120.00     6400.00
01971              -6.00     6800.00
01972              -2.00     7000.00
01973             -18.00     7200.00
01974              18.00     7200.00
01975             -72.00     7600.00
01976             -18.00     7600.00
01977              20.00     7600.00
01978               4.00     8000.00
01979             -64.00     8000.00
01980             -18.00     8200.00
01981             -22.00     8400.00
01982             -10.00     8400.00
01983              -2.00     8800.00
01984             -46.00     8600.00
01985             -32.00     8800.00
01986              -8.00     9200.00
01987              -8.00     9200.00
01988             -28.00     9400.00
01989             -14.00     9600.00
01990             -48.00     9600.00
01991             -22.00     9600.00
01992             -10.00    10000.00
01993             -26.00    10000.00
01994             -10.00    10200.00
01995             -30.00    10400.00
01996             -44.00    10400.00
01997             -26.00    10400.00
01998              -2.00    10600.00
01999             -18.00    10600.00
02000             -18.00    10600.00
02001             -36.00    11000.00
02002             -42.00    10800.00
02003             -22.00    10800.00
02004             -16.00    11200.00
02005             -18.00    11200.00
02006             -18.00    11400.00
02007             -26.00    11200.00
02008             -32.00    11800.00
02009             -22.00    11600.00
02010             -34.00    11800.00
02011             -28.00    11800.00
02012             -16.00    11800.00
02013             -22.00    11800.00
02014             -28.00    12000.00
02015             -30.00    12000.00
02016             -34.00    12000.00
02017             -30.00    12000.00
02018             -22.00    12200.00
02019             -22.00    12000.00
02020             -22.00    12200.00
02021             -26.00    12200.00
02022             -38.00    12200.00
02023             -32.00    12200.00
02024             -30.00    12200.00
02025             -24.00    12200.00
02026             -20.00    12200.00
02027             -24.00    12400.00
02028             -32.00    12200.00
02029             -34.00    12200.00
02030             -32.00    12200.00
02031             -26.00    12200.00
02032             -24.00    12400.00
02033             -24.00    12200.00
02034             -28.00    12400.00
02035             -32.00    12200.00
02036             -34.00    12200.00
02037             -30.00    12200.00
02038             -24.00    12200.00
02039             -24.00    12200.00
02040             -26.00    12200.00
02041             -32.00    12200.00
02042             -38.00    12000.00
02043             -32.00    12000.00
02044             -26.00    12000.00
02045             -24.00    12000.00
02046             -24.00    12000.00
02047             -26.00    12000.00
02048             -32.00    11800.00
02049             -32.00    11800.00
02050             -32.00    11600.00
02051             -26.00    11800.00
02052             -24.00    11600.00
02053             -26.00    11600.00
02054             -28.00    11800.00
02055             -32.00    11400.00
02056             -32.00    11400.00
02057             -28.00    11000.00
02058             -24.00    11200.00
02059             -22.00    11200.00
02060             -24.00    11000.00
02061             -26.00    10800.00
02062             -32.00    10600.00
02063             -32.00    10800.00
02064             -26.00    10600.00
02065             -22.00    10400.00
02066             -24.00    10200.00
02067             -24.00    10200.00
02068             -26.00    10200.00
02069             -28.00    10000.00
02070             -26.00     9800.00
02071             -24.00     9800.00
02072             -22.00     9600.00
02073             -18.00     9600.00
02074             -24.00     9600.00
02075             -26.00     9200.00
02076             -26.00     9200.00
02077             -24.00     8800.00
02078             -18.00     9000.00
02079             -16.00     8600.00
02080             -16.00     8600.00
02081             -24.00     8400.00
02082             -24.00     8400.00
02083             -24.00     8200.00
02084             -20.00     8000.00
02085             -18.00     8000.00
02086             -16.00     7800.00
02087             -18.00     7600.00
02088             -18.00     7400.00
02089             -22.00     7200.00
02090             -18.00     7200.00
02091             -18.00     6800.00
02092             -16.00     6600.00
02093             -14.00     6600.00
02094             -16.00     6400.00
02095             -18.00     6400.00
02096             -18.00     6000.00
02097             -18.00     6000.00
02098             -16.00     5600.00
02099             -14.00     5600.00
02100             -14.00     5400.00
02101             -16.00     5200.00
02102             -16.00     4800.00
02103             -18.00     4800.00
02104             -14.00     4600.00
02105             -10.00     4400.00
02106             -14.00     4000.00
02107             -12.00     4000.00
02108             -16.00     4000.00
02109             -16.00     3600.00
02110             -14.00     3600.00
02111             -10.00     3200.00
02112              -8.00     3200.00
02113              -6.00     2800.00
02114             -10.00     2800.00
02115             -10.00     2600.00
02116             -14.00     2400.00
02117             -10.00     2000.00
02118             -10.00     1800.00
02119              -6.00     1800.00
02120              -4.00     1600.00
02121             -10.00     1400.00
02122             -10.00     1200.00
02123             -10.00     1000.00
02124              -8.00      800.00
02125               0.00      600.00
02126               0.00      600.00
02127               0.00      200.00
02128               0.00      200.00
02129               6.00        0.00
02130              32.00     -200.00
02131              16.00     -600.00
02132             -16.00     -600.00
02133             -16.00     -800.00
02134               8.00    -1000.00
02135              22.00    -1000.00
02136              42.00    -1400.00
02137             192.00    -1600.00
02138             230.00    -2000.00
02139            -224.00    -2400.00
02140            -254.00    -2400.00
02141            -126.00    -2600.00
02142             128.00    -2600.00
02143             242.00    -2400.00
02144             246.00    -3000.00
02145            -254.00    -3200.00
02146            -222.00    -3200.00
02147             246.00    -4000.00
02148              30.00    -3600.00
02149               6.00    -4000.00
02150             -72.00    -4200.00
02151              -8.00    -4200.00
02152             162.00    -4800.00
02153             -54.00    -4600.00
02154             -78.00    -5200.00
02155             -54.00    -4800.00
02156              86.00    -5200.00
02157             138.00    -5600.00
02158             -78.00    -5200.00
02159             -34.00    -6000.00
02160             -20.00    -5800.00
02161              64.00    -6000.00
02162              70.00    -6400.00
02163             -50.00    -6200.00
02164               2.00    -6800.00
02165              16.00    -6800.00
02166              50.00    -7000.00
02167             -16.00    -7200.00
02168             -16.00    -7200.00
02169              38.00    -7600.00
02170              18.00    -7400.00
02171              32.00    -7800.00
02172             -18.00    -7800.00
02173               0.00    -8000.00
02174              46.00    -8200.00
02175              14.00    -8400.00
02176               0.00    -8600.00
02177               8.00    -8600.00
02178              18.00    -8800.00
02179              26.00    -8800.00
02180              22.00    -9200.00
02181               2.00    -9200.00
02182               6.00    -9200.00
02183              26.00    -9400.00
02184              14.00    -9600.00
02185              16.00    -9600.00
02186              24.00    -9600.00
02187              10.00   -10000.00
02188              16.00   -10000.00
02189              10.00   -10000.00
02190              10.00   -10000.00
02191              34.00   -10200.00
02192              32.00   -10400.00
02193              12.00   -10600.00
02194               8.00   -10800.00
02195               8.00   -10600.00
02196              18.00   -10800.00
02197              30.00   -10800.00
02198              26.00   -11000.00
02199              18.00   -11000.00
02200              22.00   -11000.00
02201              14.00   -11200.00
02202              16.00   -11200.00
02203              24.00   -11200.00
02204              22.00   -11200.00
02205              26.00   -11400.00
02206              26.00   -11400.00
02207              14.00   -11600.00
02208              16.00   -11600.00
02209              22.00   -11600.00
02210              22.00   -11600.00
02211              22.00   -11800.00
02212              30.00   -11800.00
02213              22.00   -11800.00
02214              18.00   -11600.00
02215              18.00   -11800.00
02216              16.00   -11800.00
02217              26.00   -12000.00
02218              30.00   -12000.00
02219              26.00   -12000.00
02220              22.00   -12000.00
02221              14.00   -12000.00
02222              14.00   -12000.00
02223              24.00   -11800.00
02224              26.00   -12000.00
02225              28.00   -12000.00
02226              30.00   -11800.00
02227              18.00   -11800.00
02228              12.00   -11800.00
02229              14.00   -11800.00
02230              22.00   -11800.00
02231              30.00   -11800.00
02232              30.00   -11800.00
02233              22.00   -11800.00
02234              16.00   -11800.00
02235              16.00   -11600.00
02236              16.00   -11600.00
02237              20.00   -11600.00
02238              24.00   -11600.00
02239              24.00   -11600.00
02240              20.00   -11400.00
02241              14.00   -11600.00
02242              14.00   -11200.00
02243              22.00   -11400.00
02244              26.00   -11200.00
02245              24.00   -11200.00
02246              18.00   -11200.00
02247              16.00   -11000.00
02248              10.00   -11000.00
02249              16.00   -11000.00
02250              22.00   -10800.00
02251              24.00   -10600.00
02252              22.00   -10800.00
02253              16.00   -10400.00
02254               8.00   -10600.00
02255              16.00   -10200.00
02256              18.00   -10200.00
02257              22.00   -10000.00
02258              18.00   -10000.00
02259              16.00   -10000.00
02260              18.00    -9600.00
02261              18.00    -9600.00
02262              16.00    -9400.00
02263              14.00    -9400.00
02264              14.00    -9200.00
02265              22.00    -9200.00
02266              22.00    -9000.00
02267              10.00    -8800.00
02268               6.00    -8800.00
02269               8.00    -8600.00
02270              22.00    -8400.00
02271              22.00    -8400.00
02272              22.00    -8000.00
02273              14.00    -8000.00
02274              14.00    -7800.00
02275               8.00    -7600.00
02276               8.00    -7400.00
02277              10.00    -7600.00
02278              14.00    -7200.00
02279              16.00    -7200.00
02280              14.00    -7000.00
02281              14.00    -6800.00
02282               8.00    -6600.00
02283               6.00    -6400.00
02284              14.00    -6400.00
02285              14.00    -6200.00
02286              10.00    -6000.00
02287               8.00    -5800.00
02288               6.00    -5600.00
02289              10.00    -5400.00
02290              14.00    -5400.00
02291              10.00    -5200.00
02292               6.00    -5000.00
02293               6.00    -4800.00
02294               4.00    -4600.00
02295               2.00    -4400.00
02296               2.00    -4000.00
02297               8.00    -4000.00
02298               8.00    -3800.00
02299               6.00    -3600.00
02300               0.00    -3600.00
02301              -2.00    -3400.00
02302               6.00    -3000.00
02303               6.00    -3000.00
02304               2.00    -2800.00
02305               0.00    -2400.00
02306               0.00    -2400.00
02307               0.00    -2200.00
02308               0.00    -2000.00
02309              -2.00    -2000.00
02310               6.00    -1400.00
02311              -2.00    -1400.00
02312              -2.00    -1000.00
02313               0.00    -1000.00
02314               0.00     -800.00
02315              -6.00     -600.00
02316              -2.00     -400.00
02317              -2.00     -400.00
02318               2.00        0.00
02319               2.00      200.00
02320              -4.00      400.00
02321              10.00      600.00
02322              34.00      800.00
02323              16.00     1000.00
02324             -16.00     1000.00
02325             -22.00     1200.00
02326               2.00     1600.00
02327              30.00     1600.00
02328             168.00     2000.00
02329             246.00     2400.00
02330            -154.00     2200.00
02331            -254.00     2400.00
02332            -254.00     2600.00
02333              74.00     2800.00
02334             246.00     3200.00
02335             246.00     3400.00
02336            -254.00     3200.00
02337            -204.00     3600.00
02338             246.00     4000.00
02339             -86.00     4000.00
02340              66.00     4200.00
02341             -90.00     4400.00
02342             -82.00     4400.00
02343             234.00     4600.00
02344            -162.00     5000.00
02345            -110.00     5200.00
02346              32.00     5400.00
02347              32.00     5600.00
02348              68.00     5600.00
02349             -60.00     5800.00
02350             -54.00     6000.00
02351             -74.00     6000.00
02352             104.00     6600.00
02353              -6.00     6400.00
02354            -106.00     6800.00
02355              38.00     7000.00
02356             -34.00     7000.00
02357              22.00     7200.00
02358             -32.00     7400.00
02359             -64.00     7600.00
02360               6.00     7800.00
02361              24.00     7800.00
02362             -26.00     8200.00
02363             -50.00     8200.00
02364              -8.00     8400.00
02365             -32.00     8400.00
02366               6.00     8800.00
02367             -26.00     8600.00
02368             -40.00     8800.00
02369             -22.00     9000.00
02370               0.00     9200.00
02371             -24.00     9200.00
02372             -20.00     9600.00
02373             -26.00     9600.00
02374             -48.00     9600.00
02375              -2.00     9800.00
02376             -24.00    10000.00
02377             -16.00    10000.00
02378             -16.00    10000.00
02379             -38.00    10400.00
02380             -46.00    10400.00
02381             -12.00    10400.00
02382              -8.00    10600.00
02383             -16.00    10600.00
02384             -24.00    10800.00
02385             -48.00    10800.00
02386             -34.00    10800.00
02387             -16.00    11200.00
02388             -18.00    11000.00
02389             -22.00    11200.00
02390             -24.00    11400.00
02391             -32.00    11400.00
02392             -24.00    11600.00
02393             -24.00    11800.00
02394             -38.00    11600.00
02395             -24.00    11800.00
02396             -18.00    11800.00
02397             -24.00    12000.00
02398             -26.00    12000.00
02399             -30.00    12000.00
02400             -34.00    12000.00
02401             -26.00    12000.00
02402             -22.00    12000.00
02403             -22.00    12000.00
02404             -24.00    12200.00
02405             -34.00    12200.00
02406             -34.00    12200.00
02407             -26.00    12200.00
02408             -26.00    12200.00
02409             -24.00    12400.00
02410             -24.00    12200.00
02411             -26.00    12400.00
02412             -30.00    12200.00
02413             -32.00    12200.00
02414             -32.00    12200.00
02415             -26.00    12200.00
02416             -22.00    12400.00
02417             -24.00    12200.00
02418             -26.00    12400.00
02419             -30.00    12400.00
02420             -34.00    12400.00
02421             -32.00    12200.00
02422             -24.00    12000.00
02423             -24.00    12200.00
02424             -26.00    12000.00
02425             -32.00    12000.00
02426             -38.00    12200.00
02427             -30.00    12000.00
02428             -26.00    12000.00
02429             -22.00    12000.00
02430             -24.00    12000.00
02431             -28.00    12000.00
02432             -38.00    11800.00
02433             -32.00    11800.00
02434             -30.00    11800.00
02435             -24.00    11600.00
02436             -24.00    11800.00
02437             -26.00    11400.00
02438             -30.00    11400.00
02439             -32.00    11400.00
02440             -34.00    11200.00
02441             -30.00    11200.00
02442             -22.00    11200.00
02443             -24.00    11200.00
02444             -26.00    10800.00
02445             -26.00    10800.00
02446             -30.00    10600.00
02447             -30.00    10600.00
02448             -26.00    10600.00
02449             -24.00    10400.00
02450             -22.00    10400.00
02451             -22.00    10400.00
02452             -26.00    10000.00
02453             -30.00    10000.00
02454             -30.00     9800.00
02455             -24.00     9600.00
02456             -18.00     9600.00
02457             -18.00     9400.00
02458             -24.00     9200.00
02459             -30.00     9200.00
02460             -26.00     9000.00
02461             -18.00     9000.00
02462             -14.00     8800.00
02463             -18.00     8600.00
02464             -26.00     8400.00
02465             -26.00     8400.00
02466             -18.00     8200.00
02467             -16.00     8000.00
02468             -18.00     8000.00
02469             -22.00     7800.00
02470             -24.00     7600.00
02471             -10.00     7400.00
02472             -16.00     7200.00
02473             -30.00     7200.00
02474             -32.00     7000.00
02475             -10.00     6800.00
02476               2.00     6600.00
02477             -10.00     6400.00
02478             -38.00     6400.00
02479             -32.00     6400.00
02480              -6.00     6000.00
02481               4.00     5800.00
02482             -14.00     5600.00
02483             -20.00     5400.00
02484             -24.00     5400.00
02485             -24.00     5200.00
02486             -18.00     4800.00
02487              -6.00     4800.00
02488               0.00     4400.00
02489             -10.00     4200.00
02490             -24.00     4000.00
02491             -18.00     4000.00
02492             -14.00     3800.00
02493             -16.00     3600.00
02494              -6.00     3400.00
02495              -2.00     3400.00
02496              -8.00     2800.00
02497             -16.00     2800.00
02498             -16.00     2600.00
02499              -8.00     2400.00
02500              -8.00     2400.00
02501             -10.00     2000.00
02502             -10.00     1800.00
02503              -8.00     1800.00
02504              -6.00     1600.00
02505              -8.00     1200.00
02506              -8.00     1200.00
02507             -10.00     1000.00
02508             -10.00      600.00
02509              -6.00      400.00
02510               0.00      400.00
02511               2.00      200.00
02512               0.00        0.00
02513              14.00     -400.00
02514              24.00     -400.00
02515               2.00     -600.00
02516             -16.00     -800.00
02517              -6.00    -1000.00
02518              14.00    -1000.00
02519              18.00    -1400.00
02520              96.00    -1400.00
02521             246.00    -1600.00
02522              62.00    -2200.00
02523            -254.00    -2400.00
02524            -254.00    -2600.00
02525              42.00    -2800.00
02526             166.00    -2400.00
02527             246.00    -2800.00
02528              80.00    -3200.00
02529            -254.00    -3200.00
02530              66.00    -3600.00
02531             214.00    -3800.00
02532             -26.00    -3600.00
02533               8.00    -4200.00
02534             -98.00    -4000.00
02535             110.00    -4600.00
02536              78.00    -4800.00
02537            -100.00    -4800.00
02538             -54.00    -5200.00
02539             -18.00    -5000.00
02540             164.00    -5400.00
02541              26.00    -5400.00
02542             -82.00    -5600.00
02543             -16.00    -6000.00
02544               2.00    -6000.00
02545             104.00    -6400.00
02546               0.00    -6200.00
02547             -34.00    -6600.00
02548              12.00    -7000.00
02549              30.00    -6800.00
02550              28.00    -7200.00
02551             -34.00    -7200.00
02552              24.00    -7400.00
02553              30.00    -7600.00
02554              26.00    -7600.00
02555              14.00    -8000.00
02556             -32.00    -7800.00
02557              32.00    -8400.00
02558              38.00    -8400.00
02559               0.00    -8400.00
02560              -2.00    -8400.00
02561              14.00    -8800.00
02562              26.00    -9000.00
02563              24.00    -9000.00
02564              14.00    -9200.00
02565               0.00    -9200.00
02566              18.00    -9400.00
02567              24.00    -9400.00
02568              14.00    -9600.00
02569              18.00    -9600.00
02570              16.00    -9800.00
02571              10.00   -10000.00
02572              20.00   -10000.00
02573               6.00   -10200.00
02574              22.00   -10200.00
02575              34.00   -10400.00
02576              18.00   -10400.00
02577              10.00   -10800.00
02578               8.00   -10600.00
02579              14.00   -10800.00
02580              22.00   -10800.00
02581              30.00   -10800.00
02582              20.00   -11000.00
02583              18.00   -11200.00
02584              22.00   -11000.00
02585              10.00   -11200.00
02586              18.00   -11200.00
02587              22.00   -11200.00
02588              24.00   -11200.00
02589              30.00   -11600.00
02590              22.00   -11600.00
02591              12.00   -11600.00
02592              18.00   -11600.00
02593              22.00   -11600.00
02594              22.00   -11800.00
02595              26.00   -11800.00
02596              22.00   -11800.00
02597              16.00   -11800.00
02598              18.00   -11800.00
02599              18.00   -11800.00
02600              20.00   -12000.00
02601              28.00   -12000.00
02602              24.00   -11800.00
02603              24.00   -11800.00
02604              22.00   -11800.00
02605              16.00   -11800.00
02606              22.00   -12000.00
02607              26.00   -11800.00
02608              26.00   -12000.00
02609              26.00   -11800.00
02610              22.00   -12000.00
02611              16.00   -12000.00
02612              16.00   -11800.00
02613              22.00   -11800.00
02614              24.00   -11800.00
02615              26.00   -11800.00
02616              24.00   -11800.00
02617              18.00   -11600.00
02618              18.00   -11800.00
02619              16.00   -11800.00
02620              18.00   -11600.00
02621              26.00   -11600.00
02622              24.00   -11600.00
02623              20.00   -11600.00
02624              16.00   -11600.00
02625              16.00   -11400.00
02626              18.00   -11400.00
02627              22.00   -11200.00
02628              24.00   -11200.00
02629              24.00   -11200.00
02630              18.00   -11000.00
02631              16.00   -11000.00
02632              14.00   -10800.00
02633              18.00   -10800.00
02634              22.00   -10800.00
02635              22.00   -10800.00
02636              22.00   -10600.00
02637              16.00   -10600.00
02638              14.00   -10400.00
02639              14.00   -10200.00
02640              18.00   -10000.00
02641              20.00   -10000.00
02642              20.00   -10000.00
02643              16.00    -9800.00
02644              12.00    -9800.00
02645              14.00    -9600.00
02646              16.00    -9400.00
02647              18.00    -9400.00
02648              18.00    -9200.00
02649              20.00    -9200.00
02650              18.00    -9000.00
02651              14.00    -8800.00
02652              10.00    -8800.00
02653              14.00    -8400.00
02654              18.00    -8400.00
02655              16.00    -8400.00
02656              14.00    -8000.00
02657              12.00    -8000.00
02658              14.00    -7800.00
02659              14.00    -7800.00
02660              14.00    -7600.00
02661              16.00    -7400.00
02662              16.00    -7200.00
02663              14.00    -7000.00
02664              10.00    -7000.00
02665               8.00    -6800.00
02666               8.00    -6600.00
02667              14.00    -6400.00
02668              14.00    -6200.00
02669              14.00    -6000.00
02670               8.00    -6000.00
02671               6.00    -5600.00
02672               6.00    -5400.00
02673              10.00    -5400.00
02674              12.00    -5200.00
02675               8.00    -5000.00
02676               8.00    -4800.00
02677               6.00    -4800.00
02678               6.00    -4400.00
02679               6.00    -4400.00
02680               6.00    -4000.00
02681               8.00    -4000.00
02682               8.00    -3800.00
02683               6.00    -3600.00
02684               2.00    -3600.00
02685               0.00    -3200.00
02686               0.00    -3000.00
02687               4.00    -2800.00
02688               6.00    -2600.00
02689               2.00    -2400.00
02690               0.00    -2200.00
02691              -2.00    -2000.00
02692              -2.00    -2000.00
02693               2.00    -1400.00
02694               2.00    -1400.00
02695               6.00    -1200.00
02696               0.00    -1000.00
02697              -2.00     -800.00
02698              -2.00     -800.00
02699              -2.00     -600.00
02700              -2.00     -400.00
02701              -2.00        0.00
02702               0.00        0.00
02703               0.00      400.00
02704               0.00      400.00
02705              18.00      600.00
02706              26.00      800.00
02707               0.00     1000.00
02708             -22.00     1200.00
02709              -8.00     1200.00
02710              16.00     1600.00
02711              58.00     1600.00
02712             246.00     2400.00
02713             176.00     2400.00
02714            -254.00     2400.00
02715            -254.00     2600.00
02716            -104.00     2800.00
02717             234.00     2800.00
02718             246.00     3200.00
02719             -74.00     3200.00
02720            -254.00     3200.00
02721             218.00     4000.00
02722             174.00     3800.00
02723             -88.00     4000.00
02724              78.00     4400.00
02725            -202.00     4200.00
02726             144.00     4400.00
02727              94.00     4800.00
02728            -226.00     5200.00
02729               2.00     5200.00
02730               6.00     5400.00
02731              70.00     5600.00
02732               6.00     5600.00
02733             -64.00     6000.00
02734             -66.00     5800.00
02735              -6.00     6200.00
02736             110.00     6600.00
02737            -110.00     6400.00
02738             -22.00     6800.00
02739              10.00     7000.00
02740             -24.00     7000.00
02741              22.00     7400.00
02742             -74.00     7400.00
02743             -26.00     7600.00
02744              24.00     7600.00
02745              16.00     8000.00
02746             -58.00     8000.00
02747             -24.00     8400.00
02748             -22.00     8400.00
02749             -18.00     8400.00
02750               0.00     8800.00
02751             -44.00     8800.00
02752             -30.00     8800.00
02753             -10.00     9200.00
02754              -6.00     9200.00
02755             -32.00     9200.00
02756             -10.00     9600.00
02757             -46.00     9600.00
02758             -26.00     9600.00
02759              -8.00     9800.00
02760             -24.00    10000.00
02761             -10.00    10200.00
02762             -26.00    10400.00
02763             -46.00    10200.00
02764             -34.00    10400.00
02765              -8.00    10400.00
02766             -16.00    10400.00
02767             -22.00    10600.00
02768             -32.00    10800.00
02769             -42.00    10800.00
02770             -26.00    10800.00
02771             -18.00    11200.00
02772             -24.00    11200.00
02773             -22.00    11200.00
02774             -26.00    11400.00
02775             -34.00    11400.00
02776             -24.00    11600.00
02777             -34.00    11600.00
02778             -30.00    11800.00
02779             -16.00    11800.00
02780             -24.00    11800.00
02781             -30.00    12000.00
02782             -30.00    12000.00
02783             -32.00    12000.00
02784             -30.00    12000.00
02785             -22.00    12200.00
02786             -24.00    12000.00
02787             -24.00    12000.00
02788             -26.00    12200.00
02789             -34.00    12200.00
02790             -34.00    12200.00
02791             -26.00    12200.00
02792             -24.00    12200.00
02793             -18.00    12200.00
02794             -24.00    12400.00
02795             -32.00    12200.00
02796             -32.00    12400.00
02797             -30.00    12400.00
02798             -30.00    12200.00
02799             -26.00    12400.00
02800             -24.00    12400.00
02801             -26.00    12200.00
02802             -30.00    12200.00
02803             -32.00    12200.00
02804             -34.00    12200.00
02805             -24.00    12200.00
02806             -22.00    12200.00
02807             -24.00    12400.00
02808             -28.00    12000.00
02809             -34.00    12000.00
02810             -34.00    12200.00
02811             -30.00    12000.00
02812             -24.00    12000.00
02813             -22.00    12000.00
02814             -26.00    12000.00
02815             -32.00    11800.00
02816             -34.00    11600.00
02817             -32.00    11800.00
02818             -26.00    11600.00
02819             -24.00    11800.00
02820             -26.00    11600.00
02821             -28.00    11400.00
02822             -34.00    11400.00
02823             -32.00    11200.00
02824             -26.00    11200.00
02825             -24.00    11200.00
02826             -22.00    11200.00
02827             -24.00    10800.00
02828             -28.00    10800.00
02829             -32.00    10800.00
02830             -30.00    10800.00
02831             -30.00    10400.00
02832             -22.00    10400.00
02833             -22.00    10400.00
02834             -24.00    10200.00
02835             -26.00    10200.00
02836             -26.00    10000.00
02837             -26.00     9800.00
02838             -22.00     9800.00
02839             -24.00     9600.00
02840             -18.00     9600.00
02841             -24.00     9600.00
02842             -26.00     9400.00
02843             -26.00     9200.00
02844             -24.00     9000.00
02845             -16.00     9000.00
02846             -14.00     8800.00
02847             -16.00     8600.00
02848             -24.00     8400.00
02849             -26.00     8200.00
02850             -24.00     8200.00
02851             -18.00     8000.00
02852             -16.00     8000.00
02853             -16.00     7800.00
02854             -16.00     7600.00
02855             -22.00     7400.00
02856             -24.00     7200.00
02857             -18.00     7200.00
02858             -18.00     6800.00
02859             -14.00     6600.00
02860             -12.00     6600.00
02861             -18.00     6400.00
02862             -18.00     6200.00
02863             -16.00     6200.00
02864             -16.00     5600.00
02865             -14.00     5800.00
02866             -14.00     5600.00
02867             -12.00     5400.00
02868             -16.00     5200.00
02869             -16.00     5000.00
02870             -16.00     4800.00
02871             -16.00     4800.00
02872             -10.00     4400.00
02873             -10.00     4400.00
02874             -10.00     4000.00
02875             -10.00     3800.00
02876             -14.00     3600.00
02877             -14.00     3600.00
02878             -10.00     3400.00
02879              -8.00     3200.00
02880              -8.00     2800.00
02881             -10.00     2600.00
02882             -14.00     2400.00
02883             -10.00     2400.00
02884             -14.00     2200.00
02885             -10.00     2000.00
02886              -4.00     1600.00
02887              -6.00     1600.00
02888              -8.00     1400.00
02889             -10.00     1200.00
02890              -8.00     1000.00
02891              -6.00      800.00
02892              -6.00      600.00
02893              -2.00      400.00
02894               0.00      200.00
02895               0.00      200.00
02896               6.00     -200.00
02897              26.00     -400.00
02898              16.00     -400.00
02899             -10.00     -600.00
02900             -16.00     -800.00
02901               0.00    -1000.00
02902              16.00    -1200.00
02903              38.00    -1400.00
02904             176.00    -1600.00
02905             246.00    -2000.00
02906            -182.00    -2400.00
02907            -254.00    -2400.00
02908            -168.00    -2600.00
02909             122.00    -2600.00
02910             226.00    -2600.00
02911             246.00    -3000.00
02912            -254.00    -3200.00
02913            -254.00    -3000.00
02914             246.00    -3800.00
02915              56.00    -3600.00
02916               0.00    -3800.00
02917             -56.00    -4200.00
02918             -32.00    -3800.00
02919             162.00    -4600.00
02920             -40.00    -4600.00
02921             -82.00    -4800.00
02922             -50.00    -4800.00
02923              66.00    -5200.00
02924             148.00    -5600.00
02925             -70.00    -5200.00
02926             -42.00    -6000.00
02927             -16.00    -5800.00
02928              56.00    -6000.00
02929              80.00    -6400.00
02930             -50.00    -6200.00
02931              -2.00    -7000.00
02932              16.00    -6800.00
02933              48.00    -7000.00
02934              -8.00    -7000.00
02935             -16.00    -7000.00
02936              38.00    -7600.00
02937              16.00    -7400.00
02938              32.00    -7800.00
02939             -14.00    -7800.00
02940              -6.00    -8000.00
02941              46.00    -8400.00
02942              16.00    -8400.00
02943              -6.00    -8600.00
02944               8.00    -8600.00
02945              22.00    -8800.00
02946              26.00    -9000.00
02947              22.00    -9200.00
02948               2.00    -9200.00
02949               6.00    -9200.00
02950              26.00    -9400.00
02951              16.00    -9600.00
02952              14.00    -9600.00
02953              24.00    -9800.00
02954              14.00    -9800.00
02955              16.00   -10000.00
02956              14.00   -10000.00
02957               6.00   -10200.00
02958              30.00   -10200.00
02959              30.00   -10200.00
02960              12.00   -10600.00
02961              10.00   -10600.00
02962               8.00   -10600.00
02963              16.00   -10800.00
02964              30.00   -10800.00
02965              24.00   -11000.00
02966              14.00   -11000.00
02967              22.00   -11000.00
02968              14.00   -11200.00
02969              14.00   -11200.00
02970              22.00   -11200.00
02971              22.00   -11400.00
02972              24.00   -11400.00
02973              26.00   -11400.00
02974              12.00   -11600.00
02975              16.00   -11600.00
02976              22.00   -11800.00
02977              18.00   -11800.00
02978              26.00   -11800.00
02979              30.00   -11800.00
02980              18.00   -11800.00
02981              16.00   -11800.00
02982              18.00   -11800.00
02983              22.00   -12000.00
02984              24.00   -11800.00
02985              22.00   -12000.00
02986              22.00   -11800.00
02987              30.00   -11800.00
02988              22.00   -11800.00
02989              10.00   -12000.00
02990              18.00   -12000.00
02991              28.00   -12000.00
02992              32.00   -12000.00
02993              22.00   -11800.00
02994              10.00   -11800.00
02995              18.00   -12000.00
02996              26.00   -11800.00
02997              24.00   -11800.00
02998              22.00   -11600.00
02999              26.00   -11800.00
03000              24.00   -11800.00
03001              18.00   -11600.00
03002              14.00   -11600.00
03003              18.00   -11600.00
03004              26.00   -11600.00
03005              26.00   -11600.00
03006              26.00   -11600.00
03007              22.00   -11400.00
03008              14.00   -11400.00
03009              10.00   -11400.00
03010              22.00   -11200.00
03011              30.00   -11200.00
03012              30.00   -11200.00
03013              16.00   -11200.00
03014              16.00   -11000.00
03015              16.00   -11000.00
03016              16.00   -10800.00
03017              16.00   -10800.00
03018              22.00   -10800.00
03019              24.00   -10400.00
03020              22.00   -10600.00
03021              14.00   -10400.00
03022              10.00   -10200.00
03023              14.00   -10200.00
03024              18.00   -10000.00
03025              24.00   -10000.00
03026              24.00    -9800.00
03027              22.00    -9600.00
03028              10.00    -9600.00
03029               8.00    -9400.00
03030              14.00    -9400.00
03031              22.00    -9400.00
03032              22.00    -9200.00
03033              18.00    -8800.00
03034               8.00    -9000.00
03035              12.00    -8800.00
03036              14.00    -8600.00
03037              16.00    -8400.00
03038              18.00    -8400.00
03039              16.00    -8000.00
03040              14.00    -8000.00
03041              12.00    -7800.00
03042              10.00    -7800.00
03043              14.00    -7800.00
03044              16.00    -7400.00
03045              16.00    -7200.00
03046              14.00    -7200.00
03047               8.00    -7000.00
03048               8.00    -7000.00
03049              10.00    -6800.00
03050              14.00    -6400.00
03051              12.00    -6400.00
03052              14.00    -6200.00
03053              14.00    -6000.00
03054               8.00    -6000.00
03055               8.00    -5600.00
03056               6.00    -5600.00
03057               8.00    -5400.00
03058              12.00    -5200.00
03059              10.00    -4800.00
03060               8.00    -4800.00
03061               2.00    -4600.00
03062               2.00    -4400.00
03063               2.00    -4400.00
03064              10.00    -4000.00
03065              10.00    -3800.00
03066               8.00    -3800.00
03067               0.00    -3600.00
03068              -6.00    -3200.00
03069               0.00    -3200.00
03070               6.00    -3000.00
03071              10.00    -2800.00
03072               6.00    -2600.00
03073               0.00    -2400.00
03074               0.00    -2200.00
03075              -2.00    -2000.00
03076               2.00    -1800.00
03077               2.00    -1600.00
03078              -2.00    -1200.00
03079               6.00    -1200.00
03080               4.00    -1000.00
03081              -2.00     -800.00
03082              -8.00     -600.00
03083              -6.00     -400.00
03084              -2.00     -200.00
03085               0.00        0.00
03086               0.00      200.00
03087              -2.00      400.00
03088               6.00      400.00
03089              26.00      800.00
03090              14.00      800.00
03091             -10.00     1200.00
03092             -16.00     1200.00
03093               0.00     1400.00
03094              14.00     1600.00
03095             136.00     1800.00
03096             246.00     2400.00
03097             -76.00     2400.00
03098            -254.00     2400.00
03099            -254.00     2600.00
03100              32.00     2800.00
03101             246.00     3200.00
03102             246.00     3400.00
03103            -254.00     3200.00
03104            -254.00     3600.00
03105             246.00     4000.00
03106             -62.00     4000.00
03107              42.00     4200.00
03108             -58.00     4400.00
03109            -122.00     4400.00
03110             240.00     4800.00
03111            -126.00     5000.00
03112            -138.00     5200.00
03113              32.00     5400.00
03114              18.00     5600.00
03115              72.00     5600.00
03116             -50.00     5800.00
03117             -50.00     6000.00
03118             -80.00     6000.00
03119              86.00     6600.00
03120              22.00     6400.00
03121            -112.00     6600.00
03122              36.00     7000.00
03123             -38.00     6800.00
03124               8.00     7200.00
03125             -18.00     7400.00
03126             -64.00     7600.00
03127               4.00     7600.00
03128              24.00     7800.00
03129             -24.00     8000.00
03130             -56.00     8000.00
03131              -2.00     8400.00
03132             -26.00     8400.00
03133               6.00     8600.00
03134             -24.00     8800.00
03135             -42.00     8800.00
03136             -26.00     9000.00
03137               4.00     9200.00
03138             -16.00     9200.00
03139             -22.00     9400.00
03140             -24.00     9600.00
03141             -52.00     9600.00
03142              -8.00     9800.00
03143             -18.00    10000.00
03144             -16.00    10000.00
03145             -14.00    10200.00
03146             -38.00    10200.00
03147             -48.00    10400.00
03148             -18.00    10400.00
03149              -6.00    10600.00
03150             -16.00    10600.00
03151             -18.00    10800.00
03152             -46.00    10800.00
03153             -40.00    10800.00
03154             -20.00    11200.00
03155             -20.00    11200.00
03156             -22.00    11200.00
03157             -22.00    11200.00
03158             -32.00    11400.00
03159             -30.00    11400.00
03160             -28.00    11800.00
03161             -34.00    11800.00
03162             -22.00    11600.00
03163             -18.00    11800.00
03164             -26.00    11800.00
03165             -30.00    11800.00
03166             -32.00    12000.00
03167             -34.00    12000.00
03168             -26.00    12000.00
03169             -18.00    12000.00
03170             -22.00    12200.00
03171             -24.00    12200.00
03172             -34.00    12000.00
03173             -38.00    12200.00
03174             -28.00    12200.00
03175             -28.00    12200.00
03176             -22.00    12200.00
03177             -18.00    12400.00
03178             -30.00    12400.00
03179             -32.00    12200.00
03180             -32.00    12400.00
03181             -30.00    12400.00
03182             -26.00    12200.00
03183             -16.00    12200.00
03184             -24.00    12400.00
03185             -32.00    12400.00
03186             -34.00    12400.00
03187             -34.00    12200.00
03188             -24.00    12200.00
03189             -18.00    12200.00
03190             -22.00    12000.00
03191             -26.00    12200.00
03192             -36.00    12000.00
03193             -40.00    12200.00
03194             -28.00    12000.00
03195             -18.00    12200.00
03196             -16.00    11800.00
03197             -24.00    12000.00
03198             -32.00    12000.00
03199             -34.00    12000.00
03200             -32.00    11600.00
03201             -24.00    11800.00
03202             -22.00    11600.00
03203             -24.00    11600.00
03204             -26.00    11600.00
03205             -30.00    11400.00
03206             -26.00    11400.00
03207             -32.00    11400.00
03208             -34.00    11200.00
03209             -32.00    11200.00
03210             -20.00    11000.00
03211             -16.00    10800.00
03212             -26.00    10800.00
03213             -34.00    10800.00
03214             -40.00    10600.00
03215             -32.00    10400.00
03216             -18.00    10400.00
03217             -16.00    10200.00
03218             -18.00    10200.00
03219             -30.00    10000.00
03220             -34.00     9800.00
03221             -30.00    10000.00
03222             -24.00     9800.00
03223             -16.00     9600.00
03224             -20.00     9600.00
03225             -26.00     9400.00
03226             -26.00     9000.00
03227             -28.00     9200.00
03228             -30.00     9000.00
03229             -22.00     8800.00
03230             -10.00     8800.00
03231             -18.00     8400.00
03232             -28.00     8400.00
03233             -22.00     8200.00
03234             -18.00     8200.00
03235             -22.00     8000.00
03236             -22.00     7600.00
03237             -24.00     7600.00
03238             -18.00     7600.00
03239             -16.00     7200.00
03240             -14.00     7200.00
03241             -16.00     7000.00
03242             -26.00     6800.00
03243             -28.00     6600.00
03244             -16.00     6600.00
03245              -6.00     6400.00
03246              -8.00     6200.00
03247             -16.00     6000.00
03248             -24.00     5800.00
03249             -18.00     5800.00
03250             -10.00     5400.00
03251             -10.00     5400.00
03252             -14.00     5000.00
03253             -16.00     4800.00
03254             -22.00     4800.00
03255             -22.00     4800.00
03256             -10.00     4400.00
03257               2.00     4200.00
03258               2.00     4000.00
03259             -16.00     4000.00
03260             -32.00     3600.00
03261             -26.00     3400.00
03262               0.00     3400.00
03263              10.00     3200.00
03264              -2.00     2800.00
03265             -22.00     2600.00
03266             -22.00     2600.00
03267             -10.00     2400.00
03268              -2.00     2000.00
03269              -2.00     2000.00
03270              -2.00     1800.00
03271              -8.00     1600.00
03272             -12.00     1200.00
03273             -18.00     1200.00
03274             -14.00      800.00
03275              -2.00      800.00
03276               8.00      600.00
03277               2.00      400.00
03278              -2.00      200.00
03279              -6.00        0.00
03280               8.00     -400.00
03281              24.00     -400.00
03282               2.00     -600.00
03283             -16.00     -800.00
03284              -6.00     -800.00
03285               8.00    -1200.00
03286              16.00    -1000.00
03287              80.00    -1400.00
03288             246.00    -1800.00
03289             102.00    -2200.00
03290            -254.00    -2400.00
03291            -254.00    -2600.00
03292               8.00    -2600.00
03293             150.00    -2400.00
03294             246.00    -2800.00
03295             144.00    -3200.00
03296            -254.00    -3200.00
03297              14.00    -3600.00
03298             234.00    -3800.00
03299             -28.00    -3600.00
03300               8.00    -4200.00
03301            -104.00    -4000.00
03302              86.00    -4400.00
03303             102.00    -4800.00
03304             -92.00    -4800.00
03305             -56.00    -5200.00
03306             -34.00    -4800.00
03307             150.00    -5200.00
03308              50.00    -5400.00
03309             -86.00    -5600.00
03310             -14.00    -6000.00
03311              -8.00    -5600.00
03312              98.00    -6400.00
03313              12.00    -6400.00
03314             -42.00    -6400.00
03315              14.00    -6800.00
03316              32.00    -6800.00
03317              38.00    -7200.00
03318             -34.00    -7200.00
03319              16.00    -7200.00
03320              30.00    -7600.00
03321              26.00    -7400.00
03322              22.00    -7800.00
03323             -26.00    -7800.00
03324              26.00    -8000.00
03325              34.00    -8200.00
03326               2.00    -8400.00
03327               0.00    -8600.00
03328              16.00    -8600.00
03329              24.00    -8800.00
03330              24.00    -8800.00
03331              16.00    -9000.00
03332               0.00    -9200.00
03333              16.00    -9200.00
03334              24.00    -9400.00
03335              10.00    -9600.00
03336              22.00    -9600.00
03337              20.00    -9800.00
03338               8.00   -10000.00
03339              16.00   -10000.00
03340               8.00   -10200.00
03341              22.00   -10200.00
03342              40.00   -10400.00
03343              22.00   -10400.00
03344               2.00   -10800.00
03345               8.00   -10800.00
03346              16.00   -10600.00
03347              22.00   -10800.00
03348              24.00   -10800.00
03349              18.00   -11000.00
03350              24.00   -11200.00
03351              24.00   -11200.00
03352               4.00   -11200.00
03353              10.00   -11200.00
03354              28.00   -11200.00
03355              26.00   -11400.00
03356              22.00   -11600.00
03357              18.00   -11600.00
03358              16.00   -11600.00
03359              22.00   -11600.00
03360              18.00   -11600.00
03361              16.00   -11600.00
03362              22.00   -11600.00
03363              26.00   -11600.00
03364              28.00   -11800.00
03365              26.00   -11800.00
03366              16.00   -11800.00
03367               6.00   -11800.00
03368              16.00   -12000.00
03369              34.00   -12000.00
03370              34.00   -11800.00
03371              22.00   -12000.00
03372               8.00   -12000.00
03373              18.00   -12000.00
03374              26.00   -12000.00
03375              24.00   -11800.00
03376              22.00   -12000.00
03377              24.00   -11800.00
03378              22.00   -11800.00
03379              18.00   -11800.00
03380              20.00   -11800.00
03381              24.00   -11800.00
03382              30.00   -11800.00
03383              26.00   -11800.00
03384              18.00   -11800.00
03385              16.00   -11800.00
03386              18.00   -11600.00
03387              22.00   -11600.00
03388              28.00   -11600.00
03389              26.00   -11600.00
03390              22.00   -11600.00
03391              12.00   -11600.00
03392              16.00   -11200.00
03393              22.00   -11200.00
03394              32.00   -11200.00
03395              26.00   -11200.00
03396              18.00   -11000.00
03397              16.00   -11000.00
03398              18.00   -11000.00
03399              22.00   -11000.00
03400              22.00   -10800.00
03401              24.00   -10800.00
03402              22.00   -10800.00
03403              16.00   -10600.00
03404              16.00   -10400.00
03405              16.00   -10400.00
03406              16.00   -10200.00
03407              20.00   -10200.00
03408              18.00   -10000.00
03409              18.00   -10000.00
03410              20.00    -9800.00
03411              16.00    -9600.00
03412              14.00    -9600.00
03413              10.00    -9400.00
03414              14.00    -9400.00
03415              20.00    -9200.00
03416              24.00    -9200.00
03417              18.00    -9000.00
03418               8.00    -8800.00
03419               2.00    -8800.00
03420               6.00    -8800.00
03421              18.00    -8600.00
03422              24.00    -8400.00
03423              22.00    -8000.00
03424              10.00    -8000.00
03425               6.00    -7800.00
03426               8.00    -7600.00
03427              12.00    -7400.00
03428              16.00    -7400.00
03429              14.00    -7200.00
03430              14.00    -7000.00
03431              16.00    -7000.00
03432              14.00    -6600.00
03433               8.00    -6600.00
03434               6.00    -6400.00
03435               8.00    -6400.00
03436               8.00    -6200.00
03437              10.00    -6000.00
03438              12.00    -5800.00
03439              10.00    -5600.00
03440              10.00    -5400.00
03441              10.00    -5400.00
03442               8.00    -5200.00
03443              10.00    -4800.00
03444               8.00    -4600.00
03445               6.00    -4600.00
03446               0.00    -4400.00
03447               2.00    -4000.00
03448               8.00    -4000.00
03449               8.00    -3600.00
03450               6.00    -3600.00
03451               2.00    -3400.00
03452               0.00    -3200.00
03453               0.00    -3200.00
03454               6.00    -2800.00
03455              10.00    -2800.00
03456               6.00    -2400.00
03457              -2.00    -2200.00
03458              -2.00    -2200.00
03459              -2.00    -2000.00
03460               2.00    -1600.00
03461               8.00    -1400.00
03462               6.00    -1200.00
03463               2.00    -1000.00
03464              -6.00     -800.00
03465              -8.00     -800.00
03466              -2.00     -600.00
03467               0.00     -600.00
03468               0.00        0.00
03469               0.00        0.00
03470              -2.00      200.00
03471              -2.00      400.00
03472              18.00      800.00
03473              30.00      800.00
03474               2.00     1000.00
03475             -18.00     1200.00
03476             -10.00     1200.00
03477              12.00     1600.00
03478              48.00     1600.00
03479             246.00     2000.00
03480             216.00     2400.00
03481            -254.00     2400.00
03482            -254.00     2600.00
03483            -136.00     2600.00
03484             200.00     2800.00
03485             246.00     3200.00
03486              38.00     3400.00
03487            -254.00     3200.00
03488             146.00     3800.00
03489             224.00     3800.00
03490            -106.00     4000.00
03491              86.00     4400.00
03492            -192.00     4400.00
03493             102.00     4600.00
03494             130.00     4800.00
03495            -240.00     5000.00
03496             -18.00     5400.00
03497              22.00     5400.00
03498              74.00     5600.00
03499              16.00     5600.00
03500             -74.00     6000.00
03501             -74.00     6000.00
03502             -22.00     6400.00
03503             126.00     6600.00
03504             -90.00     6400.00
03505             -46.00     6800.00
03506               8.00     6800.00
03507             -34.00     7200.00
03508              30.00     7400.00
03509             -56.00     7600.00
03510             -26.00     7600.00
03511              16.00     7600.00
03512               8.00     8000.00
03513             -64.00     8000.00
03514             -30.00     8200.00
03515              -8.00     8600.00
03516             -16.00     8400.00
03517               2.00     8800.00
03518             -42.00     8800.00
03519             -32.00     8800.00
03520              -8.00     9200.00
03521               2.00     9200.00
03522             -32.00     9400.00
03523             -16.00     9200.00
03524             -42.00     9600.00
03525             -26.00     9600.00
03526               0.00     9800.00
03527             -26.00    10000.00
03528             -14.00    10000.00
03529             -26.00    10000.00
03530             -42.00    10400.00
03531             -34.00    10400.00
03532              -8.00    10400.00
03533             -16.00    10600.00
03534             -16.00    10800.00
03535             -30.00    10800.00
03536             -48.00    10800.00
03537             -30.00    10800.00
03538             -22.00    11200.00
03539             -18.00    11000.00
03540             -16.00    11200.00
03541             -26.00    11400.00
03542             -38.00    11400.00
03543             -26.00    11600.00
03544             -32.00    11400.00
03545             -30.00    11600.00
03546             -18.00    11600.00
03547             -26.00    12000.00
03548             -30.00    11800.00
03549             -32.00    12000.00
03550             -34.00    12000.00
03551             -32.00    12000.00
03552             -22.00    12000.00
03553             -24.00    12000.00
03554             -24.00    12000.00
03555             -26.00    12200.00
03556             -34.00    12200.00
03557             -36.00    12200.00
03558             -30.00    12200.00
03559             -26.00    12200.00
03560             -22.00    12200.00
03561             -26.00    12400.00
03562             -32.00    12200.00
03563             -30.00    12200.00
03564             -26.00    12200.00
03565             -26.00    12400.00
03566             -26.00    12400.00
03567             -26.00    12200.00
03568             -30.00    12400.00
03569             -30.00    12400.00
03570             -32.00    12200.00
03571             -32.00    12200.00
03572             -24.00    12200.00
03573             -26.00    12200.00
03574             -24.00    12200.00
03575             -28.00    12000.00
03576             -32.00    12200.00
03577             -34.00    12000.00
03578             -26.00    12200.00
03579             -26.00    12000.00
03580             -24.00    12000.00
03581             -26.00    12000.00
03582             -32.00    12000.00
03583             -32.00    12000.00
03584             -28.00    11800.00
03585             -24.00    11600.00
03586             -22.00    11800.00
03587             -24.00    11600.00
03588             -30.00    11400.00
03589             -26.00    11400.00
03590             -32.00    11400.00
03591             -30.00    11400.00
03592             -24.00    11200.00
03593             -18.00    11200.00
03594             -22.00    11000.00
03595             -30.00    10800.00
03596             -32.00    10800.00
03597             -26.00    10800.00
03598             -18.00    10600.00
03599             -24.00    10400.00
03600             -30.00    10400.00
03601             -26.00    10400.00
03602             -26.00    10200.00
03603             -32.00    10000.00
03604             -26.00     9800.00
03605             -16.00     9800.00
03606             -18.00     9600.00
03607             -26.00     9600.00
03608             -34.00     9600.00
03609             -32.00     9400.00
03610             -18.00     9200.00
03611             -14.00     9000.00
03612             -16.00     8800.00
03613             -34.00     8800.00
03614             -38.00     8600.00
03615             -16.00     8400.00
03616               0.00     8200.00
03617             -18.00     8200.00
03618             -42.00     8000.00
03619             -32.00     8000.00
03620             -14.00     7600.00
03621             -10.00     7600.00
03622             -16.00     7400.00
03623             -22.00     7200.00
03624             -20.00     7200.00
03625             -24.00     6800.00
03626             -20.00     6800.00
03627             -10.00     6600.00
03628             -10.00     6600.00
03629             -16.00     6400.00
03630             -22.00     6000.00
03631             -24.00     5800.00
03632             -22.00     5800.00
03633             -10.00     5600.00
03634              -6.00     5400.00
03635             -10.00     5200.00
03636             -20.00     5000.00
03637             -26.00     4800.00
03638             -16.00     4600.00
03639              -6.00     4400.00
03640             -10.00     4200.00
03641             -14.00     4000.00
03642             -10.00     3800.00
03643             -10.00     3800.00
03644             -14.00     3600.00
03645             -14.00     3400.00
03646             -16.00     3200.00
03647              -8.00     3000.00
03648               2.00     2600.00
03649              -2.00     2600.00
03650             -16.00     2400.00
03651             -22.00     2200.00
03652             -10.00     2000.00
03653               0.00     1800.00
03654               6.00     1600.00
03655              -2.00     1600.00
03656             -10.00     1200.00
03657             -14.00     1000.00
03658             -10.00     1000.00
03659               0.00      800.00
03660               6.00      400.00
03661               0.00      200.00
03662               0.00        0.00
03663               0.00     -200.00
03664              24.00     -400.00
03665              18.00     -400.00
03666             -10.00     -600.00
03667             -18.00     -800.00
03668               2.00    -1000.00
03669              18.00    -1200.00
03670              36.00    -1200.00
03671             154.00    -1600.00
03672             246.00    -2000.00
03673            -134.00    -2400.00
03674            -254.00    -2400.00
03675            -206.00    -2400.00
03676             112.00    -2400.00
03677             206.00    -2400.00
03678             246.00    -3000.00
03679            -194.00    -3200.00
03680            -254.00    -3200.00
03681             238.00    -3800.00
03682              90.00    -3600.00
03683              -8.00    -3800.00
03684             -42.00    -4400.00
03685             -56.00    -4000.00
03686             160.00    -4600.00
03687             -18.00    -4600.00
03688             -90.00    -4800.00
03689             -54.00    -5200.00
03690              48.00    -5200.00
03691             164.00    -5600.00
03692             -56.00    -5400.00
03693             -50.00    -6000.00
03694             -16.00    -6000.00
03695              42.00    -6000.00
03696              90.00    -6400.00
03697             -42.00    -6200.00
03698             -10.00    -6800.00
03699              14.00    -6600.00
03700              48.00    -6800.00
03701               2.00    -7200.00
03702             -26.00    -7000.00
03703              34.00    -7400.00
03704              22.00    -7200.00
03705              38.00    -7600.00
03706              -8.00    -7800.00
03707             -14.00    -8000.00
03708              40.00    -8400.00
03709              20.00    -8400.00
03710              -2.00    -8600.00
03711              10.00    -8400.00
03712              20.00    -8800.00
03713              24.00    -9000.00
03714              22.00    -8800.00
03715               8.00    -9200.00
03716               6.00    -9200.00
03717              24.00    -9400.00
03718              20.00    -9400.00
03719              14.00    -9600.00
03720              28.00    -9800.00
03721              14.00    -9600.00
03722              16.00   -10000.00
03723              14.00   -10000.00
03724               6.00   -10000.00
03725              30.00   -10200.00
03726              34.00   -10200.00
03727              16.00   -10400.00
03728               8.00   -10600.00
03729               8.00   -10600.00
03730              14.00   -10600.00
03731              30.00   -10800.00
03732              26.00   -10800.00
03733              16.00   -11000.00
03734              18.00   -11000.00
03735              16.00   -11200.00
03736              14.00   -11200.00
03737              24.00   -11200.00
03738              22.00   -11200.00
03739              18.00   -11400.00
03740              24.00   -11400.00
03741              16.00   -11600.00
03742              16.00   -11600.00
03743              18.00   -11600.00
03744              20.00   -11800.00
03745              22.00   -11800.00
03746              30.00   -11600.00
03747              22.00   -11800.00
03748              16.00   -11800.00
03749              16.00   -11800.00
03750              18.00   -11800.00
03751              26.00   -11800.00
03752              30.00   -12000.00
03753              20.00   -12000.00
03754              22.00   -11800.00
03755              22.00   -11800.00
03756              22.00   -12000.00
03757              22.00   -11800.00
03758              22.00   -12000.00
03759              22.00   -11800.00
03760              22.00   -12000.00
03761              16.00   -11800.00
03762              12.00   -11800.00
03763              22.00   -11800.00
03764              34.00   -11800.00
03765              30.00   -11800.00
03766              18.00   -11800.00
03767              14.00   -11600.00
03768              18.00   -11800.00
03769              26.00   -11800.00
03770              24.00   -11600.00
03771              24.00   -11600.00
03772              22.00   -11600.00
03773              18.00   -11600.00
03774              16.00   -11600.00
03775              20.00   -11400.00
03776              22.00   -11200.00
03777              22.00   -11200.00
03778              22.00   -11200.00
03779              24.00   -11200.00
03780              24.00   -11000.00
03781              22.00   -11000.00
03782              14.00   -11000.00
03783              14.00   -10800.00
03784              18.00   -10800.00
03785              26.00   -10800.00
03786              26.00   -10400.00
03787              22.00   -10600.00
03788              14.00   -10400.00
03789              10.00   -10200.00
03790              12.00   -10000.00
03791              22.00   -10000.00
03792              22.00   -10000.00
03793              22.00    -9800.00
03794              16.00    -9800.00
03795               8.00    -9600.00
03796              10.00    -9400.00
03797              16.00    -9400.00
03798              18.00    -9200.00
03799              18.00    -9200.00
03800              16.00    -9000.00
03801              14.00    -9000.00
03802              10.00    -8800.00
03803               8.00    -8600.00
03804              14.00    -8400.00
03805              18.00    -8400.00
03806              16.00    -8400.00
03807              14.00    -8000.00
03808              12.00    -8000.00
03809               8.00    -7800.00
03810              14.00    -7600.00
03811              16.00    -7400.00
03812              14.00    -7400.00
03813              10.00    -7200.00
03814              10.00    -7200.00
03815               8.00    -7000.00
03816               8.00    -6800.00
03817               8.00    -6400.00
03818               8.00    -6400.00
03819              14.00    -6200.00
03820              12.00    -6000.00
03821               8.00    -6000.00
03822               2.00    -5800.00
03823               6.00    -5600.00
03824               8.00    -5400.00
03825              14.00    -5200.00
03826              10.00    -4800.00
03827               6.00    -4800.00
03828               2.00    -4600.00
03829               0.00    -4600.00
03830               6.00    -4400.00
03831               8.00    -4000.00
03832              10.00    -3800.00
03833               8.00    -3600.00
03834               6.00    -3600.00
03835               0.00    -3200.00
03836               0.00    -3200.00
03837               0.00    -3000.00
03838               6.00    -2800.00
03839               6.00    -2400.00
03840               2.00    -2400.00
03841               0.00    -2200.00
03842              -2.00    -2000.00
03843              -2.00    -2000.00
03844               0.00    -1600.00
03845               4.00    -1400.00
03846               6.00    -1200.00
03847               2.00    -1000.00
03848              -2.00     -800.00
03849              -6.00     -600.00
03850              -6.00     -400.00
03851               0.00     -200.00
03852               2.00        0.00
03853               2.00      200.00
03854               2.00      400.00
03855               6.00      400.00
03856              26.00      800.00
03857              18.00      800.00
03858             -10.00     1000.00
03859             -18.00     1200.00
03860               0.00     1600.00
03861              16.00     1600.00
03862             114.00     1800.00
03863             246.00     2400.00
03864             -26.00     2200.00
03865            -254.00     2400.00
03866            -254.00     2600.00
03867               8.00     2800.00
03868             246.00     3000.00
03869             246.00     3400.00
03870            -254.00     3200.00
03871            -254.00     3400.00
03872             246.00     4000.00
03873             -30.00     4000.00
03874              14.00     4200.00
03875             -24.00     4400.00
03876            -152.00     4400.00
03877             240.00     4600.00
03878             -90.00     4800.00
03879            -168.00     5200.00
03880              32.00     5400.00
03881              12.00     5600.00
03882              80.00     5600.00
03883             -46.00     5800.00
03884             -54.00     6000.00
03885             -80.00     6000.00
03886              72.00     6400.00
03887              46.00     6600.00
03888            -126.00     6600.00
03889              28.00     6800.00
03890             -32.00     6800.00
03891               8.00     7200.00
03892              -8.00     7200.00
03893             -68.00     7600.00
03894              -2.00     7600.00
03895              24.00     7800.00
03896             -16.00     8000.00
03897             -60.00     8000.00
03898              -8.00     8400.00
03899             -26.00     8400.00
03900               2.00     8400.00
03901             -16.00     8800.00
03902             -46.00     8800.00
03903             -26.00     9000.00
03904              -2.00     9200.00
03905             -14.00     9200.00
03906             -22.00     9400.00
03907             -16.00     9600.00
03908             -48.00     9600.00
03909             -10.00     9800.00
03910             -18.00     9800.00
03911             -18.00     9800.00
03912             -10.00    10000.00
03913             -32.00    10200.00
03914             -44.00    10400.00
03915             -16.00    10400.00
03916              -6.00    10400.00
03917             -18.00    10600.00
03918             -18.00    11000.00
03919             -40.00    10800.00
03920             -36.00    11000.00
03921             -18.00    11000.00
03922             -16.00    11200.00
03923             -24.00    11200.00
03924             -22.00    11400.00
03925             -32.00    11400.00
03926             -30.00    11400.00
03927             -24.00    11400.00
03928             -34.00    11800.00
03929             -24.00    11800.00
03930             -18.00    11600.00
03931             -24.00    11800.00
03932             -30.00    12000.00
03933             -32.00    12000.00
03934             -34.00    12000.00
03935             -28.00    12000.00
03936             -24.00    12000.00
03937             -24.00    12200.00
03938             -26.00    12000.00
03939             -32.00    12000.00
03940             -36.00    12200.00
03941             -32.00    12200.00
03942             -26.00    12200.00
03943             -26.00    12200.00
03944             -22.00    12200.00
03945             -30.00    12400.00
03946             -34.00    12200.00
03947             -32.00    12200.00
03948             -32.00    12200.00
03949             -26.00    12200.00
03950             -24.00    12200.00
03951             -26.00    12200.00
03952             -30.00    12400.00
03953             -32.00    12400.00
03954             -34.00    12200.00
03955             -30.00    12200.00
03956             -22.00    12200.00
03957             -22.00    12200.00
03958             -24.00    12200.00
03959             -34.00    12200.00
03960             -38.00    12000.00
03961             -32.00    12200.00
03962             -24.00    12000.00
03963             -22.00    12000.00
03964             -24.00    12000.00
03965             -30.00    12000.00
03966             -32.00    12000.00
03967             -32.00    11800.00
03968             -26.00    11600.00
03969             -24.00    11600.00
03970             -24.00    11800.00
03971             -24.00    11600.00
03972             -28.00    11400.00
03973             -30.00    11400.00
03974             -30.00    11400.00
03975             -28.00    11200.00
03976             -24.00    11200.00
03977             -22.00    11000.00
03978             -26.00    11000.00
03979             -30.00    10800.00
03980             -26.00    10800.00
03981             -30.00    10600.00
03982             -26.00    10600.00
03983             -18.00    10400.00
03984             -22.00    10200.00
03985             -24.00    10400.00
03986             -30.00    10000.00
03987             -30.00     9800.00
03988             -26.00     9800.00
03989             -24.00     9800.00
03990             -22.00     9600.00
03991             -22.00     9400.00
03992             -24.00     9400.00
03993             -28.00     9200.00
03994             -26.00     9000.00
03995             -24.00     9000.00
03996             -16.00     8800.00
03997             -18.00     8600.00
03998             -24.00     8400.00
03999             -26.00     8400.00
04000             -26.00     8400.00
04001             -24.00     8200.00
04002             -20.00     8000.00
04003             -16.00     7800.00
04004             -18.00     7600.00
04005             -18.00     7600.00
04006             -24.00     7400.00
04007             -24.00     7200.00
04008             -22.00     7000.00
04009             -18.00     6800.00
04010             -16.00     6600.00
04011             -14.00     6400.00
04012             -22.00     6400.00
04013             -18.00     6400.00
04014             -16.00     6000.00
04015             -16.00     5800.00
04016             -14.00     5800.00
04017             -14.00     5600.00
04018             -16.00     5400.00
04019             -16.00     5200.00
04020             -18.00     5000.00
04021             -16.00     4800.00
04022             -14.00     4600.00
04023             -10.00     4400.00
04024             -10.00     4200.00
04025             -10.00     4000.00
04026             -14.00     4000.00
04027             -16.00     3600.00
04028             -10.00     3400.00
04029              -8.00     3200.00
04030              -8.00     3200.00
04031              -8.00     3000.00
04032             -10.00     2800.00
04033             -12.00     2600.00
04034             -10.00     2400.00
04035             -10.00     2000.00
04036              -6.00     1800.00
04037              -2.00     1800.00
04038              -2.00     1600.00
04039              -8.00     1200.00
04040              -8.00     1200.00
04041             -10.00      800.00
04042              -8.00      800.00
04043               0.00      600.00
04044              -2.00      400.00
04045               0.00      200.00
04046               2.00        0.00
04047              16.00     -200.00
04048              34.00     -400.00
04049              16.00     -600.00
04050             -10.00     -800.00
04051              -8.00     -800.00
04052               0.00    -1000.00
04053               8.00    -1200.00
04054              64.00    -1400.00
04055             240.00    -1600.00
04056             138.00    -2400.00
04057            -254.00    -2400.00
04058            -254.00    -2600.00
04059               0.00    -2400.00
04060             158.00    -2400.00
04061             246.00    -2800.00
04062             190.00    -3200.00
04063            -254.00    -3200.00
04064             -62.00    -3400.00
04065             246.00    -3800.00
04066             -16.00    -3600.00
04067              18.00    -4200.00
04068             -88.00    -4200.00
04069              72.00    -4400.00
04070             120.00    -4800.00
04071             -90.00    -4600.00
04072             -64.00    -5000.00
04073             -48.00    -5000.00
04074             134.00    -5400.00
04075              64.00    -5400.00
04076             -96.00    -5400.00
04077             -14.00    -6000.00
04078              -8.00    -5800.00
04079             102.00    -6400.00
04080              30.00    -6200.00
04081             -48.00    -6400.00
04082               8.00    -7000.00
04083              22.00    -6800.00
04084              36.00    -7200.00
04085             -34.00    -7000.00
04086               6.00    -7200.00
04087              32.00    -7600.00
04088              26.00    -7400.00
04089              32.00    -7800.00
04090             -24.00    -7800.00
04091              22.00    -8200.00
04092              38.00    -8200.00
04093               0.00    -8400.00
04094              -6.00    -8600.00
04095              10.00    -8400.00
04096              26.00    -8800.00
04097              30.00    -8800.00
04098              16.00    -8800.00
04099               2.00    -9200.00
04100              16.00    -9200.00
04101              26.00    -9400.00
04102              14.00    -9600.00
04103              18.00    -9600.00
04104              16.00    -9600.00
04105              12.00   -10000.00
04106              20.00   -10000.00
04107              10.00   -10000.00
04108              18.00   -10200.00
04109              38.00   -10200.00
04110              24.00   -10400.00
04111              14.00   -10600.00
04112              10.00   -10800.00
04113              14.00   -10800.00
04114              22.00   -10800.00
04115              32.00   -10800.00
04116              22.00   -11000.00
04117              16.00   -11000.00
04118              20.00   -11200.00
04119              10.00   -11200.00
04120              16.00   -11200.00
04121              24.00   -11200.00
04122              22.00   -11400.00
04123              28.00   -11600.00
04124              20.00   -11600.00
04125              10.00   -11600.00
04126              16.00   -11600.00
04127              22.00   -11600.00
04128              22.00   -11600.00
04129              24.00   -11600.00
04130              24.00   -11800.00
04131              22.00   -11800.00
04132              18.00   -11800.00
04133              16.00   -11800.00
04134              16.00   -11800.00
04135              22.00   -11800.00
04136              26.00   -11800.00
04137              22.00   -11800.00
04138              18.00   -12000.00
04139              14.00   -12000.00
04140              18.00   -11800.00
04141              24.00   -11800.00
04142              26.00   -12000.00
04143              24.00   -11800.00
04144              18.00   -12000.00
04145              16.00   -12000.00
04146              16.00   -11800.00
04147              22.00   -11800.00
04148              24.00   -11800.00
04149              26.00   -11600.00
04150              24.00   -11800.00
04151              18.00   -11600.00
04152              16.00   -11600.00
04153              16.00   -11600.00
04154              16.00   -11600.00
04155              24.00   -11600.00
04156              30.00   -11600.00
04157              24.00   -11600.00
04158              16.00   -11400.00
04159              16.00   -11200.00
04160              16.00   -11400.00
04161              22.00   -11200.00
04162              24.00   -11000.00
04163              24.00   -11000.00
04164              22.00   -11000.00
04165              18.00   -11000.00
04166              16.00   -10800.00
04167              20.00   -10800.00
04168              22.00   -10800.00
04169              22.00   -10800.00
04170              20.00   -10400.00
04171              18.00   -10400.00
04172              14.00   -10200.00
04173              16.00   -10400.00
04174              18.00   -10000.00
04175              20.00   -10000.00
04176              18.00   -10000.00
04177              18.00    -9800.00
04178              16.00    -9600.00
04179              16.00    -9600.00
04180              14.00    -9400.00
04181              16.00    -9200.00
04182              16.00    -9200.00
04183              16.00    -9200.00
04184              18.00    -8800.00
04185              14.00    -8800.00
04186               8.00    -8800.00
04187              14.00    -8400.00
04188              16.00    -8400.00
04189              18.00    -8200.00
04190              16.00    -8000.00
04191              16.00    -8000.00
04192               8.00    -8000.00
04193               6.00    -7800.00
04194               8.00    -7400.00
04195              14.00    -7400.00
04196              18.00    -7200.00
04197              16.00    -7000.00
04198               8.00    -7200.00
04199               2.00    -6800.00
04200               8.00    -6800.00
04201              12.00    -6400.00
04202              12.00    -6400.00
04203              10.00    -6200.00
04204               8.00    -6000.00
04205               6.00    -5800.00
04206               6.00    -5600.00
04207              10.00    -5400.00
04208              14.00    -5200.00
04209              10.00    -5200.00
04210               6.00    -4800.00
04211               2.00    -4600.00
04212               0.00    -4800.00
04213               6.00    -4400.00
04214              10.00    -4200.00
04215              10.00    -4000.00
04216               6.00    -3600.00
04217               2.00    -3600.00
04218               4.00    -3600.00
04219              -2.00    -3200.00
04220               0.00    -3000.00
04221               6.00    -2800.00
04222               8.00    -2800.00
04223               6.00    -2400.00
04224               0.00    -2200.00
04225              -2.00    -2000.00
04226               2.00    -2000.00
04227               2.00    -1600.00
04228               0.00    -1400.00
04229               0.00    -1200.00
04230               2.00    -1000.00
04231               2.00     -800.00
04232               2.00     -800.00
04233              -2.00     -600.00
04234              -6.00     -400.00
04235              -4.00        0.00
04236              -2.00        0.00
04237              10.00      200.00
04238               8.00      400.00
04239              16.00      600.00
04240              24.00      800.00
04241               2.00     1000.00
04242             -16.00     1200.00
04243              -8.00     1200.00
04244              16.00     1600.00
04245              40.00     1800.00
04246             232.00     2000.00
04247             246.00     2400.00
04248            -254.00     2200.00
04249            -254.00     2600.00
04250            -176.00     2600.00
04251             158.00     3000.00
04252             246.00     3200.00
04253             154.00     3400.00
04254            -254.00     3200.00
04255              68.00     3800.00
04256             246.00     3800.00
04257            -114.00     4000.00
04258              94.00     4200.00
04259            -176.00     4400.00
04260              56.00     4400.00
04261             170.00     4800.00
04262            -232.00     5000.00
04263             -42.00     5000.00
04264              16.00     5400.00
04265              58.00     5600.00
04266              34.00     5600.00
04267             -64.00     6000.00
04268             -62.00     6000.00
04269             -48.00     6000.00
04270             114.00     6600.00
04271             -74.00     6400.00
04272             -54.00     6800.00
04273              26.00     6800.00
04274             -40.00     6800.00
04275              26.00     7200.00
04276             -56.00     7400.00
04277             -38.00     7600.00
04278              16.00     7600.00
04279              22.00     8000.00
04280             -50.00     8000.00
04281             -38.00     8200.00
04282             -10.00     8400.00
04283             -24.00     8400.00
04284               8.00     8800.00
04285             -38.00     8600.00
04286             -36.00     9000.00
04287             -16.00     9000.00
04288               0.00     9200.00
04289             -24.00     9400.00
04290             -10.00     9600.00
04291             -34.00     9600.00
04292             -34.00     9800.00
04293              -6.00     9800.00
04294             -28.00     9800.00
04295             -10.00    10000.00
04296             -18.00    10000.00
04297             -42.00    10400.00
04298             -42.00    10400.00
04299              -8.00    10400.00
04300             -12.00    10600.00
04301             -14.00    10800.00
04302             -26.00    10800.00
04303             -46.00    10800.00
04304             -30.00    10800.00
04305             -18.00    11200.00
04306             -24.00    11000.00
04307             -16.00    11200.00
04308             -24.00    11400.00
04309             -32.00    11400.00
04310             -26.00    11400.00
04311             -32.00    11800.00
04312             -32.00    11600.00
04313             -16.00    11800.00
04314             -18.00    11800.00
04315             -30.00    11800.00
04316             -32.00    11800.00
04317             -34.00    12000.00
04318             -34.00    12000.00
04319             -26.00    12000.00
04320             -22.00    12000.00
04321             -18.00    12000.00
04322             -24.00    12000.00
04323             -34.00    12000.00
04324             -38.00    12200.00
04325             -30.00    12200.00
04326             -26.00    12200.00
04327             -24.00    12200.00
04328             -24.00    12200.00
04329             -32.00    12200.00
04330             -34.00    12400.00
04331             -32.00    12200.00
04332             -30.00    12200.00
04333             -26.00    12200.00
04334             -22.00    12200.00
04335             -26.00    12400.00
04336             -30.00    12400.00
04337             -36.00    12200.00
04338             -38.00    12200.00
04339             -26.00    12200.00
04340             -24.00    12200.00
04341             -26.00    12000.00
04342             -28.00    12200.00
04343             -32.00    12000.00
04344             -34.00    12200.00
04345             -26.00    12000.00
04346             -26.00    12000.00
04347             -26.00    12000.00
04348             -26.00    12000.00
04349             -30.00    12000.00
04350             -32.00    11800.00
04351             -30.00    11800.00
04352             -30.00    11600.00
04353             -24.00    11800.00
04354             -22.00    11400.00
04355             -26.00    11400.00
04356             -28.00    11600.00
04357             -32.00    11400.00
04358             -30.00    11400.00
04359             -24.00    11200.00
04360             -22.00    11200.00
04361             -26.00    11200.00
04362             -26.00    10800.00
04363             -28.00    10800.00
04364             -28.00    10600.00
04365             -26.00    10600.00
04366             -22.00    10400.00
04367             -22.00    10400.00
04368             -22.00    10400.00
04369             -28.00    10200.00
04370             -32.00    10000.00
04371             -30.00    10000.00
04372             -22.00     9800.00
04373             -16.00     9600.00
04374             -18.00     9600.00
04375             -26.00     9600.00
04376             -30.00     9200.00
04377             -24.00     9200.00
04378             -24.00     9000.00
04379             -24.00     9000.00
04380             -22.00     8600.00
04381             -14.00     8400.00
04382             -18.00     8600.00
04383             -30.00     8400.00
04384             -32.00     8200.00
04385             -18.00     8000.00
04386             -10.00     7800.00
04387             -16.00     7600.00
04388             -26.00     7600.00
04389             -24.00     7400.00
04390             -24.00     7400.00
04391             -10.00     7200.00
04392             -20.00     6800.00
04393             -30.00     6600.00
04394             -24.00     6600.00
04395              -2.00     6600.00
04396               0.00     6200.00
04397             -26.00     6000.00
04398             -38.00     6000.00
04399             -22.00     5600.00
04400               2.00     5600.00
04401              -2.00     5400.00
04402             -18.00     5400.00
04403             -24.00     5000.00
04404             -28.00     4800.00
04405             -22.00     4800.00
04406              -8.00     4400.00
04407               2.00     4200.00
04408              -2.00     4000.00
04409             -14.00     4000.00
04410             -24.00     4000.00
04411             -18.00     3600.00
04412             -14.00     3400.00
04413              -2.00     3200.00
04414               4.00     3200.00
04415              -8.00     2800.00
04416             -24.00     2600.00
04417             -22.00     2400.00
04418              -8.00     2000.00
04419               6.00     2000.00
04420               4.00     2000.00
04421             -10.00     1600.00
04422             -16.00     1600.00
04423             -10.00     1200.00
04424              -6.00     1000.00
04425               4.00     1000.00
04426               6.00      800.00
04427              -8.00      400.00
04428             -10.00      200.00
04429              -2.00        0.00
04430               8.00        0.00
04431              32.00     -200.00
04432              24.00     -400.00
04433             -10.00     -600.00
04434             -24.00     -800.00
04435              -2.00    -1000.00
04436              22.00    -1200.00
04437              32.00    -1200.00
04438             138.00    -1600.00
04439             246.00    -2000.00
04440             -78.00    -2400.00
04441            -254.00    -2400.00
04442            -248.00    -2600.00
04443              94.00    -2600.00
04444             190.00    -2400.00
04445             246.00    -3000.00
04446            -122.00    -3400.00
04447            -254.00    -3000.00
04448             202.00    -3800.00
04449             114.00    -3600.00
04450             -18.00    -3600.00
04451             -26.00    -4400.00
04452             -66.00    -4000.00
04453             152.00    -4600.00
04454               6.00    -4600.00
04455             -98.00    -4800.00
04456             -50.00    -5200.00
04457              28.00    -5000.00
04458             166.00    -5600.00
04459             -38.00    -5400.00
04460             -58.00    -5800.00
04461             -16.00    -6000.00
04462              32.00    -6000.00
04463              94.00    -6400.00
04464             -38.00    -6200.00
04465             -16.00    -6800.00
04466              14.00    -6800.00
04467              44.00    -6800.00
04468               6.00    -7200.00
04469             -32.00    -7200.00
04470              32.00    -7600.00
04471              20.00    -7400.00
04472              32.00    -7800.00
04473               0.00    -7800.00
04474             -20.00    -8000.00
04475              40.00    -8200.00
04476              24.00    -8200.00
04477              -2.00    -8600.00
04478               8.00    -8600.00
04479              18.00    -8800.00
04480              24.00    -8800.00
04481              22.00    -9000.00
04482               6.00    -9200.00
04483               4.00    -9200.00
04484              24.00    -9400.00
04485              22.00    -9600.00
04486               8.00    -9600.00
04487              24.00    -9600.00
04488              16.00    -9800.00
04489              16.00   -10000.00
04490              16.00   -10000.00
04491               6.00   -10000.00
04492              30.00   -10200.00
04493              32.00   -10400.00
04494              16.00   -10600.00
04495              10.00   -10600.00
04496              14.00   -10800.00
04497              16.00   -10800.00
04498              28.00   -10800.00
04499              26.00   -10800.00
04500              16.00   -11000.00
04501              20.00   -11200.00
04502              18.00   -11000.00
04503              12.00   -11200.00
04504              22.00   -11400.00
04505              22.00   -11200.00
04506              22.00   -11600.00
04507              28.00   -11400.00
04508              16.00   -11600.00
04509              10.00   -11600.00
04510              18.00   -11600.00
04511              22.00   -11800.00
04512              22.00   -11800.00
04513              30.00   -11600.00
04514              22.00   -11800.00
04515              14.00   -11800.00
04516              16.00   -11800.00
04517              16.00   -11800.00
04518              22.00   -11800.00
04519              28.00   -12000.00
04520              22.00   -12000.00
04521              22.00   -12000.00
04522              18.00   -11800.00
04523              12.00   -11800.00
04524              22.00   -12000.00
04525              26.00   -12000.00
04526              24.00   -12000.00
04527              22.00   -11800.00
04528              18.00   -12000.00
04529              16.00   -11800.00
04530              18.00   -11800.00
04531              22.00   -11800.00
04532              22.00   -11800.00
04533              26.00   -11800.00
04534              22.00   -11600.00
04535              16.00   -11800.00
04536              16.00   -11600.00
04537              18.00   -11600.00
04538              24.00   -11600.00
04539              28.00   -11600.00
04540              22.00   -11600.00
04541              16.00   -11200.00
04542              16.00   -11400.00
04543              16.00   -11200.00
04544              18.00   -11200.00
04545              22.00   -11200.00
04546              24.00   -11200.00
04547              22.00   -11000.00
04548              18.00   -11000.00
04549              18.00   -10800.00
04550              18.00   -10800.00
04551              18.00   -10800.00
04552              22.00   -10800.00
04553              22.00   -10600.00
04554              22.00   -10400.00
04555              14.00   -10400.00
04556              14.00   -10200.00
04557              16.00   -10200.00
04558              22.00   -10000.00
04559              22.00   -10000.00
04560              20.00   -10000.00
04561              16.00    -9600.00
04562              16.00    -9600.00
04563              14.00    -9400.00
04564              16.00    -9400.00
04565              18.00    -9200.00
04566              18.00    -9200.00
04567              18.00    -9200.00
04568              16.00    -8800.00
04569              14.00    -8800.00
04570              14.00    -8600.00
04571              14.00    -8400.00
04572              18.00    -8400.00
04573              18.00    -8000.00
04574              16.00    -8000.00
04575              10.00    -8000.00
04576               8.00    -7800.00
04577              10.00    -7600.00
04578              14.00    -7400.00
04579              16.00    -7200.00
04580              14.00    -7200.00
04581              10.00    -7200.00
04582               8.00    -6800.00
04583               8.00    -6800.00
04584              10.00    -6400.00
04585              14.00    -6200.00
04586              14.00    -6200.00
04587              12.00    -6000.00
04588               8.00    -5800.00
04589               6.00    -5800.00
04590               6.00    -5400.00
04591               8.00    -5200.00
04592               8.00    -5400.00
04593              10.00    -4800.00
04594              10.00    -4800.00
04595               6.00    -4800.00
04596               2.00    -4400.00
04597               2.00    -4400.00
04598               2.00    -4000.00
04599               8.00    -3800.00
04600               6.00    -3800.00
04601               2.00    -3400.00
04602               2.00    -3400.00
04603               0.00    -3200.00
04604               2.00    -3000.00
04605               2.00    -2800.00
04606               6.00    -2600.00
04607               6.00    -2400.00
04608              -2.00    -2200.00
04609              -2.00    -2000.00
04610               4.00    -1800.00
04611               6.00    -1600.00
04612               0.00    -1600.00
04613              -4.00    -1200.00
04614               0.00    -1000.00
04615               2.00     -800.00
04616               2.00     -600.00
04617              -2.00     -400.00
04618              -6.00     -200.00
04619              -2.00        0.00
04620               0.00      200.00
04621               2.00      200.00
04622               8.00      400.00
04623              26.00      800.00
04624              22.00     1000.00
04625              -6.00     1000.00
04626             -16.00     1200.00
04627               0.00     1400.00
04628              22.00     1600.00
04629              96.00     1800.00
04630             246.00     2000.00
04631              32.00     2400.00
04632            -254.00     2400.00
04633            -254.00     2800.00
04634             -16.00     2800.00
04635             246.00     3000.00
04636             246.00     3400.00
04637            -254.00     3200.00
04638            -254.00     3400.00
04639             246.00     3800.00
04640              18.00     3800.00
04641             -12.00     4200.00
04642               2.00     4200.00
04643            -178.00     4400.00
04644             230.00     4600.00
04645             -46.00     4800.00
04646            -192.00     5000.00
04647              28.00     5200.00
04648              10.00     5600.00
04649              82.00     5600.00
04650             -38.00     5800.00
04651             -58.00     6200.00
04652             -86.00     6000.00
04653              48.00     6400.00
04654              64.00     6400.00
04655            -126.00     6400.00
04656              22.00     6800.00
04657             -20.00     6800.00
04658              -2.00     7200.00
04659              -2.00     7400.00
04660             -72.00     7400.00
04661              -8.00     7600.00
04662              22.00     7800.00
04663             -10.00     8000.00
04664             -64.00     8000.00
04665              -8.00     8400.00
04666             -24.00     8400.00
04667               0.00     8400.00
04668             -12.00     8800.00
04669             -48.00     9000.00
04670             -26.00     9000.00
04671              -4.00     9000.00
04672             -14.00     9200.00
04673             -26.00     9200.00
04674             -16.00     9600.00
04675             -56.00     9600.00
04676             -14.00     9800.00
04677             -10.00     9800.00
04678             -22.00     9800.00
04679             -16.00    10200.00
04680             -30.00    10400.00
04681             -40.00    10400.00
04682             -24.00    10400.00
04683              -8.00    10600.00
04684             -22.00    10400.00
04685             -18.00    10800.00
04686             -34.00    10800.00
04687             -32.00    11000.00
04688             -18.00    11200.00
04689             -24.00    11000.00
04690             -32.00    11200.00
04691             -22.00    11400.00
04692             -22.00    11400.00
04693             -18.00    11600.00
04694             -22.00    11800.00
04695             -40.00    11600.00
04696             -32.00    11800.00
04697             -20.00    11800.00
04698             -24.00    12000.00
04699             -24.00    12000.00
04700             -24.00    12000.00
04701             -38.00    12000.00
04702             -40.00    12000.00
04703             -26.00    12000.00
04704             -14.00    12200.00
04705             -10.00    12200.00
04706             -30.00    12000.00
04707             -50.00    12200.00
04708             -42.00    12400.00
04709             -22.00    12200.00
04710             -10.00    12200.00
04711             -18.00    12200.00
04712             -38.00    12200.00
04713             -42.00    12200.00
04714             -30.00    12400.00
04715             -24.00    12200.00
04716             -26.00    12200.00
04717             -24.00    12200.00
04718             -26.00    12200.00
04719             -34.00    12400.00
04720             -38.00    12200.00
04721             -38.00    12200.00
04722             -26.00    12400.00
04723             -18.00    12200.00
04724             -20.00    12200.00
04725             -24.00    12200.00
04726             -32.00    12000.00
04727             -40.00    12200.00
04728             -34.00    12000.00
04729             -24.00    12000.00
04730             -24.00    12000.00
04731             -24.00    12000.00
04732             -32.00    12000.00
04733             -36.00    12000.00
04734             -28.00    11800.00
04735             -24.00    11800.00
04736             -26.00    11800.00
04737             -24.00    11600.00
04738             -28.00    11600.00
04739             -26.00    11400.00
04740             -32.00    11400.00
04741             -32.00    11200.00
04742             -26.00    11200.00
04743             -20.00    11200.00
04744             -22.00    11000.00
04745             -26.00    10800.00
04746             -30.00    11000.00
04747             -34.00    10800.00
04748             -28.00    10600.00
04749             -22.00    10600.00
04750             -18.00    10400.00
04751             -16.00    10400.00
04752             -24.00    10200.00
04753             -26.00    10000.00
04754             -26.00    10000.00
04755             -26.00    10000.00
04756             -24.00     9800.00
04757             -18.00     9800.00
04758             -18.00     9600.00
04759             -24.00     9400.00
04760             -28.00     9200.00
04761             -26.00     9200.00
04762             -22.00     9000.00
04763             -14.00     8800.00
04764             -14.00     8800.00
04765             -20.00     8400.00
04766             -26.00     8400.00
04767             -30.00     8400.00
04768             -24.00     8200.00
04769             -16.00     8000.00
04770             -14.00     7800.00
04771             -16.00     7600.00
04772             -22.00     7400.00
04773             -24.00     7200.00
04774             -24.00     7200.00
04775             -22.00     7200.00
04776             -18.00     6800.00
04777             -14.00     6600.00
04778             -16.00     6600.00
04779             -16.00     6400.00
04780             -20.00     6200.00
04781             -18.00     6000.00
04782             -16.00     5800.00
04783             -14.00     5600.00
04784             -10.00     5600.00
04785             -16.00     5400.00
04786             -18.00     5000.00
04787             -18.00     4800.00
04788             -18.00     4800.00
04789             -16.00     4600.00
04790             -12.00     4400.00
04791             -10.00     4200.00
04792             -10.00     4000.00
04793             -16.00     3800.00
04794             -16.00     3600.00
04795             -14.00     3400.00
04796             -10.00     3200.00
04797              -4.00     3000.00
04798              -8.00     2800.00
04799             -10.00     2800.00
04800             -12.00     2400.00
04801             -10.00     2200.00
04802             -10.00     2000.00
04803              -6.00     2000.00
04804              -6.00     1600.00
04805              -8.00     1600.00
04806              -8.00     1400.00
04807              -8.00     1200.00
04808              -2.00     1000.00
04809              -6.00      800.00
04810              -6.00      600.00
04811               0.00      400.00
04812               0.00      200.00
04813               0.00        0.00
04814              14.00        0.00
04815              30.00     -600.00
04816              14.00     -400.00
04817             -14.00     -600.00
04818             -10.00     -800.00
04819               8.00    -1000.00
04820              16.00    -1200.00
04821              58.00    -1200.00
04822             230.00    -1600.00
04823             176.00    -2200.00
04824            -254.00    -2200.00
04825            -254.00    -2400.00
04826             -52.00    -2400.00
04827             144.00    -2600.00
04828             246.00    -2400.00
04829             246.00    -3200.00
04830            -254.00    -3200.00
04831            -106.00    -3200.00
04832             246.00    -3800.00
04833             -10.00    -3200.00
04834              14.00    -4000.00
04835             -92.00    -4200.00
04836              40.00    -4000.00
04837             138.00    -4800.00
04838             -82.00    -4600.00
04839             -66.00    -5000.00
04840             -48.00    -4800.00
04841             122.00    -5200.00
04842              94.00    -5600.00
04843             -94.00    -5400.00
04844             -24.00    -6000.00
04845             -14.00    -5600.00
04846              86.00    -6200.00
04847              40.00    -6400.00
04848             -50.00    -6400.00
04849               6.00    -6800.00
04850              18.00    -6600.00
04851              44.00    -7000.00
04852             -28.00    -7200.00
04853               0.00    -7200.00
04854              34.00    -7600.00
04855              18.00    -7600.00
04856              26.00    -7800.00
04857             -28.00    -8000.00
04858              14.00    -8000.00
04859              42.00    -8400.00
04860              10.00    -8400.00
04861              -2.00    -8600.00
04862              10.00    -8400.00
04863              22.00    -8800.00
04864              22.00    -8800.00
04865              18.00    -9000.00
04866               0.00    -9200.00
04867              14.00    -9200.00
04868              26.00    -9400.00
04869              10.00    -9400.00
04870              16.00    -9600.00
04871              24.00    -9600.00
04872              10.00   -10000.00
04873              20.00    -9800.00
04874              10.00   -10000.00
04875              14.00   -10200.00
04876              38.00   -10200.00
04877              24.00   -10200.00
04878              14.00   -10400.00
04879              10.00   -10600.00
04880              12.00   -10600.00
04881              22.00   -10800.00
04882              30.00   -10800.00
04883              22.00   -11000.00
04884              18.00   -11000.00
04885              22.00   -11000.00
04886              14.00   -11200.00
04887              16.00   -11200.00
04888              22.00   -11200.00
04889              22.00   -11200.00
04890              30.00   -11400.00
04891              26.00   -11600.00
04892              10.00   -11400.00
04893              16.00   -11600.00
04894              20.00   -11600.00
04895              24.00   -11600.00
04896              30.00   -11600.00
04897              24.00   -11800.00
04898              16.00   -11800.00
04899              18.00   -11600.00
04900              18.00   -11800.00
04901              18.00   -12000.00
04902              22.00   -11800.00
04903              24.00   -11800.00
04904              26.00   -11800.00
04905              26.00   -11800.00
04906              16.00   -12000.00
04907               8.00   -11800.00
04908              18.00   -11800.00
04909              30.00   -11800.00
04910              32.00   -12000.00
04911              22.00   -12000.00
04912              14.00   -11800.00
04913               8.00   -11800.00
04914              20.00   -11800.00
04915              26.00   -11800.00
04916              32.00   -11800.00
04917              30.00   -11800.00
04918              16.00   -11600.00
04919               6.00   -11600.00
04920              14.00   -11800.00
04921              16.00   -11600.00
04922              28.00   -11600.00
04923              30.00   -11600.00
04924              20.00   -11600.00
04925              16.00   -11400.00
04926              20.00   -11600.00
04927              18.00   -11200.00
04928              22.00   -11200.00
04929              22.00   -11200.00
04930              22.00   -11200.00
04931              18.00   -11000.00
04932              16.00   -11000.00
04933              18.00   -11000.00
04934              24.00   -10800.00
04935              22.00   -10800.00
04936              22.00   -10800.00
04937              18.00   -10400.00
04938              22.00   -10400.00
04939              16.00   -10400.00
04940              10.00   -10400.00
04941              16.00   -10200.00
04942              30.00   -10000.00
04943              30.00   -10000.00
04944              14.00   -10000.00
04945               2.00    -9600.00
04946              16.00    -9600.00
04947              28.00    -9400.00
04948              24.00    -9400.00
04949              10.00    -9200.00
04950               8.00    -9000.00
04951              20.00    -9000.00
04952              20.00    -8800.00
04953              18.00    -8800.00
04954              14.00    -8600.00
04955              14.00    -8400.00
04956              14.00    -8400.00
04957              12.00    -8000.00
04958              14.00    -8000.00
04959              22.00    -7800.00
04960              16.00    -7800.00
04961              14.00    -7400.00
04962              10.00    -7400.00
04963              10.00    -7200.00
04964              14.00    -7000.00
04965              14.00    -7000.00
04966              14.00    -6800.00
04967              10.00    -6600.00
04968               8.00    -6800.00
04969               6.00    -6400.00
04970              14.00    -6200.00
04971              14.00    -6000.00
04972               6.00    -5800.00
04973               6.00    -5600.00
04974               8.00    -5400.00
04975               8.00    -5400.00
04976              10.00    -5200.00
04977               8.00    -4800.00
04978              10.00    -4800.00
04979               4.00    -4600.00
04980              -2.00    -4400.00
04981               2.00    -4200.00
04982              14.00    -4000.00
04983              10.00    -3800.00
04984               6.00    -3600.00
04985               0.00    -3400.00
04986              -2.00    -3200.00
04987               0.00    -3000.00
04988               0.00    -3000.00
04989               6.00    -2800.00
04990               8.00    -2600.00
04991               6.00    -2200.00
04992              -2.00    -2200.00
04993              -2.00    -2000.00
04994              -2.00    -1600.00
04995               4.00    -1600.00
04996               0.00    -1400.00
04997              -6.00    -1000.00
04998              -6.00     -800.00
04999               0.00     -800.00
05000               4.00     -600.00
