Unit:(mV)
                     CH1         CH2
Frequency              ? 260.713 kHz
00001               0.00    -3000.00
00002               6.00    -3000.00
00003               6.00    -2800.00
00004               2.00    -2600.00
00005               0.00    -2200.00
00006              -2.00    -2000.00
00007               2.00    -2000.00
00008               0.00    -1600.00
00009               0.00    -1400.00
00010               4.00    -1200.00
00011               0.00    -1000.00
00012               0.00     -800.00
00013               2.00     -600.00
00014              -2.00     -600.00
00015              -2.00     -200.00
00016               2.00        0.00
00017               0.00      200.00
00018               0.00      200.00
00019               4.00      400.00
00020              20.00      800.00
00021              24.00     1000.00
00022              -2.00     1000.00
00023             -18.00     1200.00
00024               0.00     1600.00
00025              14.00     1600.00
00026              62.00     1800.00
00027             246.00     2400.00
00028             166.00     2600.00
00029            -254.00     2600.00
00030            -254.00     2600.00
00031             -74.00     2800.00
00032             226.00     2800.00
00033             246.00     3400.00
00034             -78.00     3400.00
00035            -254.00     3400.00
00036             226.00     3800.00
00037             150.00     4000.00
00038             -98.00     4000.00
00039              96.00     4400.00
00040            -192.00     4400.00
00041             118.00     4800.00
00042              90.00     5000.00
00043            -210.00     5200.00
00044             -24.00     5400.00
00045              30.00     5600.00
00046              80.00     5800.00
00047             -42.00     5600.00
00048             -34.00     6200.00
00049             -58.00     6000.00
00050             -30.00     6400.00
00051             110.00     6800.00
00052            -106.00     6400.00
00053             -24.00     7000.00
00054              14.00     7200.00
00055             -24.00     7400.00
00056               6.00     7400.00
00057             -52.00     7600.00
00058             -30.00     7800.00
00059              14.00     8000.00
00060              18.00     8200.00
00061             -68.00     8000.00
00062             -18.00     8400.00
00063             -14.00     8800.00
00064             -18.00     8600.00
00065              -2.00     9000.00
00066             -32.00     9000.00
00067             -40.00     9000.00
00068              -8.00     9200.00
00069               0.00     9600.00
00070             -38.00     9400.00
00071              -8.00     9800.00
00072             -42.00     9800.00
00073             -26.00    10000.00
00074              -8.00    10200.00
00075             -24.00    10200.00
00076             -16.00    10400.00
00077             -18.00    10600.00
00078             -40.00    10600.00
00079             -32.00    10600.00
00080              -2.00    10800.00
00081             -18.00    10800.00
00082             -16.00    10800.00
00083             -30.00    11000.00
00084             -42.00    11200.00
00085             -26.00    11400.00
00086             -10.00    11400.00
00087             -18.00    11400.00
00088             -18.00    11800.00
00089             -26.00    11800.00
00090             -34.00    11800.00
00091             -22.00    11800.00
00092             -30.00    12000.00
00093             -26.00    11800.00
00094             -16.00    12000.00
00095             -22.00    12200.00
00096             -32.00    12200.00
00097             -30.00    12000.00
00098             -30.00    12200.00
00099             -30.00    12200.00
00100             -22.00    12400.00
00101             -26.00    12200.00
00102             -28.00    12400.00
00103             -24.00    12400.00
00104             -32.00    12400.00
00105             -32.00    12400.00
00106             -26.00    12400.00
00107             -26.00    12600.00
00108             -22.00    12400.00
00109             -24.00    12600.00
00110             -32.00    12600.00
00111             -32.00    12600.00
00112             -32.00    12600.00
00113             -34.00    12600.00
00114             -26.00    12800.00
00115             -18.00    12400.00
00116             -30.00    12400.00
00117             -32.00    12600.00
00118             -32.00    12400.00
00119             -32.00    12600.00
00120             -24.00    12400.00
00121             -24.00    12400.00
00122             -26.00    12400.00
00123             -26.00    12400.00
00124             -32.00    12400.00
00125             -38.00    12200.00
00126             -30.00    12400.00
00127             -22.00    12200.00
00128             -20.00    12200.00
00129             -24.00    12000.00
00130             -34.00    12200.00
00131             -34.00    12000.00
00132             -26.00    12000.00
00133             -26.00    12000.00
00134             -24.00    12000.00
00135             -22.00    11800.00
00136             -26.00    11800.00
00137             -26.00    11800.00
00138             -30.00    11600.00
00139             -32.00    11800.00
00140             -22.00    11400.00
00141             -20.00    11200.00
00142             -26.00    11400.00
00143             -26.00    11200.00
00144             -30.00    10800.00
00145             -30.00    10800.00
00146             -24.00    10800.00
00147             -24.00    10800.00
00148             -20.00    10600.00
00149             -18.00    10400.00
00150             -26.00    10400.00
00151             -30.00    10400.00
00152             -26.00    10000.00
00153             -24.00    10000.00
00154             -18.00     9800.00
00155             -18.00     9800.00
00156             -24.00     9600.00
00157             -24.00     9600.00
00158             -24.00     9200.00
00159             -22.00     9200.00
00160             -18.00     9200.00
00161             -16.00     9000.00
00162             -20.00     8800.00
00163             -24.00     8600.00
00164             -24.00     8400.00
00165             -24.00     8400.00
00166             -20.00     8200.00
00167             -18.00     8000.00
00168             -16.00     7800.00
00169             -18.00     7600.00
00170             -18.00     7600.00
00171             -22.00     7400.00
00172             -18.00     7200.00
00173             -22.00     6800.00
00174             -16.00     6800.00
00175             -16.00     6800.00
00176             -16.00     6600.00
00177             -18.00     6400.00
00178             -16.00     6000.00
00179             -16.00     6000.00
00180             -14.00     5800.00
00181             -14.00     5600.00
00182             -14.00     5600.00
00183             -18.00     5200.00
00184             -16.00     5000.00
00185             -16.00     5000.00
00186             -16.00     4600.00
00187             -10.00     4400.00
00188             -14.00     4200.00
00189             -10.00     4000.00
00190              -8.00     4000.00
00191             -14.00     3600.00
00192             -14.00     3600.00
00193             -10.00     3400.00
00194              -8.00     3200.00
00195              -8.00     2800.00
00196              -8.00     2800.00
00197             -10.00     2600.00
00198             -14.00     2400.00
00199             -12.00     2200.00
00200               0.00     2000.00
00201               0.00     1800.00
00202              -8.00     1600.00
00203             -12.00     1200.00
00204             -10.00     1200.00
00205              -6.00     1000.00
00206              -2.00      800.00
00207               2.00      600.00
00208               6.00      400.00
00209               0.00      200.00
00210              -8.00        0.00
00211              -6.00        0.00
00212              24.00     -400.00
00213              32.00     -600.00
00214              10.00     -600.00
00215             -16.00     -800.00
00216             -18.00    -1000.00
00217               0.00    -1400.00
00218              54.00    -1400.00
00219             210.00    -1600.00
00220             246.00    -2000.00
00221            -218.00    -2400.00
00222            -254.00    -2400.00
00223            -142.00    -2800.00
00224             138.00    -2800.00
00225             206.00    -2600.00
00226             246.00    -3000.00
00227            -244.00    -3600.00
00228            -254.00    -3200.00
00229             246.00    -3800.00
00230              34.00    -3600.00
00231               8.00    -4000.00
00232             -38.00    -4400.00
00233             -42.00    -4000.00
00234             144.00    -4800.00
00235             -34.00    -4800.00
00236             -78.00    -5000.00
00237             -42.00    -5200.00
00238              76.00    -5200.00
00239             118.00    -5600.00
00240             -80.00    -5400.00
00241             -22.00    -6200.00
00242             -18.00    -6000.00
00243              58.00    -6200.00
00244              82.00    -6800.00
00245             -50.00    -6400.00
00246              -6.00    -6800.00
00247              10.00    -6800.00
00248              38.00    -7200.00
00249             -10.00    -7200.00
00250              -6.00    -7200.00
00251              38.00    -7800.00
00252              22.00    -7400.00
00253              28.00    -8000.00
00254             -26.00    -8000.00
00255              -6.00    -8200.00
00256              46.00    -8400.00
00257              22.00    -8400.00
00258               6.00    -8800.00
00259               8.00    -8600.00
00260               8.00    -9000.00
00261              18.00    -9200.00
00262              16.00    -9200.00
00263               8.00    -9400.00
00264              16.00    -9400.00
00265              28.00    -9600.00
00266              14.00    -9600.00
00267              10.00   -10000.00
00268              18.00   -10000.00
00269               8.00   -10000.00
00270              22.00   -10200.00
00271              16.00   -10200.00
00272              14.00   -10400.00
00273              30.00   -10400.00
00274              24.00   -10400.00
00275              16.00   -10800.00
00276              16.00   -10800.00
00277               6.00   -10800.00
00278               8.00   -11000.00
00279              26.00   -11000.00
00280              32.00   -11200.00
00281              30.00   -11200.00
00282              20.00   -11200.00
00283               2.00   -11600.00
00284               2.00   -11600.00
00285              26.00   -11600.00
00286              30.00   -11600.00
00287              32.00   -11600.00
00288              24.00   -11600.00
00289              10.00   -11600.00
00290              14.00   -11800.00
00291              18.00   -11800.00
00292              16.00   -11800.00
00293              26.00   -12000.00
00294              38.00   -12000.00
00295              30.00   -12000.00
00296              12.00   -12000.00
00297               0.00   -12000.00
00298               6.00   -12000.00
00299              34.00   -12000.00
00300              40.00   -12000.00
00301              26.00   -12000.00
00302              14.00   -12200.00
00303               6.00   -12200.00
00304              16.00   -12000.00
00305              28.00   -12000.00
00306              28.00   -12200.00
00307              22.00   -12200.00
00308              18.00   -12200.00
00309              16.00   -12000.00
00310              14.00   -12000.00
00311              20.00   -12200.00
00312              22.00   -12000.00
00313              26.00   -12000.00
00314              22.00   -12000.00
00315              18.00   -12000.00
00316              16.00   -12000.00
00317              18.00   -12000.00
00318              16.00   -12000.00
00319              22.00   -11800.00
00320              22.00   -11800.00
00321              22.00   -11800.00
00322              22.00   -11800.00
00323              20.00   -11800.00
00324              18.00   -11600.00
00325              16.00   -11600.00
00326              22.00   -11600.00
00327              26.00   -11400.00
00328              18.00   -11200.00
00329              16.00   -11200.00
00330              14.00   -11200.00
00331              18.00   -11000.00
00332              22.00   -11000.00
00333              24.00   -10800.00
00334              20.00   -10800.00
00335              18.00   -10600.00
00336              14.00   -10600.00
00337              16.00   -10400.00
00338              16.00   -10400.00
00339              18.00   -10400.00
00340              22.00   -10200.00
00341              22.00   -10200.00
00342              18.00   -10000.00
00343              14.00    -9800.00
00344              12.00    -9600.00
00345              14.00    -9600.00
00346              18.00    -9400.00
00347              22.00    -9200.00
00348              18.00    -9200.00
00349              10.00    -9200.00
00350               8.00    -8800.00
00351              10.00    -8800.00
00352              18.00    -8600.00
00353              22.00    -8600.00
00354              16.00    -8400.00
00355              10.00    -8400.00
00356               6.00    -8000.00
00357               8.00    -7800.00
00358              16.00    -7800.00
00359              18.00    -7400.00
00360              16.00    -7400.00
00361              10.00    -7200.00
00362               6.00    -7200.00
00363               8.00    -7200.00
00364              10.00    -6800.00
00365              14.00    -6800.00
00366              10.00    -6400.00
00367              12.00    -6400.00
00368              10.00    -6200.00
00369               8.00    -6200.00
00370               2.00    -5800.00
00371               6.00    -5600.00
00372               8.00    -5400.00
00373              10.00    -5200.00
00374              12.00    -5000.00
00375               8.00    -5000.00
00376               6.00    -4800.00
00377               2.00    -4600.00
00378               0.00    -4400.00
00379               6.00    -4200.00
00380               8.00    -4000.00
00381               8.00    -3600.00
00382               2.00    -3600.00
00383              -2.00    -3200.00
00384              -2.00    -3200.00
00385               2.00    -3000.00
00386               8.00    -2800.00
00387               8.00    -2600.00
00388               6.00    -2400.00
00389               0.00    -2200.00
00390              -2.00    -2000.00
00391              -2.00    -2000.00
00392               2.00    -1600.00
00393               2.00    -1400.00
00394               2.00    -1000.00
00395               0.00    -1000.00
00396              -2.00     -800.00
00397               0.00     -600.00
00398              -2.00     -600.00
00399              -2.00     -200.00
00400               0.00        0.00
00401               2.00        0.00
00402               6.00      400.00
00403              10.00      400.00
00404              26.00      800.00
00405              14.00      800.00
00406             -12.00     1000.00
00407             -10.00     1200.00
00408               8.00     1600.00
00409              24.00     1600.00
00410             142.00     2000.00
00411             246.00     2600.00
00412            -102.00     2400.00
00413            -254.00     2600.00
00414            -254.00     2800.00
00415              48.00     2800.00
00416             246.00     3200.00
00417             246.00     3600.00
00418            -254.00     3200.00
00419            -254.00     3600.00
00420             246.00     4000.00
00421             -90.00     4000.00
00422              48.00     4400.00
00423             -22.00     4400.00
00424            -126.00     4400.00
00425             216.00     4800.00
00426            -112.00     5000.00
00427            -148.00     5400.00
00428              26.00     5400.00
00429              66.00     5600.00
00430              48.00     5600.00
00431             -78.00     6000.00
00432             -22.00     6200.00
00433             -94.00     6000.00
00434              84.00     6600.00
00435              26.00     6600.00
00436            -122.00     6800.00
00437              26.00     7200.00
00438             -22.00     6800.00
00439              14.00     7400.00
00440             -22.00     7400.00
00441             -56.00     7600.00
00442             -16.00     7800.00
00443              30.00     8000.00
00444             -22.00     8200.00
00445             -62.00     8200.00
00446               0.00     8400.00
00447             -26.00     8800.00
00448              -2.00     8800.00
00449             -18.00     9000.00
00450             -40.00     9000.00
00451             -34.00     9200.00
00452               8.00     9400.00
00453             -24.00     9600.00
00454             -26.00     9600.00
00455             -20.00     9800.00
00456             -50.00     9800.00
00457              -8.00    10000.00
00458             -12.00    10000.00
00459             -18.00    10000.00
00460             -22.00    10400.00
00461             -32.00    10600.00
00462             -46.00    10400.00
00463             -10.00    10600.00
00464              -4.00    10800.00
00465             -24.00    11000.00
00466             -24.00    10800.00
00467             -38.00    11200.00
00468             -34.00    11200.00
00469             -14.00    11400.00
00470             -20.00    11400.00
00471             -26.00    11400.00
00472             -16.00    11400.00
00473             -32.00    11800.00
00474             -30.00    11800.00
00475             -24.00    11800.00
00476             -32.00    12000.00
00477             -18.00    12000.00
00478             -16.00    12000.00
00479             -26.00    12000.00
00480             -32.00    12200.00
00481             -26.00    12200.00
00482             -30.00    12200.00
00483             -26.00    12400.00
00484             -24.00    12400.00
00485             -24.00    12400.00
00486             -24.00    12400.00
00487             -28.00    12400.00
00488             -38.00    12600.00
00489             -34.00    12400.00
00490             -30.00    12400.00
00491             -24.00    12600.00
00492             -18.00    12400.00
00493             -26.00    12800.00
00494             -36.00    12600.00
00495             -34.00    12400.00
00496             -30.00    12400.00
00497             -26.00    12400.00
00498             -22.00    12600.00
00499             -24.00    12600.00
00500             -26.00    12400.00
00501             -32.00    12600.00
00502             -38.00    12400.00
00503             -32.00    12400.00
00504             -24.00    12400.00
00505             -22.00    12600.00
00506             -22.00    12400.00
00507             -30.00    12400.00
00508             -38.00    12400.00
00509             -34.00    12400.00
00510             -26.00    12200.00
00511             -22.00    12200.00
00512             -22.00    12200.00
00513             -26.00    12200.00
00514             -34.00    12000.00
00515             -32.00    12200.00
00516             -26.00    12000.00
00517             -24.00    12000.00
00518             -22.00    11800.00
00519             -26.00    11800.00
00520             -30.00    11800.00
00521             -26.00    11600.00
00522             -30.00    11400.00
00523             -26.00    11400.00
00524             -24.00    11200.00
00525             -24.00    11400.00
00526             -26.00    11200.00
00527             -26.00    11200.00
00528             -26.00    10800.00
00529             -26.00    10800.00
00530             -22.00    10600.00
00531             -18.00    10600.00
00532             -22.00    10600.00
00533             -24.00    10400.00
00534             -26.00    10200.00
00535             -26.00    10200.00
00536             -24.00    10000.00
00537             -18.00    10000.00
00538             -16.00     9800.00
00539             -18.00     9600.00
00540             -24.00     9600.00
00541             -26.00     9600.00
00542             -26.00     9200.00
00543             -22.00     9200.00
00544             -16.00     9000.00
00545             -18.00     8800.00
00546             -22.00     8800.00
00547             -24.00     8600.00
00548             -22.00     8400.00
00549             -22.00     8200.00
00550             -16.00     8200.00
00551             -14.00     8000.00
00552             -16.00     8000.00
00553             -16.00     7600.00
00554             -22.00     7600.00
00555             -26.00     7400.00
00556             -22.00     7200.00
00557             -20.00     7000.00
00558             -14.00     6800.00
00559             -14.00     6600.00
00560             -18.00     6600.00
00561             -22.00     6400.00
00562             -20.00     6000.00
00563             -14.00     5800.00
00564             -14.00     5600.00
00565             -12.00     5600.00
00566             -14.00     5400.00
00567             -16.00     5200.00
00568             -20.00     5000.00
00569             -18.00     5000.00
00570             -16.00     4800.00
00571             -10.00     4400.00
00572             -10.00     4200.00
00573             -10.00     4200.00
00574             -16.00     4000.00
00575             -14.00     3600.00
00576             -14.00     3600.00
00577             -10.00     3200.00
00578              -8.00     3200.00
00579              -8.00     2800.00
00580             -10.00     2800.00
00581             -12.00     2400.00
00582             -10.00     2400.00
00583             -10.00     2000.00
00584              -2.00     2000.00
00585              -2.00     1600.00
00586              -6.00     1600.00
00587             -10.00     1200.00
00588              -8.00     1200.00
00589              -8.00     1000.00
00590              -8.00      800.00
00591              -6.00      800.00
00592               0.00      400.00
00593               6.00      200.00
00594               6.00        0.00
00595              10.00     -200.00
00596              24.00     -400.00
00597               8.00     -600.00
00598              -6.00     -800.00
00599              -6.00    -1000.00
00600               6.00    -1200.00
00601              10.00    -1200.00
00602              94.00    -1400.00
00603             246.00    -1800.00
00604              90.00    -2400.00
00605            -254.00    -2400.00
00606            -254.00    -2600.00
00607              38.00    -2600.00
00608             160.00    -2400.00
00609             246.00    -2800.00
00610             144.00    -3200.00
00611            -254.00    -3200.00
00612              14.00    -3600.00
00613             230.00    -3800.00
00614             -32.00    -3600.00
00615              38.00    -4400.00
00616             -80.00    -4200.00
00617              66.00    -4400.00
00618              90.00    -4800.00
00619            -102.00    -4800.00
00620             -64.00    -5200.00
00621             -16.00    -5000.00
00622             158.00    -5400.00
00623              30.00    -5600.00
00624             -82.00    -5800.00
00625             -10.00    -6400.00
00626             -14.00    -5800.00
00627             102.00    -6600.00
00628              10.00    -6400.00
00629             -46.00    -6400.00
00630              14.00    -7000.00
00631              30.00    -6800.00
00632              32.00    -7200.00
00633             -32.00    -7200.00
00634              14.00    -7600.00
00635              18.00    -7600.00
00636              24.00    -7600.00
00637              18.00    -8000.00
00638             -26.00    -8000.00
00639              34.00    -8400.00
00640              36.00    -8400.00
00641              -2.00    -8600.00
00642              -6.00    -8800.00
00643              10.00    -8800.00
00644              30.00    -9200.00
00645              32.00    -9200.00
00646              10.00    -9200.00
00647              -2.00    -9400.00
00648              14.00    -9600.00
00649              24.00    -9600.00
00650              16.00    -9600.00
00651              28.00   -10000.00
00652              22.00   -10000.00
00653               6.00   -10200.00
00654               8.00   -10200.00
00655               2.00   -10400.00
00656              26.00   -10400.00
00657              42.00   -10400.00
00658              16.00   -10600.00
00659               2.00   -10800.00
00660               6.00   -10800.00
00661              10.00   -10800.00
00662              32.00   -11000.00
00663              38.00   -11000.00
00664              22.00   -11200.00
00665              10.00   -11200.00
00666              14.00   -11200.00
00667              18.00   -11400.00
00668              28.00   -11600.00
00669              24.00   -11600.00
00670              12.00   -11600.00
00671              26.00   -11600.00
00672              24.00   -11800.00
00673              16.00   -11600.00
00674              14.00   -12000.00
00675              10.00   -11800.00
00676              22.00   -11800.00
00677              40.00   -12000.00
00678              38.00   -12000.00
00679              18.00   -12000.00
00680               0.00   -12000.00
00681              -2.00   -12200.00
00682              22.00   -12000.00
00683              42.00   -12000.00
00684              36.00   -12000.00
00685              18.00   -12000.00
00686               8.00   -12000.00
00687               8.00   -12000.00
00688              18.00   -12000.00
00689              24.00   -12200.00
00690              26.00   -12200.00
00691              28.00   -12000.00
00692              22.00   -12200.00
00693              16.00   -12200.00
00694              10.00   -12000.00
00695              18.00   -12000.00
00696              22.00   -12000.00
00697              26.00   -12000.00
00698              26.00   -12000.00
00699              18.00   -11800.00
00700              16.00   -12000.00
00701              16.00   -12000.00
00702              18.00   -12000.00
00703              26.00   -11800.00
00704              24.00   -11800.00
00705              18.00   -11800.00
00706              16.00   -11600.00
00707              18.00   -11600.00
00708              18.00   -11600.00
00709              16.00   -11400.00
00710              22.00   -11400.00
00711              22.00   -11200.00
00712              24.00   -11200.00
00713              18.00   -11200.00
00714              16.00   -11200.00
00715              16.00   -11000.00
00716              22.00   -10800.00
00717              22.00   -10800.00
00718              22.00   -10800.00
00719              18.00   -10600.00
00720              16.00   -10400.00
00721              16.00   -10400.00
00722              16.00   -10400.00
00723              16.00   -10200.00
00724              22.00   -10200.00
00725              18.00   -10000.00
00726              18.00   -10000.00
00727              18.00    -9800.00
00728              14.00    -9600.00
00729              16.00    -9600.00
00730              16.00    -9600.00
00731              18.00    -9200.00
00732              18.00    -9200.00
00733              14.00    -9200.00
00734              10.00    -8800.00
00735              16.00    -8800.00
00736              16.00    -8600.00
00737              22.00    -8400.00
00738              16.00    -8400.00
00739              10.00    -8200.00
00740              12.00    -8000.00
00741              14.00    -8000.00
00742              18.00    -7600.00
00743              18.00    -7400.00
00744              14.00    -7400.00
00745               8.00    -7200.00
00746               6.00    -7000.00
00747               8.00    -6800.00
00748              14.00    -6800.00
00749              18.00    -6800.00
00750              16.00    -6400.00
00751               6.00    -6400.00
00752               0.00    -6200.00
00753               4.00    -6000.00
00754               8.00    -5600.00
00755              14.00    -5600.00
00756              10.00    -5400.00
00757               2.00    -5400.00
00758               2.00    -5200.00
00759               8.00    -4800.00
00760              10.00    -4600.00
00761              10.00    -4600.00
00762               2.00    -4400.00
00763              -2.00    -4000.00
00764               2.00    -4000.00
00765              14.00    -3800.00
00766               8.00    -3600.00
00767              -6.00    -3200.00
00768               0.00    -3200.00
00769             -14.00    -3000.00
00770              18.00    -2800.00
00771             -32.00    -2400.00
00772              24.00    -2400.00
00773              32.00    -2000.00
00774              14.00    -2200.00
00775              -6.00    -1600.00
00776             -26.00    -1600.00
00777               4.00    -1400.00
00778              -2.00    -1000.00
00779             -26.00    -1000.00
00780             -12.00     -600.00
00781              24.00     -600.00
00782              24.00     -400.00
00783               2.00        0.00
00784             -10.00      200.00
00785              -6.00      200.00
00786              10.00      400.00
00787              10.00      800.00
00788              22.00      800.00
00789               8.00     1200.00
00790             -26.00     1000.00
00791             -18.00     1400.00
00792              16.00     1600.00
00793              60.00     1800.00
00794             246.00     2000.00
00795             216.00     2400.00
00796            -254.00     2400.00
00797            -254.00     2600.00
00798            -126.00     2800.00
00799             160.00     2800.00
00800             246.00     3400.00
00801              70.00     3400.00
00802            -254.00     3400.00
00803             158.00     4000.00
00804             224.00     4000.00
00805            -120.00     4000.00
00806             106.00     4400.00
00807            -178.00     4400.00
00808              62.00     4600.00
00809             128.00     4800.00
00810            -216.00     5200.00
00811             -44.00     5400.00
00812              40.00     5600.00
00813              90.00     5800.00
00814             -16.00     5800.00
00815             -42.00     6400.00
00816             -50.00     6000.00
00817             -50.00     6400.00
00818             120.00     6800.00
00819             -90.00     6600.00
00820             -54.00     7000.00
00821              14.00     7200.00
00822             -24.00     7200.00
00823              24.00     7400.00
00824             -42.00     7600.00
00825             -32.00     7800.00
00826               2.00     7800.00
00827              16.00     8200.00
00828             -66.00     8000.00
00829             -32.00     8400.00
00830              -6.00     8800.00
00831             -20.00     8400.00
00832               0.00     8800.00
00833             -34.00     9000.00
00834             -40.00     9200.00
00835             -10.00     9400.00
00836               6.00     9400.00
00837             -36.00     9600.00
00838             -10.00     9600.00
00839             -40.00     9800.00
00840             -34.00     9800.00
00841              -8.00    10000.00
00842             -22.00    10000.00
00843             -16.00    10400.00
00844             -14.00    10400.00
00845             -34.00    10400.00
00846             -46.00    10600.00
00847              -8.00    10800.00
00848             -16.00    10800.00
00849             -14.00    10800.00
00850             -26.00    11200.00
00851             -50.00    11200.00
00852             -32.00    11400.00
00853              -6.00    11200.00
00854             -18.00    11400.00
00855             -22.00    11400.00
00856             -24.00    11800.00
00857             -32.00    11800.00
00858             -18.00    11800.00
00859             -26.00    11800.00
00860             -34.00    12000.00
00861             -16.00    12000.00
00862             -18.00    12000.00
00863             -32.00    12000.00
00864             -28.00    12200.00
00865             -32.00    12200.00
00866             -34.00    12200.00
00867             -16.00    12200.00
00868             -16.00    12400.00
00869             -20.00    12400.00
00870             -26.00    12400.00
00871             -38.00    12400.00
00872             -34.00    12400.00
00873             -24.00    12400.00
00874             -26.00    12600.00
00875             -22.00    12600.00
00876             -16.00    12400.00
00877             -30.00    12600.00
00878             -38.00    12600.00
00879             -34.00    12400.00
00880             -26.00    12600.00
00881             -18.00    12400.00
00882             -16.00    12600.00
00883             -30.00    12400.00
00884             -34.00    12600.00
00885             -36.00    12400.00
00886             -34.00    12400.00
00887             -22.00    12600.00
00888             -18.00    12400.00
00889             -24.00    12400.00
00890             -28.00    12400.00
00891             -36.00    12400.00
00892             -34.00    12400.00
00893             -26.00    12200.00
00894             -24.00    12400.00
00895             -26.00    12200.00
00896             -28.00    12200.00
00897             -30.00    12200.00
00898             -32.00    12200.00
00899             -26.00    12000.00
00900             -26.00    12000.00
00901             -26.00    12000.00
00902             -26.00    11800.00
00903             -26.00    12000.00
00904             -26.00    11800.00
00905             -26.00    11600.00
00906             -26.00    11600.00
00907             -26.00    11400.00
00908             -26.00    11200.00
00909             -24.00    11200.00
00910             -26.00    11200.00
00911             -26.00    11000.00
00912             -26.00    10800.00
00913             -26.00    10800.00
00914             -24.00    10600.00
00915             -18.00    10600.00
00916             -22.00    10400.00
00917             -26.00    10400.00
00918             -26.00    10400.00
00919             -26.00    10200.00
00920             -22.00    10000.00
00921             -18.00    10000.00
00922             -16.00     9800.00
00923             -22.00     9600.00
00924             -26.00     9600.00
00925             -24.00     9600.00
00926             -20.00     9200.00
00927             -18.00     9200.00
00928             -16.00     9000.00
00929             -18.00     8800.00
00930             -24.00     8600.00
00931             -22.00     8600.00
00932             -22.00     8400.00
00933             -16.00     8200.00
00934             -14.00     8000.00
00935             -16.00     8000.00
00936             -18.00     7800.00
00937             -18.00     7600.00
00938             -22.00     7600.00
00939             -20.00     7200.00
00940             -16.00     7200.00
00941             -14.00     6800.00
00942             -16.00     6800.00
00943             -16.00     6600.00
00944             -18.00     6400.00
00945             -16.00     6400.00
00946             -14.00     6000.00
00947             -16.00     5800.00
00948             -14.00     5600.00
00949             -14.00     5600.00
00950             -16.00     5400.00
00951             -16.00     5200.00
00952             -18.00     4800.00
00953             -14.00     4800.00
00954             -14.00     4400.00
00955             -10.00     4200.00
00956             -12.00     4200.00
00957             -12.00     4000.00
00958             -14.00     4000.00
00959             -14.00     3600.00
00960             -14.00     3400.00
00961             -10.00     3200.00
00962             -10.00     3200.00
00963             -10.00     2800.00
00964             -14.00     2800.00
00965             -10.00     2400.00
00966             -10.00     2200.00
00967              -8.00     2000.00
00968              -6.00     1800.00
00969              -6.00     1600.00
00970             -10.00     1600.00
00971              -8.00     1200.00
00972             -10.00     1000.00
00973              -8.00      800.00
00974              -2.00      800.00
00975              -2.00      400.00
00976               0.00      400.00
00977               0.00      200.00
00978               0.00        0.00
00979              26.00        0.00
00980              24.00     -400.00
00981              -6.00     -800.00
00982             -16.00     -800.00
00983               0.00    -1000.00
00984              16.00    -1200.00
00985              34.00    -1400.00
00986             162.00    -1600.00
00987             246.00    -2000.00
00988            -138.00    -2400.00
00989            -254.00    -2400.00
00990            -194.00    -2600.00
00991             118.00    -2600.00
00992             178.00    -2600.00
00993             246.00    -3000.00
00994            -162.00    -3400.00
00995            -254.00    -3000.00
00996             230.00    -3800.00
00997              72.00    -3600.00
00998             -10.00    -3800.00
00999             -16.00    -4400.00
01000             -56.00    -4200.00
01001             146.00    -4800.00
01002             -10.00    -4600.00
01003             -88.00    -5000.00
01004             -50.00    -5200.00
01005              54.00    -5200.00
01006             146.00    -5600.00
01007             -62.00    -5600.00
01008             -32.00    -6000.00
01009             -20.00    -6000.00
01010              32.00    -6000.00
01011              90.00    -6600.00
01012             -46.00    -6400.00
01013             -10.00    -6800.00
01014              10.00    -6800.00
01015              40.00    -7000.00
01016              -2.00    -7200.00
01017             -16.00    -7400.00
01018              34.00    -7600.00
01019              16.00    -7600.00
01020              32.00    -7800.00
01021             -10.00    -8000.00
01022             -10.00    -8400.00
01023              42.00    -8600.00
01024              16.00    -8400.00
01025              -2.00    -8800.00
01026               8.00    -8800.00
01027              16.00    -9000.00
01028              22.00    -9200.00
01029              22.00    -9200.00
01030               2.00    -9400.00
01031               8.00    -9400.00
01032              22.00    -9600.00
01033              14.00    -9600.00
01034              14.00    -9800.00
01035              24.00   -10000.00
01036               8.00   -10000.00
01037              16.00   -10200.00
01038              14.00   -10200.00
01039               8.00   -10400.00
01040              32.00   -10400.00
01041              32.00   -10800.00
01042              14.00   -10600.00
01043              10.00   -10800.00
01044               8.00   -10800.00
01045              14.00   -11000.00
01046              28.00   -11000.00
01047              26.00   -11000.00
01048              16.00   -11200.00
01049              22.00   -11200.00
01050              16.00   -11200.00
01051              14.00   -11600.00
01052              24.00   -11600.00
01053              22.00   -11600.00
01054              24.00   -11600.00
01055              30.00   -11600.00
01056              14.00   -11600.00
01057              16.00   -11800.00
01058              22.00   -11800.00
01059              22.00   -11800.00
01060              24.00   -11800.00
01061              24.00   -12000.00
01062              22.00   -12000.00
01063              18.00   -12000.00
01064              18.00   -12200.00
01065              16.00   -12000.00
01066              22.00   -12000.00
01067              30.00   -12000.00
01068              26.00   -12000.00
01069              22.00   -12200.00
01070              18.00   -12000.00
01071              16.00   -12200.00
01072              22.00   -12400.00
01073              24.00   -12000.00
01074              26.00   -12000.00
01075              26.00   -12000.00
01076              18.00   -12400.00
01077              16.00   -12000.00
01078              18.00   -12000.00
01079              22.00   -12000.00
01080              22.00   -12000.00
01081              30.00   -12000.00
01082              22.00   -12000.00
01083              14.00   -12000.00
01084              10.00   -11800.00
01085              16.00   -12000.00
01086              30.00   -12000.00
01087              32.00   -11800.00
01088              22.00   -11800.00
01089               8.00   -11800.00
01090              14.00   -11800.00
01091              18.00   -11600.00
01092              24.00   -11600.00
01093              22.00   -11400.00
01094              22.00   -11600.00
01095              18.00   -11200.00
01096              16.00   -11400.00
01097              14.00   -11200.00
01098              16.00   -11000.00
01099              18.00   -11000.00
01100              22.00   -10800.00
01101              22.00   -10800.00
01102              16.00   -10800.00
01103              14.00   -10800.00
01104              14.00   -10400.00
01105              16.00   -10400.00
01106              22.00   -10400.00
01107              22.00   -10200.00
01108              18.00   -10000.00
01109              14.00   -10000.00
01110              16.00    -9800.00
01111              18.00    -9600.00
01112              16.00    -9600.00
01113              16.00    -9400.00
01114              16.00    -9400.00
01115              16.00    -9200.00
01116              18.00    -9000.00
01117              14.00    -9000.00
01118              10.00    -8800.00
01119              14.00    -8800.00
01120              18.00    -8600.00
01121              22.00    -8400.00
01122              16.00    -8400.00
01123              12.00    -8000.00
01124               6.00    -8000.00
01125               8.00    -7800.00
01126              16.00    -7400.00
01127              18.00    -7400.00
01128              18.00    -7200.00
01129              10.00    -7000.00
01130               6.00    -7200.00
01131               6.00    -6800.00
01132              14.00    -6800.00
01133              18.00    -6400.00
01134              16.00    -6400.00
01135              10.00    -6200.00
01136               2.00    -6000.00
01137               0.00    -5600.00
01138               6.00    -5600.00
01139              10.00    -5400.00
01140              16.00    -5400.00
01141              10.00    -5200.00
01142               6.00    -4800.00
01143               0.00    -4800.00
01144               0.00    -4600.00
01145               6.00    -4400.00
01146               8.00    -4000.00
01147               6.00    -4000.00
01148               0.00    -3800.00
01149               0.00    -3800.00
01150               0.00    -3600.00
01151               2.00    -3200.00
01152               4.00    -3000.00
01153               2.00    -2800.00
01154               0.00    -2800.00
01155               2.00    -2400.00
01156               0.00    -2200.00
01157              -2.00    -2000.00
01158              -4.00    -2000.00
01159               0.00    -1600.00
01160               6.00    -1400.00
01161               6.00    -1000.00
01162              -2.00    -1000.00
01163              -2.00     -800.00
01164              -6.00     -600.00
01165              -2.00     -400.00
01166              -2.00     -400.00
01167              -2.00        0.00
01168              -2.00        0.00
01169               2.00      400.00
01170               6.00      400.00
01171              28.00      800.00
01172              18.00     1000.00
01173             -10.00     1000.00
01174             -20.00     1200.00
01175               0.00     1400.00
01176              22.00     1600.00
01177             118.00     1800.00
01178             246.00     2400.00
01179             -26.00     2400.00
01180            -254.00     2600.00
01181            -254.00     2600.00
01182              16.00     2800.00
01183             246.00     3200.00
01184             246.00     3400.00
01185            -254.00     3400.00
01186            -254.00     3600.00
01187             246.00     4000.00
01188             -38.00     4000.00
01189               6.00     4200.00
01190              12.00     4600.00
01191            -160.00     4600.00
01192             216.00     4800.00
01193             -56.00     5000.00
01194            -174.00     5400.00
01195              12.00     5400.00
01196              50.00     5800.00
01197              64.00     5600.00
01198             -66.00     5800.00
01199             -16.00     6400.00
01200             -90.00     6000.00
01201              56.00     6600.00
01202              58.00     6800.00
01203            -122.00     6800.00
01204              22.00     7200.00
01205             -18.00     7200.00
01206               0.00     7400.00
01207             -14.00     7400.00
01208             -54.00     7600.00
01209             -14.00     7600.00
01210              30.00     8000.00
01211             -10.00     8200.00
01212             -68.00     8200.00
01213              -4.00     8600.00
01214             -24.00     8400.00
01215              -6.00     8800.00
01216             -14.00     9000.00
01217             -38.00     9200.00
01218             -34.00     9200.00
01219               0.00     9400.00
01220             -16.00     9600.00
01221             -26.00     9600.00
01222             -10.00     9800.00
01223             -50.00    10000.00
01224             -16.00    10000.00
01225             -14.00    10000.00
01226             -16.00    10200.00
01227             -16.00    10200.00
01228             -30.00    10400.00
01229             -48.00    10600.00
01230             -22.00    10600.00
01231              -2.00    10800.00
01232             -18.00    10800.00
01233             -22.00    10800.00
01234             -40.00    11200.00
01235             -40.00    11200.00
01236             -18.00    11400.00
01237             -16.00    11400.00
01238             -24.00    11400.00
01239             -16.00    11600.00
01240             -28.00    11800.00
01241             -30.00    11800.00
01242             -22.00    11800.00
01243             -32.00    11800.00
01244             -26.00    12000.00
01245             -14.00    12000.00
01246             -22.00    12000.00
01247             -30.00    12000.00
01248             -26.00    12200.00
01249             -32.00    12200.00
01250             -26.00    12400.00
01251             -16.00    12200.00
01252             -24.00    12400.00
01253             -22.00    12400.00
01254             -28.00    12200.00
01255             -34.00    12600.00
01256             -30.00    12400.00
01257             -24.00    12400.00
01258             -24.00    12400.00
01259             -20.00    12600.00
01260             -24.00    12600.00
01261             -32.00    12600.00
01262             -30.00    12400.00
01263             -28.00    12800.00
01264             -26.00    12400.00
01265             -22.00    12600.00
01266             -22.00    12600.00
01267             -26.00    12600.00
01268             -28.00    12600.00
01269             -32.00    12600.00
01270             -30.00    12400.00
01271             -24.00    12400.00
01272             -22.00    12400.00
01273             -26.00    12400.00
01274             -32.00    12400.00
01275             -34.00    12400.00
01276             -32.00    12200.00
01277             -26.00    12200.00
01278             -24.00    12200.00
01279             -24.00    12400.00
01280             -30.00    12200.00
01281             -32.00    12000.00
01282             -32.00    12000.00
01283             -28.00    12000.00
01284             -24.00    12000.00
01285             -22.00    11800.00
01286             -26.00    12000.00
01287             -32.00    11800.00
01288             -32.00    11600.00
01289             -30.00    11400.00
01290             -26.00    11800.00
01291             -22.00    11400.00
01292             -24.00    11200.00
01293             -24.00    11200.00
01294             -28.00    11200.00
01295             -30.00    11000.00
01296             -30.00    10800.00
01297             -24.00    10800.00
01298             -22.00    10600.00
01299             -18.00    10600.00
01300             -24.00    10400.00
01301             -26.00    10400.00
01302             -26.00    10200.00
01303             -26.00    10000.00
01304             -24.00    10000.00
01305             -18.00     9800.00
01306             -18.00     9800.00
01307             -24.00     9600.00
01308             -26.00     9600.00
01309             -26.00     9200.00
01310             -22.00     9200.00
01311             -16.00     9000.00
01312             -18.00     9000.00
01313             -16.00     8800.00
01314             -22.00     8600.00
01315             -24.00     8400.00
01316             -22.00     8400.00
01317             -18.00     8200.00
01318             -16.00     8000.00
01319             -14.00     8000.00
01320             -22.00     7600.00
01321             -18.00     7400.00
01322             -22.00     7400.00
01323             -18.00     7200.00
01324             -18.00     7000.00
01325             -16.00     6800.00
01326             -16.00     6600.00
01327             -16.00     6600.00
01328             -16.00     6400.00
01329             -16.00     6000.00
01330             -16.00     6000.00
01331             -14.00     5600.00
01332             -10.00     5600.00
01333             -14.00     5400.00
01334             -16.00     5200.00
01335             -16.00     5000.00
01336             -16.00     4800.00
01337             -14.00     4600.00
01338              -8.00     4400.00
01339             -10.00     4200.00
01340             -10.00     4200.00
01341             -14.00     4000.00
01342             -16.00     3800.00
01343             -14.00     3400.00
01344             -10.00     3400.00
01345             -10.00     3200.00
01346              -8.00     2800.00
01347              -8.00     2800.00
01348             -12.00     2600.00
01349             -12.00     2600.00
01350              -8.00     2000.00
01351              -6.00     2000.00
01352              -2.00     1800.00
01353              -6.00     1600.00
01354             -10.00     1200.00
01355             -10.00     1200.00
01356             -10.00     1000.00
01357              -8.00      600.00
01358              -6.00      600.00
01359              -2.00      400.00
01360               0.00      200.00
01361               6.00        0.00
01362              14.00        0.00
01363              30.00     -400.00
01364               2.00     -600.00
01365             -24.00     -600.00
01366             -10.00     -800.00
01367              14.00    -1200.00
01368              26.00    -1400.00
01369              74.00    -1400.00
01370             246.00    -1800.00
01371             136.00    -2200.00
01372            -254.00    -2400.00
01373            -254.00    -2400.00
01374             -10.00    -2600.00
01375             138.00    -2800.00
01376             246.00    -2600.00
01377             224.00    -3200.00
01378            -254.00    -3200.00
01379             -56.00    -3400.00
01380             246.00    -4000.00
01381             -38.00    -3600.00
01382              30.00    -4200.00
01383             -74.00    -4200.00
01384              46.00    -4400.00
01385             120.00    -4800.00
01386             -90.00    -4800.00
01387             -70.00    -5200.00
01388             -32.00    -5200.00
01389             138.00    -5200.00
01390              62.00    -5600.00
01391             -80.00    -5600.00
01392              -8.00    -6200.00
01393             -24.00    -6000.00
01394              94.00    -6400.00
01395              32.00    -6400.00
01396             -46.00    -6400.00
01397              12.00    -6800.00
01398              24.00    -6800.00
01399              34.00    -7200.00
01400             -26.00    -7200.00
01401              10.00    -7600.00
01402              22.00    -7600.00
01403              24.00    -7600.00
01404              24.00    -8000.00
01405             -26.00    -8000.00
01406              22.00    -8400.00
01407              38.00    -8400.00
01408               0.00    -8600.00
01409               2.00    -8800.00
01410              14.00    -8800.00
01411              22.00    -9000.00
01412              26.00    -9200.00
01413              14.00    -9200.00
01414               2.00    -9400.00
01415              20.00    -9400.00
01416              24.00    -9600.00
01417              10.00    -9800.00
01418              16.00   -10000.00
01419              16.00   -10000.00
01420              14.00   -10000.00
01421              22.00   -10200.00
01422               6.00   -10400.00
01423              14.00   -10200.00
01424              32.00   -10400.00
01425              22.00   -10600.00
01426              14.00   -10800.00
01427              10.00   -10800.00
01428              14.00   -11000.00
01429              22.00   -11000.00
01430              30.00   -11000.00
01431              22.00   -11200.00
01432              22.00   -11200.00
01433              22.00   -11200.00
01434              16.00   -11400.00
01435              16.00   -11600.00
01436              22.00   -11600.00
01437              22.00   -11600.00
01438              30.00   -11800.00
01439              24.00   -11600.00
01440              14.00   -11800.00
01441              16.00   -11800.00
01442              18.00   -11800.00
01443              24.00   -12000.00
01444              30.00   -12000.00
01445              24.00   -12000.00
01446              16.00   -12000.00
01447              18.00   -12000.00
01448              18.00   -12200.00
01449              18.00   -12000.00
01450              26.00   -12000.00
01451              30.00   -12000.00
01452              30.00   -12200.00
01453              16.00   -12000.00
01454              12.00   -12000.00
01455              22.00   -12000.00
01456              30.00   -12000.00
01457              26.00   -12000.00
01458              22.00   -12200.00
01459              18.00   -12000.00
01460              20.00   -12000.00
01461              24.00   -12000.00
01462              24.00   -12000.00
01463              22.00   -12200.00
01464              18.00   -12000.00
01465              16.00   -12000.00
01466              22.00   -12000.00
01467              30.00   -12000.00
01468              22.00   -12000.00
01469              16.00   -12000.00
01470              22.00   -11800.00
01471              22.00   -11800.00
01472              22.00   -11800.00
01473              20.00   -11600.00
01474              22.00   -11600.00
01475              16.00   -11600.00
01476              14.00   -11400.00
01477              10.00   -11600.00
01478              24.00   -11400.00
01479              36.00   -11200.00
01480              30.00   -11200.00
01481               8.00   -11200.00
01482               0.00   -11000.00
01483              14.00   -11000.00
01484              30.00   -10800.00
01485              32.00   -10800.00
01486              16.00   -10800.00
01487               6.00   -10600.00
01488              10.00   -10400.00
01489              22.00   -10400.00
01490              24.00   -10200.00
01491              22.00   -10000.00
01492              16.00   -10000.00
01493              10.00    -9800.00
01494               8.00    -9800.00
01495               8.00    -9600.00
01496              16.00    -9400.00
01497              22.00    -9400.00
01498              22.00    -9400.00
01499              16.00    -9200.00
01500              10.00    -9200.00
01501              10.00    -8800.00
01502              10.00    -8600.00
01503              16.00    -8800.00
01504              16.00    -8400.00
01505              18.00    -8400.00
01506              14.00    -8200.00
01507               8.00    -8000.00
01508              10.00    -7800.00
01509              16.00    -7800.00
01510              22.00    -7400.00
01511              16.00    -7400.00
01512              10.00    -7200.00
01513               6.00    -7200.00
01514               8.00    -7000.00
01515              14.00    -6800.00
01516              16.00    -6800.00
01517              14.00    -6400.00
01518              10.00    -6200.00
01519               8.00    -6200.00
01520              10.00    -6000.00
01521               8.00    -5800.00
01522               8.00    -5400.00
01523              10.00    -5400.00
01524               8.00    -5200.00
01525               8.00    -5000.00
01526               8.00    -4800.00
01527               6.00    -4600.00
01528               6.00    -4400.00
01529               2.00    -4400.00
01530               6.00    -4000.00
01531               8.00    -3800.00
01532               6.00    -3600.00
01533               0.00    -3600.00
01534               0.00    -3200.00
01535               0.00    -3200.00
01536               2.00    -3000.00
01537               8.00    -2800.00
01538               8.00    -2600.00
01539               2.00    -2200.00
01540              -2.00    -2000.00
01541              -6.00    -2200.00
01542              -4.00    -1800.00
01543               0.00    -1600.00
01544               2.00    -1400.00
01545               0.00    -1000.00
01546               0.00     -800.00
01547              -6.00     -800.00
01548              -8.00     -400.00
01549               0.00     -400.00
01550               0.00     -200.00
01551               2.00      200.00
01552               2.00      200.00
01553               0.00      400.00
01554              14.00      600.00
01555              30.00      800.00
01556               6.00      800.00
01557             -16.00     1200.00
01558             -10.00     1200.00
01559               8.00     1600.00
01560              40.00     1600.00
01561             234.00     2000.00
01562             246.00     2400.00
01563            -254.00     2600.00
01564            -254.00     2600.00
01565            -162.00     2600.00
01566             140.00     3000.00
01567             246.00     3400.00
01568             202.00     3400.00
01569            -254.00     3200.00
01570              44.00     4000.00
01571             246.00     4000.00
01572            -138.00     4000.00
01573             106.00     4400.00
01574            -144.00     4400.00
01575              16.00     4600.00
01576             178.00     4800.00
01577            -194.00     5000.00
01578             -70.00     5400.00
01579              26.00     5600.00
01580              80.00     5800.00
01581               0.00     5800.00
01582             -52.00     6000.00
01583             -34.00     6000.00
01584             -70.00     6400.00
01585             120.00     6800.00
01586             -58.00     6600.00
01587             -64.00     6800.00
01588              26.00     7200.00
01589             -30.00     7200.00
01590              14.00     7600.00
01591             -46.00     7600.00
01592             -34.00     7800.00
01593               6.00     8000.00
01594              30.00     8000.00
01595             -50.00     8200.00
01596             -40.00     8200.00
01597              -2.00     8600.00
01598             -22.00     8600.00
01599               0.00     9000.00
01600             -30.00     9000.00
01601             -34.00     9000.00
01602             -16.00     9200.00
01603               6.00     9600.00
01604             -40.00     9400.00
01605             -16.00     9800.00
01606             -30.00     9800.00
01607             -38.00     9800.00
01608              -2.00    10000.00
01609             -18.00    10200.00
01610             -18.00    10400.00
01611             -24.00    10400.00
01612             -42.00    10400.00
01613             -42.00    10600.00
01614               0.00    10800.00
01615              -8.00    10800.00
01616             -22.00    10800.00
01617             -28.00    11000.00
01618             -46.00    11000.00
01619             -34.00    11400.00
01620             -16.00    11400.00
01621             -18.00    11200.00
01622             -22.00    11400.00
01623             -18.00    11800.00
01624             -34.00    11800.00
01625             -24.00    12000.00
01626             -26.00    12000.00
01627             -34.00    11800.00
01628             -24.00    12000.00
01629             -16.00    12200.00
01630             -26.00    12200.00
01631             -26.00    12200.00
01632             -32.00    12200.00
01633             -32.00    12400.00
01634             -22.00    12200.00
01635             -18.00    12400.00
01636             -26.00    12400.00
01637             -24.00    12400.00
01638             -34.00    12400.00
01639             -32.00    12600.00
01640             -24.00    12400.00
01641             -26.00    12600.00
01642             -22.00    12400.00
01643             -18.00    12600.00
01644             -30.00    12600.00
01645             -34.00    12600.00
01646             -30.00    12600.00
01647             -26.00    12600.00
01648             -22.00    12800.00
01649             -22.00    12600.00
01650             -28.00    12600.00
01651             -32.00    12600.00
01652             -30.00    12400.00
01653             -30.00    12400.00
01654             -24.00    12600.00
01655             -20.00    12400.00
01656             -22.00    12600.00
01657             -26.00    12400.00
01658             -30.00    12400.00
01659             -34.00    12400.00
01660             -32.00    12400.00
01661             -26.00    12200.00
01662             -22.00    12200.00
01663             -22.00    12400.00
01664             -28.00    12000.00
01665             -32.00    12000.00
01666             -34.00    12000.00
01667             -30.00    12000.00
01668             -22.00    12000.00
01669             -18.00    11800.00
01670             -24.00    11600.00
01671             -34.00    11800.00
01672             -34.00    11600.00
01673             -30.00    11400.00
01674             -22.00    11400.00
01675             -22.00    11400.00
01676             -26.00    11200.00
01677             -26.00    11200.00
01678             -24.00    11000.00
01679             -24.00    10800.00
01680             -26.00    10600.00
01681             -32.00    10600.00
01682             -34.00    10400.00
01683             -26.00    10400.00
01684             -18.00    10400.00
01685             -10.00    10400.00
01686             -16.00    10000.00
01687             -30.00    10000.00
01688             -38.00     9800.00
01689             -34.00     9800.00
01690             -18.00     9600.00
01691              -8.00     9600.00
01692             -10.00     9400.00
01693             -26.00     9200.00
01694             -32.00     9000.00
01695             -26.00     9000.00
01696             -16.00     8800.00
01697             -14.00     8600.00
01698             -26.00     8400.00
01699             -30.00     8400.00
01700             -18.00     8400.00
01701              -8.00     8000.00
01702              -8.00     8000.00
01703             -22.00     8000.00
01704             -26.00     7600.00
01705             -30.00     7400.00
01706             -16.00     7400.00
01707              -8.00     7200.00
01708             -10.00     7000.00
01709             -18.00     6800.00
01710             -24.00     6600.00
01711             -26.00     6400.00
01712             -14.00     6200.00
01713             -10.00     6000.00
01714             -10.00     5800.00
01715             -14.00     5800.00
01716             -16.00     5600.00
01717             -18.00     5400.00
01718             -16.00     5200.00
01719             -16.00     5000.00
01720             -14.00     4800.00
01721             -10.00     4600.00
01722              -8.00     4400.00
01723             -10.00     4200.00
01724             -10.00     4000.00
01725             -16.00     3800.00
01726             -16.00     3600.00
01727             -10.00     3400.00
01728              -8.00     3200.00
01729              -2.00     3200.00
01730              -6.00     2800.00
01731             -14.00     2600.00
01732             -16.00     2600.00
01733             -10.00     2200.00
01734              -4.00     2000.00
01735              -2.00     2000.00
01736              -6.00     1600.00
01737              -8.00     1600.00
01738              -8.00     1400.00
01739              -6.00     1200.00
01740              -6.00     1000.00
01741             -10.00      800.00
01742              -8.00      600.00
01743               0.00      400.00
01744               0.00      200.00
01745               8.00        0.00
01746              22.00     -400.00
01747              22.00     -400.00
01748             -10.00     -800.00
01749             -18.00     -800.00
01750               0.00    -1000.00
01751              16.00    -1200.00
01752              32.00    -1200.00
01753             138.00    -1400.00
01754             246.00    -2000.00
01755             -80.00    -2400.00
01756            -254.00    -2400.00
01757            -248.00    -2600.00
01758             104.00    -2400.00
01759             166.00    -2400.00
01760             246.00    -3000.00
01761             -78.00    -3200.00
01762            -254.00    -3000.00
01763             190.00    -3800.00
01764             112.00    -3600.00
01765             -22.00    -3600.00
01766               0.00    -4400.00
01767             -70.00    -4000.00
01768             134.00    -4800.00
01769              16.00    -4800.00
01770             -94.00    -4800.00
01771             -50.00    -5200.00
01772              32.00    -5000.00
01773             154.00    -5600.00
01774             -42.00    -5400.00
01775             -42.00    -6000.00
01776             -10.00    -6000.00
01777              22.00    -6000.00
01778             102.00    -6600.00
01779             -36.00    -6400.00
01780             -18.00    -6800.00
01781              16.00    -7000.00
01782              46.00    -7000.00
01783               8.00    -7400.00
01784             -24.00    -7200.00
01785              30.00    -7600.00
01786              16.00    -7400.00
01787              34.00    -7800.00
01788               0.00    -8000.00
01789             -16.00    -8000.00
01790              42.00    -8400.00
01791              18.00    -8400.00
01792              -4.00    -8600.00
01793               6.00    -8800.00
01794              16.00    -8800.00
01795              24.00    -9200.00
01796              26.00    -9200.00
01797               2.00    -9400.00
01798               2.00    -9400.00
01799              22.00    -9600.00
01800              18.00    -9600.00
01801              16.00   -10000.00
01802              26.00   -10000.00
01803              10.00   -10000.00
01804              16.00   -10200.00
01805              16.00   -10200.00
01806               8.00   -10400.00
01807              30.00   -10400.00
01808              32.00   -10800.00
01809              14.00   -10800.00
01810              10.00   -11000.00
01811              10.00   -11000.00
01812              16.00   -11000.00
01813              26.00   -11000.00
01814              22.00   -11200.00
01815              14.00   -11200.00
01816              20.00   -11400.00
01817              16.00   -11400.00
01818              12.00   -11600.00
01819              22.00   -11400.00
01820              22.00   -11600.00
01821              24.00   -11800.00
01822              28.00   -11600.00
01823              14.00   -11800.00
01824              10.00   -11800.00
01825              18.00   -11800.00
01826              22.00   -11800.00
01827              26.00   -12000.00
01828              30.00   -12000.00
01829              20.00   -12000.00
01830              14.00   -12000.00
01831              16.00   -12000.00
01832              14.00   -12000.00
01833              26.00   -12000.00
01834              30.00   -12000.00
01835              22.00   -12000.00
01836              16.00   -12000.00
01837              16.00   -12200.00
01838              18.00   -12000.00
01839              30.00   -12000.00
01840              26.00   -12000.00
01841              22.00   -12000.00
01842              22.00   -12200.00
01843              22.00   -12200.00
01844              16.00   -12000.00
01845              16.00   -12000.00
01846              22.00   -12000.00
01847              22.00   -12000.00
01848              26.00   -12000.00
01849              26.00   -12000.00
01850              24.00   -12000.00
01851              18.00   -11800.00
01852              16.00   -11800.00
01853              18.00   -12000.00
01854              26.00   -11800.00
01855              30.00   -11800.00
01856              22.00   -11600.00
01857              16.00   -11600.00
01858              16.00   -11600.00
01859              18.00   -11600.00
01860              22.00   -11600.00
01861              24.00   -11400.00
01862              20.00   -11400.00
01863              16.00   -11200.00
01864              14.00   -11200.00
01865              18.00   -11000.00
01866              18.00   -11000.00
01867              22.00   -11000.00
01868              20.00   -11000.00
01869              18.00   -10800.00
01870              16.00   -10600.00
01871              18.00   -10800.00
01872              16.00   -10400.00
01873              14.00   -10400.00
01874              16.00   -10200.00
01875              18.00   -10200.00
01876              18.00   -10000.00
01877              16.00   -10000.00
01878              14.00    -9800.00
01879              12.00    -9600.00
01880              16.00    -9600.00
01881              18.00    -9400.00
01882              16.00    -9200.00
01883              14.00    -9200.00
01884              10.00    -9000.00
01885              14.00    -8800.00
01886              16.00    -8800.00
01887              16.00    -8800.00
01888              16.00    -8400.00
01889              14.00    -8600.00
01890              14.00    -8200.00
01891              14.00    -8000.00
01892              10.00    -7800.00
01893              14.00    -7800.00
01894              16.00    -7600.00
01895              12.00    -7200.00
01896              14.00    -7200.00
01897              12.00    -7000.00
01898               8.00    -7000.00
01899               8.00    -6800.00
01900              14.00    -6600.00
01901              14.00    -6200.00
01902              10.00    -6400.00
01903              10.00    -6000.00
01904               6.00    -6000.00
01905               8.00    -5600.00
01906              10.00    -5600.00
01907              10.00    -5200.00
01908              10.00    -5000.00
01909               8.00    -4800.00
01910               4.00    -4800.00
01911               2.00    -4600.00
01912               4.00    -4400.00
01913               8.00    -4400.00
01914              10.00    -4000.00
01915               8.00    -3600.00
01916               4.00    -3600.00
01917               0.00    -3400.00
01918               2.00    -3200.00
01919               4.00    -3000.00
01920               6.00    -3000.00
01921               6.00    -2800.00
01922               6.00    -2400.00
01923               0.00    -2400.00
01924               0.00    -2200.00
01925              -2.00    -2000.00
01926              -2.00    -1800.00
01927               0.00    -1400.00
01928               4.00    -1000.00
01929               0.00    -1200.00
01930               0.00     -800.00
01931              -6.00     -600.00
01932              -6.00     -400.00
01933              -2.00     -400.00
01934               0.00        0.00
01935               0.00      200.00
01936               2.00      400.00
01937               2.00      400.00
01938              24.00      800.00
01939              22.00      800.00
01940              -8.00     1000.00
01941             -18.00     1200.00
01942               0.00     1400.00
01943              16.00     1600.00
01944              96.00     2000.00
01945             246.00     2400.00
01946              42.00     2400.00
01947            -254.00     2400.00
01948            -254.00     2800.00
01949             -10.00     2800.00
01950             246.00     3000.00
01951             246.00     3400.00
01952            -254.00     3400.00
01953            -254.00     3400.00
01954             246.00     4000.00
01955              22.00     4000.00
01956             -34.00     4200.00
01957              46.00     4600.00
01958            -182.00     4400.00
01959             194.00     4800.00
01960              -4.00     5000.00
01961            -192.00     5400.00
01962               0.00     5400.00
01963              42.00     5800.00
01964              78.00     5800.00
01965             -56.00     5800.00
01966             -18.00     6400.00
01967             -88.00     6200.00
01968              24.00     6600.00
01969              86.00     6600.00
01970            -120.00     6800.00
01971              12.00     7200.00
01972             -10.00     7000.00
01973              -8.00     7400.00
01974              -6.00     7400.00
01975             -54.00     7600.00
01976             -22.00     7800.00
01977              24.00     8000.00
01978               6.00     8200.00
01979             -66.00     8200.00
01980              -6.00     8400.00
01981             -22.00     8400.00
01982             -10.00     8800.00
01983              -6.00     9000.00
01984             -34.00     9000.00
01985             -34.00     9000.00
01986               2.00     9200.00
01987             -10.00     9600.00
01988             -32.00     9600.00
01989              -8.00     9800.00
01990             -48.00     9800.00
01991             -16.00     9800.00
01992             -10.00    10000.00
01993             -20.00    10000.00
01994             -16.00    10400.00
01995             -24.00    10400.00
01996             -48.00    10600.00
01997             -26.00    10400.00
01998               0.00    10800.00
01999             -22.00    10800.00
02000             -20.00    10800.00
02001             -34.00    11000.00
02002             -42.00    11000.00
02003             -22.00    11200.00
02004             -16.00    11400.00
02005             -24.00    11400.00
02006             -18.00    11600.00
02007             -26.00    11600.00
02008             -32.00    11800.00
02009             -24.00    11800.00
02010             -34.00    12000.00
02011             -26.00    12000.00
02012             -18.00    12000.00
02013             -26.00    12000.00
02014             -30.00    12000.00
02015             -26.00    12200.00
02016             -32.00    12200.00
02017             -32.00    12200.00
02018             -22.00    12200.00
02019             -24.00    12400.00
02020             -24.00    12400.00
02021             -30.00    12400.00
02022             -38.00    12400.00
02023             -30.00    12400.00
02024             -22.00    12400.00
02025             -26.00    12600.00
02026             -24.00    12600.00
02027             -24.00    12400.00
02028             -30.00    12600.00
02029             -30.00    12600.00
02030             -28.00    12800.00
02031             -26.00    12600.00
02032             -20.00    12600.00
02033             -24.00    12600.00
02034             -30.00    12600.00
02035             -30.00    12400.00
02036             -32.00    12800.00
02037             -30.00    12400.00
02038             -26.00    12400.00
02039             -18.00    12400.00
02040             -22.00    12400.00
02041             -30.00    12400.00
02042             -34.00    12400.00
02043             -34.00    12400.00
02044             -22.00    12200.00
02045             -18.00    12200.00
02046             -22.00    12200.00
02047             -26.00    12200.00
02048             -30.00    12000.00
02049             -30.00    12000.00
02050             -30.00    12000.00
02051             -26.00    12000.00
02052             -22.00    12000.00
02053             -22.00    12000.00
02054             -30.00    11800.00
02055             -32.00    11800.00
02056             -32.00    11600.00
02057             -28.00    11400.00
02058             -24.00    11400.00
02059             -26.00    11400.00
02060             -26.00    11200.00
02061             -26.00    11200.00
02062             -28.00    11000.00
02063             -30.00    10800.00
02064             -24.00    10800.00
02065             -24.00    10600.00
02066             -24.00    10600.00
02067             -26.00    10600.00
02068             -32.00    10400.00
02069             -28.00    10200.00
02070             -24.00    10400.00
02071             -24.00    10000.00
02072             -22.00     9800.00
02073             -18.00     9600.00
02074             -24.00     9600.00
02075             -24.00     9400.00
02076             -26.00     9200.00
02077             -26.00     9200.00
02078             -22.00     9000.00
02079             -20.00     9000.00
02080             -22.00     8800.00
02081             -22.00     8600.00
02082             -22.00     8400.00
02083             -24.00     8400.00
02084             -20.00     8200.00
02085             -16.00     8000.00
02086             -14.00     8000.00
02087             -16.00     7600.00
02088             -18.00     7600.00
02089             -26.00     7400.00
02090             -22.00     7200.00
02091             -16.00     7000.00
02092             -14.00     6800.00
02093             -14.00     6800.00
02094             -16.00     6600.00
02095             -20.00     6400.00
02096             -18.00     6200.00
02097             -14.00     6000.00
02098             -10.00     5800.00
02099             -10.00     5600.00
02100             -14.00     5600.00
02101             -18.00     5200.00
02102             -18.00     5200.00
02103             -14.00     5000.00
02104             -10.00     4800.00
02105             -10.00     4400.00
02106             -10.00     4200.00
02107             -10.00     4200.00
02108             -10.00     4000.00
02109             -14.00     3800.00
02110             -14.00     3600.00
02111              -8.00     3200.00
02112             -10.00     3200.00
02113              -6.00     2800.00
02114              -8.00     2800.00
02115             -10.00     2600.00
02116             -10.00     2400.00
02117             -10.00     2200.00
02118              -8.00     2000.00
02119              -6.00     1800.00
02120              -6.00     1600.00
02121             -10.00     1200.00
02122              -8.00     1200.00
02123              -8.00     1000.00
02124              -8.00      800.00
02125              -6.00      800.00
02126              -6.00      400.00
02127               2.00      400.00
02128               2.00        0.00
02129              10.00        0.00
02130              24.00     -400.00
02131              10.00     -600.00
02132             -10.00     -800.00
02133              -6.00     -800.00
02134               6.00    -1200.00
02135              10.00    -1000.00
02136              54.00    -1400.00
02137             226.00    -1600.00
02138             190.00    -2200.00
02139            -254.00    -2400.00
02140            -254.00    -2400.00
02141             -52.00    -2800.00
02142             126.00    -2800.00
02143             238.00    -2600.00
02144             246.00    -3200.00
02145            -254.00    -3200.00
02146            -106.00    -3200.00
02147             246.00    -4000.00
02148             -42.00    -3600.00
02149              -6.00    -4000.00
02150             -66.00    -4200.00
02151              52.00    -4200.00
02152             160.00    -4800.00
02153             -86.00    -4800.00
02154             -98.00    -5200.00
02155             -52.00    -5200.00
02156             130.00    -5400.00
02157              98.00    -5600.00
02158             -78.00    -5400.00
02159             -10.00    -6200.00
02160             -30.00    -6000.00
02161              80.00    -6200.00
02162              48.00    -6400.00
02163             -52.00    -6200.00
02164              10.00    -7000.00
02165              24.00    -6800.00
02166              42.00    -7200.00
02167             -26.00    -7200.00
02168              -6.00    -7400.00
02169              32.00    -7600.00
02170              34.00    -7800.00
02171              36.00    -8000.00
02172             -32.00    -8000.00
02173               6.00    -8400.00
02174              38.00    -8400.00
02175              14.00    -8400.00
02176              10.00    -8800.00
02177              14.00    -8800.00
02178              18.00    -9000.00
02179              22.00    -9200.00
02180               8.00    -9200.00
02181               0.00    -9400.00
02182              18.00    -9400.00
02183              32.00    -9600.00
02184              16.00    -9800.00
02185              14.00   -10000.00
02186              10.00   -10000.00
02187               6.00   -10200.00
02188              22.00   -10200.00
02189              16.00   -10200.00
02190              22.00   -10400.00
02191              36.00   -10400.00
02192              16.00   -10600.00
02193               0.00   -10800.00
02194               6.00   -11000.00
02195              14.00   -11000.00
02196              28.00   -11000.00
02197              34.00   -11000.00
02198              18.00   -11200.00
02199              10.00   -11400.00
02200              14.00   -11200.00
02201               8.00   -11600.00
02202              22.00   -11600.00
02203              32.00   -11600.00
02204              24.00   -11600.00
02205              22.00   -11800.00
02206              10.00   -11600.00
02207               2.00   -11800.00
02208              16.00   -12000.00
02209              30.00   -11800.00
02210              26.00   -11800.00
02211              24.00   -12000.00
02212              22.00   -12000.00
02213              16.00   -12000.00
02214              20.00   -12000.00
02215              14.00   -12000.00
02216              16.00   -12200.00
02217              30.00   -12000.00
02218              30.00   -12200.00
02219              22.00   -12000.00
02220              18.00   -12200.00
02221              10.00   -12200.00
02222              14.00   -12000.00
02223              24.00   -12000.00
02224              30.00   -12200.00
02225              28.00   -12000.00
02226              22.00   -12200.00
02227              16.00   -12200.00
02228              14.00   -12200.00
02229              18.00   -12000.00
02230              22.00   -12000.00
02231              26.00   -12000.00
02232              28.00   -11800.00
02233              22.00   -12000.00
02234              16.00   -12000.00
02235              14.00   -11800.00
02236              14.00   -12000.00
02237              22.00   -11800.00
02238              26.00   -11800.00
02239              26.00   -11800.00
02240              22.00   -11600.00
02241              18.00   -11600.00
02242              18.00   -11600.00
02243              18.00   -11600.00
02244              22.00   -11600.00
02245              22.00   -11400.00
02246              22.00   -11200.00
02247              18.00   -11200.00
02248              18.00   -11200.00
02249              22.00   -11200.00
02250              22.00   -11000.00
02251              22.00   -10800.00
02252              18.00   -10800.00
02253              16.00   -10800.00
02254              14.00   -10800.00
02255              16.00   -10400.00
02256              16.00   -10400.00
02257              18.00   -10400.00
02258              22.00   -10200.00
02259              16.00   -10000.00
02260              16.00   -10000.00
02261              16.00   -10000.00
02262              16.00    -9600.00
02263              18.00    -9600.00
02264              18.00    -9600.00
02265              16.00    -9400.00
02266              12.00    -9200.00
02267              12.00    -9000.00
02268              16.00    -9000.00
02269              14.00    -8800.00
02270              18.00    -8800.00
02271              16.00    -8600.00
02272              14.00    -8400.00
02273              12.00    -8400.00
02274              10.00    -8200.00
02275              10.00    -8000.00
02276              12.00    -7800.00
02277              14.00    -7400.00
02278              16.00    -7400.00
02279              14.00    -7200.00
02280              10.00    -7200.00
02281               8.00    -7000.00
02282               8.00    -6800.00
02283              10.00    -6800.00
02284              14.00    -6400.00
02285              14.00    -6200.00
02286              12.00    -6200.00
02287               6.00    -6000.00
02288               6.00    -5800.00
02289               8.00    -5600.00
02290              10.00    -5400.00
02291              14.00    -5200.00
02292               8.00    -5000.00
02293               4.00    -4800.00
02294               6.00    -4600.00
02295               6.00    -4600.00
02296               6.00    -4200.00
02297               8.00    -4000.00
02298               6.00    -3800.00
02299               8.00    -3600.00
02300               6.00    -3600.00
02301               4.00    -3200.00
02302               2.00    -3000.00
02303               0.00    -3000.00
02304               6.00    -2800.00
02305               8.00    -2600.00
02306               4.00    -2400.00
02307               0.00    -2200.00
02308              -2.00    -2000.00
02309              -2.00    -2000.00
02310               2.00    -1400.00
02311               6.00    -1400.00
02312               2.00    -1000.00
02313               0.00    -1000.00
02314              -4.00     -800.00
02315              -8.00     -600.00
02316               0.00     -400.00
02317               2.00     -200.00
02318               4.00        0.00
02319               0.00      200.00
02320              -2.00      400.00
02321               6.00      600.00
02322              28.00      800.00
02323              14.00     1000.00
02324             -10.00     1000.00
02325              -8.00     1200.00
02326               6.00     1600.00
02327              30.00     1800.00
02328             198.00     2000.00
02329             246.00     2400.00
02330            -248.00     2400.00
02331            -254.00     2400.00
02332            -202.00     2800.00
02333             104.00     2800.00
02334             246.00     3200.00
02335             246.00     3400.00
02336            -254.00     3200.00
02337             -62.00     3800.00
02338             246.00     4000.00
02339            -138.00     4000.00
02340              88.00     4400.00
02341            -114.00     4400.00
02342             -34.00     4600.00
02343             206.00     4800.00
02344            -170.00     5400.00
02345             -96.00     5400.00
02346              24.00     5600.00
02347              74.00     5600.00
02348              16.00     5600.00
02349             -66.00     6000.00
02350             -32.00     6000.00
02351             -88.00     6200.00
02352             118.00     6800.00
02353             -26.00     6600.00
02354             -84.00     6800.00
02355              26.00     7000.00
02356             -34.00     7200.00
02357              16.00     7400.00
02358             -34.00     7600.00
02359             -40.00     7800.00
02360              -2.00     7800.00
02361              32.00     8200.00
02362             -42.00     8000.00
02363             -48.00     8400.00
02364               0.00     8600.00
02365             -26.00     8400.00
02366               0.00     9000.00
02367             -26.00     9000.00
02368             -38.00     9000.00
02369             -24.00     9200.00
02370              10.00     9400.00
02371             -30.00     9600.00
02372             -16.00     9600.00
02373             -26.00     9800.00
02374             -42.00    10000.00
02375              -2.00    10000.00
02376             -16.00    10200.00
02377             -14.00    10200.00
02378             -18.00    10400.00
02379             -38.00    10400.00
02380             -48.00    10600.00
02381              -6.00    10800.00
02382              -8.00    10800.00
02383             -24.00    10800.00
02384             -26.00    11000.00
02385             -42.00    11200.00
02386             -32.00    11400.00
02387             -10.00    11400.00
02388             -22.00    11400.00
02389             -26.00    11400.00
02390             -24.00    11800.00
02391             -34.00    11800.00
02392             -24.00    11800.00
02393             -22.00    11800.00
02394             -34.00    12000.00
02395             -30.00    11800.00
02396             -26.00    12000.00
02397             -30.00    12000.00
02398             -24.00    12200.00
02399             -24.00    12200.00
02400             -34.00    12400.00
02401             -30.00    12200.00
02402             -26.00    12200.00
02403             -26.00    12400.00
02404             -24.00    12400.00
02405             -30.00    12400.00
02406             -34.00    12400.00
02407             -26.00    12400.00
02408             -30.00    12400.00
02409             -30.00    12400.00
02410             -24.00    12400.00
02411             -26.00    12800.00
02412             -30.00    12600.00
02413             -30.00    12600.00
02414             -30.00    12400.00
02415             -24.00    12400.00
02416             -18.00    12800.00
02417             -26.00    12400.00
02418             -30.00    12600.00
02419             -32.00    12400.00
02420             -34.00    12400.00
02421             -26.00    12400.00
02422             -22.00    12400.00
02423             -22.00    12400.00
02424             -26.00    12400.00
02425             -30.00    12400.00
02426             -34.00    12400.00
02427             -28.00    12400.00
02428             -24.00    12200.00
02429             -22.00    12200.00
02430             -24.00    12200.00
02431             -26.00    12200.00
02432             -34.00    12200.00
02433             -32.00    12000.00
02434             -26.00    12000.00
02435             -18.00    11800.00
02436             -22.00    11800.00
02437             -26.00    11800.00
02438             -32.00    11600.00
02439             -32.00    11800.00
02440             -26.00    11600.00
02441             -24.00    11400.00
02442             -20.00    11400.00
02443             -22.00    11200.00
02444             -26.00    11200.00
02445             -32.00    11200.00
02446             -30.00    10800.00
02447             -26.00    10800.00
02448             -22.00    10800.00
02449             -24.00    10400.00
02450             -26.00    10400.00
02451             -24.00    10400.00
02452             -22.00    10400.00
02453             -24.00    10200.00
02454             -26.00    10000.00
02455             -24.00    10000.00
02456             -22.00     9800.00
02457             -18.00     9600.00
02458             -22.00     9600.00
02459             -28.00     9400.00
02460             -30.00     9200.00
02461             -24.00     9200.00
02462             -16.00     9000.00
02463             -10.00     8800.00
02464             -22.00     8600.00
02465             -30.00     8400.00
02466             -32.00     8400.00
02467             -22.00     8200.00
02468              -8.00     8000.00
02469             -10.00     8000.00
02470             -22.00     7800.00
02471             -30.00     7600.00
02472             -30.00     7400.00
02473             -14.00     7200.00
02474             -10.00     7200.00
02475             -10.00     6800.00
02476             -16.00     6800.00
02477             -22.00     6600.00
02478             -22.00     6400.00
02479             -16.00     6200.00
02480             -10.00     6000.00
02481             -12.00     6000.00
02482             -14.00     5800.00
02483             -14.00     5600.00
02484             -16.00     5400.00
02485             -16.00     5200.00
02486             -18.00     5000.00
02487             -16.00     4800.00
02488             -10.00     4600.00
02489              -2.00     4400.00
02490              -6.00     4200.00
02491             -10.00     4200.00
02492             -22.00     4000.00
02493             -16.00     3800.00
02494              -8.00     3400.00
02495               0.00     3400.00
02496              -6.00     3000.00
02497             -10.00     3000.00
02498             -14.00     2600.00
02499             -10.00     2600.00
02500              -6.00     2200.00
02501              -2.00     2000.00
02502              -6.00     2000.00
02503              -2.00     1800.00
02504              -6.00     1600.00
02505              -8.00     1200.00
02506              -8.00     1000.00
02507              -8.00     1000.00
02508              -2.00      800.00
02509               4.00      400.00
02510              -2.00      200.00
02511              -6.00      200.00
02512               0.00        0.00
02513              24.00     -200.00
02514              26.00     -400.00
02515              -6.00     -600.00
02516             -26.00     -800.00
02517              -2.00     -800.00
02518              22.00    -1200.00
02519              30.00    -1400.00
02520             114.00    -1400.00
02521             246.00    -2000.00
02522             -18.00    -2400.00
02523            -254.00    -2400.00
02524            -254.00    -2600.00
02525              76.00    -2600.00
02526             158.00    -2600.00
02527             246.00    -2800.00
02528               8.00    -3400.00
02529            -254.00    -3200.00
02530             120.00    -3800.00
02531             154.00    -4000.00
02532             -18.00    -3600.00
02533              18.00    -4400.00
02534             -90.00    -4000.00
02535             110.00    -4600.00
02536              40.00    -4800.00
02537            -100.00    -4800.00
02538             -54.00    -5200.00
02539              16.00    -5000.00
02540             168.00    -5600.00
02541             -24.00    -5600.00
02542             -70.00    -5800.00
02543             -22.00    -6200.00
02544              10.00    -6000.00
02545             118.00    -6600.00
02546             -10.00    -6400.00
02547             -34.00    -6800.00
02548               0.00    -7000.00
02549              30.00    -7000.00
02550              30.00    -7200.00
02551             -12.00    -7200.00
02552              22.00    -7600.00
02553               2.00    -7400.00
02554              24.00    -7600.00
02555              16.00    -8000.00
02556              -8.00    -8000.00
02557              42.00    -8400.00
02558              18.00    -8400.00
02559             -10.00    -8600.00
02560               0.00    -8800.00
02561              14.00    -8800.00
02562              30.00    -9000.00
02563              32.00    -9200.00
02564              10.00    -9400.00
02565               0.00    -9400.00
02566              18.00    -9400.00
02567              22.00    -9600.00
02568              18.00    -9800.00
02569              22.00   -10000.00
02570              10.00   -10000.00
02571              14.00   -10200.00
02572              18.00   -10200.00
02573              10.00   -10400.00
02574              22.00   -10400.00
02575              30.00   -10400.00
02576              16.00   -10800.00
02577              10.00   -10800.00
02578              16.00   -10800.00
02579              14.00   -11000.00
02580              26.00   -11200.00
02581              24.00   -11000.00
02582              14.00   -11200.00
02583              22.00   -11200.00
02584              22.00   -11200.00
02585              14.00   -11400.00
02586              20.00   -11600.00
02587              18.00   -11600.00
02588              22.00   -11600.00
02589              26.00   -11600.00
02590              16.00   -11800.00
02591              14.00   -11800.00
02592              18.00   -11800.00
02593              22.00   -11800.00
02594              22.00   -12000.00
02595              30.00   -12000.00
02596              20.00   -12000.00
02597              14.00   -12000.00
02598              16.00   -12000.00
02599              16.00   -12200.00
02600              22.00   -12000.00
02601              30.00   -12000.00
02602              18.00   -12200.00
02603              22.00   -12000.00
02604              18.00   -12200.00
02605              18.00   -12200.00
02606              22.00   -12200.00
02607              22.00   -12200.00
02608              24.00   -12200.00
02609              22.00   -12000.00
02610              22.00   -12200.00
02611              18.00   -12000.00
02612              16.00   -12000.00
02613              18.00   -12000.00
02614              22.00   -12000.00
02615              30.00   -12000.00
02616              24.00   -11800.00
02617              18.00   -12000.00
02618              16.00   -12000.00
02619              14.00   -12000.00
02620              22.00   -11800.00
02621              30.00   -11800.00
02622              26.00   -11800.00
02623              18.00   -11800.00
02624              16.00   -11600.00
02625              14.00   -11600.00
02626              18.00   -11600.00
02627              26.00   -11400.00
02628              26.00   -11600.00
02629              24.00   -11400.00
02630              18.00   -11200.00
02631              12.00   -11200.00
02632              18.00   -11200.00
02633              22.00   -11000.00
02634              26.00   -11000.00
02635              22.00   -11000.00
02636              18.00   -10800.00
02637              16.00   -10600.00
02638              16.00   -10400.00
02639              20.00   -10400.00
02640              22.00   -10400.00
02641              18.00   -10000.00
02642              18.00   -10000.00
02643              14.00   -10000.00
02644              10.00   -10000.00
02645               8.00    -9800.00
02646              16.00    -9600.00
02647              24.00    -9600.00
02648              22.00    -9400.00
02649              16.00    -9200.00
02650               8.00    -9200.00
02651              10.00    -9000.00
02652              18.00    -8800.00
02653              18.00    -8800.00
02654              14.00    -8600.00
02655              12.00    -8400.00
02656               8.00    -8400.00
02657              18.00    -8000.00
02658              22.00    -8000.00
02659              10.00    -7800.00
02660               4.00    -7600.00
02661               6.00    -7400.00
02662              10.00    -7400.00
02663              16.00    -7200.00
02664              16.00    -7200.00
02665              10.00    -7000.00
02666               8.00    -6800.00
02667               6.00    -6800.00
02668               2.00    -6400.00
02669              14.00    -6200.00
02670              16.00    -6200.00
02671              10.00    -6000.00
02672               0.00    -5600.00
02673              -2.00    -5400.00
02674              14.00    -5200.00
02675              20.00    -5200.00
02676               8.00    -5000.00
02677               0.00    -4800.00
02678               0.00    -4600.00
02679               8.00    -4400.00
02680              10.00    -4400.00
02681               2.00    -4000.00
02682               2.00    -3600.00
02683               2.00    -3600.00
02684               2.00    -3200.00
02685               0.00    -3200.00
02686               2.00    -3000.00
02687               6.00    -2800.00
02688               6.00    -2800.00
02689               8.00    -2400.00
02690               8.00    -2200.00
02691              -4.00    -2000.00
02692             -10.00    -1600.00
02693              -2.00    -1600.00
02694               6.00    -1400.00
02695               8.00    -1200.00
02696              -2.00    -1000.00
02697              -8.00     -800.00
02698              -2.00     -600.00
02699               0.00     -400.00
02700               0.00     -400.00
02701               0.00        0.00
02702              -2.00        0.00
02703              -6.00      200.00
02704               6.00      600.00
02705              28.00      800.00
02706              26.00      800.00
02707              -2.00     1000.00
02708             -26.00     1000.00
02709             -10.00     1400.00
02710              16.00     1600.00
02711              78.00     1800.00
02712             246.00     2200.00
02713             110.00     2400.00
02714            -254.00     2400.00
02715            -254.00     2600.00
02716             -48.00     2800.00
02717             246.00     3000.00
02718             246.00     3600.00
02719            -202.00     3400.00
02720            -254.00     3400.00
02721             246.00     4000.00
02722              78.00     4000.00
02723             -82.00     4000.00
02724              78.00     4600.00
02725            -186.00     4600.00
02726             166.00     4800.00
02727              48.00     5000.00
02728            -208.00     5200.00
02729             -18.00     5400.00
02730              30.00     5600.00
02731              78.00     5600.00
02732             -48.00     5600.00
02733             -22.00     6400.00
02734             -70.00     6000.00
02735              -2.00     6400.00
02736              98.00     6600.00
02737            -120.00     6600.00
02738              -8.00     7000.00
02739               4.00     7200.00
02740             -14.00     7400.00
02741               2.00     7400.00
02742             -56.00     7600.00
02743             -26.00     7600.00
02744              18.00     8000.00
02745              10.00     8200.00
02746             -70.00     8200.00
02747             -10.00     8600.00
02748             -14.00     8400.00
02749             -16.00     8800.00
02750              -8.00     9000.00
02751             -36.00     9000.00
02752             -38.00     9200.00
02753              -2.00     9400.00
02754              -2.00     9600.00
02755             -32.00     9600.00
02756              -6.00     9800.00
02757             -46.00     9600.00
02758             -24.00    10000.00
02759              -8.00    10200.00
02760             -22.00    10200.00
02761             -16.00    10400.00
02762             -22.00    10600.00
02763             -44.00    10400.00
02764             -30.00    10600.00
02765               0.00    10800.00
02766             -22.00    10800.00
02767             -18.00    10800.00
02768             -32.00    11200.00
02769             -42.00    11200.00
02770             -24.00    11200.00
02771             -14.00    11400.00
02772             -24.00    11400.00
02773             -18.00    11400.00
02774             -26.00    11600.00
02775             -34.00    11800.00
02776             -26.00    11800.00
02777             -32.00    11800.00
02778             -30.00    12000.00
02779             -14.00    12000.00
02780             -22.00    12000.00
02781             -32.00    12200.00
02782             -32.00    12200.00
02783             -32.00    12200.00
02784             -30.00    12400.00
02785             -18.00    12200.00
02786             -24.00    12400.00
02787             -26.00    12400.00
02788             -26.00    12400.00
02789             -36.00    12400.00
02790             -34.00    12400.00
02791             -24.00    12600.00
02792             -26.00    12400.00
02793             -22.00    12600.00
02794             -24.00    12600.00
02795             -32.00    12600.00
02796             -32.00    12600.00
02797             -30.00    12400.00
02798             -26.00    12400.00
02799             -22.00    12600.00
02800             -22.00    12600.00
02801             -30.00    12600.00
02802             -28.00    12400.00
02803             -34.00    12800.00
02804             -30.00    12600.00
02805             -24.00    12400.00
02806             -22.00    12400.00
02807             -24.00    12400.00
02808             -26.00    12400.00
02809             -32.00    12200.00
02810             -32.00    12400.00
02811             -26.00    12200.00
02812             -22.00    12200.00
02813             -22.00    12200.00
02814             -26.00    12200.00
02815             -32.00    12200.00
02816             -32.00    12200.00
02817             -26.00    12200.00
02818             -24.00    12000.00
02819             -22.00    12000.00
02820             -22.00    12000.00
02821             -26.00    11800.00
02822             -30.00    11600.00
02823             -30.00    11800.00
02824             -26.00    11400.00
02825             -22.00    11400.00
02826             -18.00    11400.00
02827             -22.00    11200.00
02828             -26.00    11200.00
02829             -30.00    11000.00
02830             -26.00    10800.00
02831             -22.00    10800.00
02832             -18.00    10800.00
02833             -18.00    10600.00
02834             -24.00    10400.00
02835             -26.00    10400.00
02836             -30.00    10200.00
02837             -26.00    10000.00
02838             -22.00    10000.00
02839             -18.00     9800.00
02840             -18.00     9800.00
02841             -24.00     9600.00
02842             -26.00     9600.00
02843             -26.00     9400.00
02844             -24.00     9200.00
02845             -22.00     9000.00
02846             -18.00     9000.00
02847             -18.00     8800.00
02848             -22.00     8600.00
02849             -26.00     8400.00
02850             -24.00     8200.00
02851             -22.00     8200.00
02852             -16.00     8000.00
02853             -16.00     8000.00
02854             -18.00     7600.00
02855             -18.00     7600.00
02856             -24.00     7600.00
02857             -22.00     7200.00
02858             -20.00     7200.00
02859             -18.00     6800.00
02860             -14.00     6600.00
02861             -16.00     6600.00
02862             -22.00     6400.00
02863             -20.00     6200.00
02864             -16.00     6000.00
02865             -14.00     5800.00
02866             -14.00     5600.00
02867             -10.00     5600.00
02868             -16.00     5400.00
02869             -16.00     5200.00
02870             -18.00     5000.00
02871             -14.00     4800.00
02872             -10.00     4600.00
02873             -10.00     4400.00
02874             -10.00     4200.00
02875             -12.00     4000.00
02876             -14.00     3800.00
02877             -14.00     3600.00
02878              -8.00     3400.00
02879              -8.00     3200.00
02880              -6.00     3000.00
02881             -10.00     2800.00
02882             -10.00     2600.00
02883             -10.00     2600.00
02884             -10.00     2000.00
02885              -6.00     2000.00
02886              -2.00     1800.00
02887              -6.00     1600.00
02888              -8.00     1400.00
02889              -8.00     1000.00
02890              -8.00     1000.00
02891              -8.00      800.00
02892              -2.00      800.00
02893               0.00      400.00
02894               0.00      400.00
02895               0.00        0.00
02896               6.00        0.00
02897              30.00     -400.00
02898              18.00     -600.00
02899             -10.00     -600.00
02900             -14.00     -800.00
02901               6.00    -1000.00
02902              18.00    -1200.00
02903              50.00    -1400.00
02904             206.00    -1600.00
02905             218.00    -2200.00
02906            -254.00    -2400.00
02907            -254.00    -2600.00
02908             -98.00    -2800.00
02909             130.00    -2800.00
02910             224.00    -2600.00
02911             246.00    -3200.00
02912            -254.00    -3200.00
02913            -200.00    -3200.00
02914             246.00    -4000.00
02915               2.00    -3600.00
02916              16.00    -4000.00
02917             -50.00    -4400.00
02918             -10.00    -4000.00
02919             144.00    -4800.00
02920             -56.00    -4600.00
02921             -80.00    -5200.00
02922             -48.00    -5200.00
02923              96.00    -5200.00
02924             110.00    -5600.00
02925             -84.00    -5600.00
02926             -16.00    -6200.00
02927             -26.00    -6000.00
02928              66.00    -6200.00
02929              64.00    -6600.00
02930             -50.00    -6200.00
02931               4.00    -7000.00
02932              16.00    -7000.00
02933              40.00    -7200.00
02934             -22.00    -7200.00
02935               0.00    -7400.00
02936              38.00    -7800.00
02937              22.00    -7600.00
02938              26.00    -8000.00
02939             -30.00    -8000.00
02940               8.00    -8200.00
02941              48.00    -8600.00
02942              16.00    -8600.00
02943              -2.00    -8800.00
02944               6.00    -8800.00
02945              16.00    -9000.00
02946              32.00    -9200.00
02947              24.00    -9200.00
02948               4.00    -9400.00
02949              14.00    -9400.00
02950              22.00    -9600.00
02951              14.00    -9600.00
02952              16.00   -10000.00
02953              22.00    -9800.00
02954              14.00   -10200.00
02955              22.00   -10200.00
02956              12.00   -10200.00
02957               8.00   -10400.00
02958              32.00   -10400.00
02959              30.00   -10800.00
02960              18.00   -10800.00
02961              14.00   -10800.00
02962               6.00   -10800.00
02963              16.00   -11000.00
02964              34.00   -11000.00
02965              30.00   -11000.00
02966              24.00   -11200.00
02967              20.00   -11200.00
02968               6.00   -11600.00
02969              12.00   -11400.00
02970              26.00   -11600.00
02971              22.00   -11600.00
02972              24.00   -11600.00
02973              22.00   -11800.00
02974              12.00   -11800.00
02975              18.00   -11800.00
02976              24.00   -11800.00
02977              22.00   -12000.00
02978              24.00   -11800.00
02979              22.00   -12000.00
02980              18.00   -12000.00
02981              20.00   -12000.00
02982              18.00   -12000.00
02983              18.00   -12200.00
02984              24.00   -12000.00
02985              24.00   -12000.00
02986              20.00   -12000.00
02987              22.00   -12200.00
02988              16.00   -12200.00
02989              18.00   -12000.00
02990              26.00   -12200.00
02991              22.00   -12000.00
02992              22.00   -12400.00
02993              22.00   -12000.00
02994              22.00   -12000.00
02995              22.00   -12000.00
02996              22.00   -12000.00
02997              22.00   -12000.00
02998              22.00   -12000.00
02999              22.00   -12000.00
03000              22.00   -12000.00
03001              22.00   -12000.00
03002              18.00   -12000.00
03003              16.00   -12000.00
03004              24.00   -11800.00
03005              24.00   -11800.00
03006              22.00   -11600.00
03007              20.00   -11600.00
03008              18.00   -11600.00
03009              16.00   -11600.00
03010              22.00   -11600.00
03011              22.00   -11400.00
03012              24.00   -11400.00
03013              22.00   -11200.00
03014              20.00   -11200.00
03015              16.00   -11200.00
03016              16.00   -11000.00
03017              18.00   -11000.00
03018              24.00   -11000.00
03019              24.00   -10800.00
03020              22.00   -10600.00
03021              14.00   -10600.00
03022              14.00   -10400.00
03023              16.00   -10400.00
03024              22.00   -10400.00
03025              24.00   -10000.00
03026              22.00   -10200.00
03027              16.00   -10000.00
03028              14.00    -9800.00
03029              14.00    -9600.00
03030              16.00    -9600.00
03031              22.00    -9400.00
03032              20.00    -9400.00
03033              14.00    -9200.00
03034              12.00    -9200.00
03035              10.00    -9000.00
03036              10.00    -8800.00
03037              14.00    -8800.00
03038              16.00    -8600.00
03039              16.00    -8400.00
03040              12.00    -8400.00
03041              10.00    -8000.00
03042              10.00    -7800.00
03043              14.00    -7600.00
03044              14.00    -7600.00
03045              16.00    -7400.00
03046              14.00    -7200.00
03047              10.00    -7200.00
03048              10.00    -7000.00
03049               8.00    -7000.00
03050              10.00    -6800.00
03051              10.00    -6400.00
03052              14.00    -6200.00
03053              10.00    -6000.00
03054               6.00    -6000.00
03055               6.00    -6000.00
03056               6.00    -5600.00
03057               8.00    -5400.00
03058              10.00    -5400.00
03059               8.00    -5200.00
03060               6.00    -4800.00
03061               2.00    -4800.00
03062               0.00    -4600.00
03063               6.00    -4400.00
03064               8.00    -4000.00
03065               8.00    -3800.00
03066               6.00    -3600.00
03067               2.00    -3600.00
03068               0.00    -3200.00
03069               2.00    -3200.00
03070               2.00    -3000.00
03071               6.00    -2800.00
03072               6.00    -2600.00
03073               4.00    -2400.00
03074               0.00    -2200.00
03075               0.00    -2000.00
03076               0.00    -2000.00
03077               0.00    -1600.00
03078               2.00    -1400.00
03079               0.00    -1200.00
03080               0.00    -1000.00
03081              -2.00     -800.00
03082              -2.00     -600.00
03083              -2.00     -400.00
03084               0.00        0.00
03085               2.00        0.00
03086               0.00      200.00
03087               0.00      400.00
03088              10.00      400.00
03089              30.00      800.00
03090              14.00      800.00
03091             -12.00     1200.00
03092             -14.00     1200.00
03093               6.00     1600.00
03094              24.00     1600.00
03095             174.00     2000.00
03096             246.00     2400.00
03097            -172.00     2400.00
03098            -254.00     2600.00
03099            -254.00     2800.00
03100              72.00     2800.00
03101             246.00     3200.00
03102             246.00     3400.00
03103            -254.00     3200.00
03104            -174.00     3600.00
03105             246.00     4000.00
03106            -120.00     4200.00
03107              72.00     4400.00
03108             -72.00     4400.00
03109             -84.00     4600.00
03110             222.00     5000.00
03111            -144.00     5000.00
03112            -126.00     5200.00
03113              22.00     5600.00
03114              64.00     5800.00
03115              32.00     5600.00
03116             -70.00     6000.00
03117             -22.00     6000.00
03118             -90.00     6000.00
03119              98.00     6800.00
03120              -2.00     6400.00
03121            -104.00     6800.00
03122              32.00     7200.00
03123             -30.00     7200.00
03124              12.00     7400.00
03125             -32.00     7600.00
03126             -48.00     7600.00
03127              -6.00     7800.00
03128              34.00     8000.00
03129             -32.00     8200.00
03130             -58.00     8200.00
03131               0.00     8400.00
03132             -26.00     8800.00
03133               0.00     8800.00
03134             -22.00     9000.00
03135             -38.00     9000.00
03136             -28.00     9200.00
03137              12.00     9400.00
03138             -26.00     9600.00
03139             -16.00     9800.00
03140             -20.00     9800.00
03141             -46.00     9800.00
03142              -8.00    10000.00
03143             -16.00    10000.00
03144             -16.00    10400.00
03145             -18.00    10400.00
03146             -32.00    10400.00
03147             -46.00    10600.00
03148             -10.00    10800.00
03149              -2.00    10800.00
03150             -18.00    10800.00
03151             -22.00    10800.00
03152             -38.00    11200.00
03153             -34.00    11200.00
03154             -16.00    11400.00
03155             -18.00    11400.00
03156             -22.00    11600.00
03157             -16.00    11600.00
03158             -32.00    11800.00
03159             -26.00    11800.00
03160             -24.00    11800.00
03161             -34.00    11800.00
03162             -22.00    11800.00
03163             -16.00    12000.00
03164             -26.00    12000.00
03165             -30.00    12000.00
03166             -28.00    12200.00
03167             -34.00    12000.00
03168             -24.00    12200.00
03169             -20.00    12200.00
03170             -24.00    12200.00
03171             -24.00    12400.00
03172             -32.00    12400.00
03173             -34.00    12400.00
03174             -30.00    12400.00
03175             -26.00    12600.00
03176             -24.00    12400.00
03177             -22.00    12400.00
03178             -30.00    12600.00
03179             -34.00    12400.00
03180             -32.00    12600.00
03181             -32.00    12600.00
03182             -28.00    12600.00
03183             -22.00    12400.00
03184             -26.00    12600.00
03185             -30.00    12400.00
03186             -34.00    12400.00
03187             -34.00    12400.00
03188             -26.00    12400.00
03189             -22.00    12400.00
03190             -24.00    12400.00
03191             -26.00    12400.00
03192             -32.00    12400.00
03193             -34.00    12400.00
03194             -30.00    12200.00
03195             -20.00    12400.00
03196             -22.00    12200.00
03197             -24.00    12200.00
03198             -28.00    12200.00
03199             -34.00    12000.00
03200             -32.00    12000.00
03201             -26.00    12000.00
03202             -22.00    12000.00
03203             -22.00    12000.00
03204             -24.00    11800.00
03205             -30.00    11800.00
03206             -30.00    11800.00
03207             -30.00    11400.00
03208             -24.00    11400.00
03209             -22.00    11400.00
03210             -22.00    11400.00
03211             -24.00    11200.00
03212             -30.00    11200.00
03213             -32.00    11000.00
03214             -26.00    10800.00
03215             -22.00    10800.00
03216             -20.00    10600.00
03217             -22.00    10400.00
03218             -24.00    10400.00
03219             -26.00    10400.00
03220             -26.00    10000.00
03221             -24.00    10000.00
03222             -22.00    10000.00
03223             -18.00     9800.00
03224             -22.00     9800.00
03225             -26.00     9600.00
03226             -24.00     9400.00
03227             -24.00     9200.00
03228             -22.00     9200.00
03229             -18.00     9000.00
03230             -18.00     8800.00
03231             -22.00     8800.00
03232             -26.00     8400.00
03233             -26.00     8400.00
03234             -24.00     8200.00
03235             -22.00     8000.00
03236             -16.00     8000.00
03237             -18.00     7800.00
03238             -18.00     7600.00
03239             -24.00     7400.00
03240             -20.00     7200.00
03241             -16.00     7200.00
03242             -14.00     7000.00
03243             -14.00     6800.00
03244             -18.00     6600.00
03245             -24.00     6400.00
03246             -24.00     6200.00
03247             -16.00     6000.00
03248             -12.00     5800.00
03249             -12.00     5600.00
03250             -10.00     5600.00
03251             -18.00     5600.00
03252             -24.00     5200.00
03253             -22.00     5000.00
03254             -10.00     4800.00
03255             -10.00     4600.00
03256             -16.00     4400.00
03257             -10.00     4200.00
03258             -10.00     4200.00
03259              -8.00     3800.00
03260             -14.00     3600.00
03261             -16.00     3400.00
03262             -16.00     3200.00
03263              -8.00     3200.00
03264               0.00     2800.00
03265              -6.00     2800.00
03266             -16.00     2600.00
03267             -26.00     2400.00
03268             -16.00     2000.00
03269               2.00     1800.00
03270              14.00     1800.00
03271               0.00     1600.00
03272             -14.00     1400.00
03273             -16.00     1200.00
03274             -14.00     1000.00
03275              -2.00      800.00
03276              10.00      600.00
03277               8.00      400.00
03278              -6.00      200.00
03279             -14.00        0.00
03280               6.00     -400.00
03281              38.00     -400.00
03282              22.00     -600.00
03283             -10.00     -800.00
03284             -22.00     -800.00
03285              -2.00    -1200.00
03286              24.00    -1200.00
03287             118.00    -1600.00
03288             246.00    -1800.00
03289              32.00    -2400.00
03290            -254.00    -2400.00
03291            -254.00    -2600.00
03292              64.00    -2600.00
03293             152.00    -2800.00
03294             246.00    -2800.00
03295              80.00    -3400.00
03296            -254.00    -3200.00
03297              78.00    -3600.00
03298             186.00    -3800.00
03299             -42.00    -3600.00
03300              26.00    -4400.00
03301             -80.00    -4000.00
03302              98.00    -4600.00
03303              68.00    -4800.00
03304            -104.00    -4800.00
03305             -58.00    -5200.00
03306              -6.00    -5000.00
03307             160.00    -5600.00
03308               4.00    -5600.00
03309             -66.00    -5800.00
03310             -10.00    -6200.00
03311              -8.00    -5800.00
03312             106.00    -6600.00
03313              -2.00    -6400.00
03314             -36.00    -6600.00
03315               8.00    -7000.00
03316              30.00    -6800.00
03317              24.00    -7200.00
03318             -28.00    -7200.00
03319              22.00    -7400.00
03320              22.00    -7600.00
03321              32.00    -7800.00
03322              14.00    -8000.00
03323             -26.00    -8200.00
03324              32.00    -8400.00
03325              30.00    -8400.00
03326               0.00    -8600.00
03327               6.00    -8800.00
03328              16.00    -8800.00
03329              24.00    -9200.00
03330              30.00    -9200.00
03331              10.00    -9400.00
03332               2.00    -9400.00
03333              22.00    -9600.00
03334              22.00    -9600.00
03335              14.00    -9800.00
03336              24.00   -10000.00
03337              14.00   -10000.00
03338              10.00   -10000.00
03339              20.00   -10200.00
03340              10.00   -10200.00
03341              26.00   -10400.00
03342              34.00   -10400.00
03343              16.00   -10800.00
03344              10.00   -10800.00
03345              14.00   -10800.00
03346              14.00   -11000.00
03347              28.00   -11000.00
03348              30.00   -11000.00
03349              18.00   -11200.00
03350              18.00   -11200.00
03351              22.00   -11200.00
03352              14.00   -11600.00
03353              22.00   -11600.00
03354              22.00   -11600.00
03355              22.00   -11600.00
03356              28.00   -11800.00
03357              16.00   -12000.00
03358              10.00   -12000.00
03359              18.00   -11800.00
03360              18.00   -11800.00
03361              22.00   -12000.00
03362              26.00   -11800.00
03363              22.00   -12000.00
03364              18.00   -12000.00
03365              22.00   -12000.00
03366              14.00   -12000.00
03367              18.00   -12200.00
03368              26.00   -12000.00
03369              24.00   -12200.00
03370              22.00   -12200.00
03371              16.00   -12200.00
03372              14.00   -12200.00
03373              18.00   -12200.00
03374              28.00   -12000.00
03375              24.00   -12200.00
03376              22.00   -12000.00
03377              18.00   -12000.00
03378              16.00   -12200.00
03379              16.00   -12200.00
03380              18.00   -12000.00
03381              22.00   -12000.00
03382              26.00   -12000.00
03383              22.00   -12000.00
03384              16.00   -12000.00
03385              16.00   -12000.00
03386              16.00   -12000.00
03387              22.00   -11800.00
03388              26.00   -11800.00
03389              24.00   -11800.00
03390              22.00   -11800.00
03391              16.00   -11600.00
03392              16.00   -11600.00
03393              18.00   -11600.00
03394              22.00   -11600.00
03395              24.00   -11400.00
03396              22.00   -11200.00
03397              20.00   -11200.00
03398              16.00   -11200.00
03399              16.00   -11200.00
03400              18.00   -11000.00
03401              22.00   -11000.00
03402              22.00   -11000.00
03403              22.00   -10800.00
03404              20.00   -10800.00
03405              16.00   -10400.00
03406              14.00   -10400.00
03407              18.00   -10200.00
03408              18.00   -10200.00
03409              22.00   -10000.00
03410              22.00   -10000.00
03411              14.00   -10000.00
03412               8.00    -9800.00
03413              12.00    -9600.00
03414              18.00    -9600.00
03415              22.00    -9400.00
03416              22.00    -9400.00
03417              16.00    -9200.00
03418              14.00    -9000.00
03419              12.00    -8800.00
03420              14.00    -8600.00
03421              18.00    -8600.00
03422              18.00    -8400.00
03423              16.00    -8400.00
03424              12.00    -8000.00
03425              10.00    -8000.00
03426              10.00    -7800.00
03427              16.00    -7800.00
03428              14.00    -7400.00
03429              14.00    -7400.00
03430              12.00    -7200.00
03431               8.00    -7000.00
03432               6.00    -7000.00
03433              10.00    -6800.00
03434               8.00    -6600.00
03435              14.00    -6400.00
03436              10.00    -6200.00
03437               8.00    -6000.00
03438               8.00    -6000.00
03439               6.00    -5600.00
03440               8.00    -5600.00
03441               6.00    -5200.00
03442               6.00    -5200.00
03443               6.00    -5000.00
03444               6.00    -4800.00
03445               6.00    -4600.00
03446               2.00    -4400.00
03447               6.00    -4400.00
03448               6.00    -4000.00
03449               6.00    -4000.00
03450               6.00    -3600.00
03451               6.00    -3600.00
03452               0.00    -3200.00
03453               0.00    -3000.00
03454               0.00    -2800.00
03455               4.00    -2800.00
03456               6.00    -2400.00
03457               2.00    -2400.00
03458               0.00    -2200.00
03459              -2.00    -2000.00
03460               0.00    -1800.00
03461               2.00    -1600.00
03462               6.00    -1400.00
03463               2.00    -1000.00
03464              -2.00     -800.00
03465              -2.00     -600.00
03466              -6.00     -400.00
03467               0.00     -400.00
03468               2.00        0.00
03469               0.00      200.00
03470               0.00      400.00
03471               2.00      400.00
03472              22.00      800.00
03473              26.00     1000.00
03474               0.00     1000.00
03475             -18.00     1200.00
03476              -6.00     1400.00
03477              14.00     1600.00
03478              62.00     1800.00
03479             246.00     2200.00
03480             166.00     2600.00
03481            -254.00     2400.00
03482            -254.00     2600.00
03483             -78.00     2800.00
03484             228.00     3000.00
03485             246.00     3400.00
03486             -72.00     3400.00
03487            -254.00     3400.00
03488             226.00     4000.00
03489             152.00     3800.00
03490            -104.00     4200.00
03491              96.00     4400.00
03492            -190.00     4600.00
03493             118.00     4800.00
03494              94.00     5000.00
03495            -214.00     5200.00
03496             -30.00     5400.00
03497              32.00     5600.00
03498              86.00     5800.00
03499             -34.00     5600.00
03500             -36.00     6200.00
03501             -64.00     6000.00
03502             -28.00     6400.00
03503             118.00     6600.00
03504            -104.00     6600.00
03505             -26.00     7200.00
03506               8.00     7200.00
03507             -24.00     7200.00
03508               4.00     7400.00
03509             -54.00     7600.00
03510             -24.00     7800.00
03511              16.00     8000.00
03512              16.00     8200.00
03513             -66.00     8000.00
03514             -16.00     8600.00
03515             -10.00     8800.00
03516             -20.00     8600.00
03517              -8.00     9000.00
03518             -34.00     9000.00
03519             -34.00     9200.00
03520              -2.00     9200.00
03521               6.00     9400.00
03522             -40.00     9600.00
03523             -14.00     9600.00
03524             -48.00     9800.00
03525             -30.00    10000.00
03526              -2.00    10000.00
03527             -16.00    10000.00
03528             -12.00    10400.00
03529             -22.00    10400.00
03530             -42.00    10400.00
03531             -38.00    10600.00
03532               0.00    10800.00
03533             -14.00    10800.00
03534             -14.00    11000.00
03535             -26.00    11000.00
03536             -46.00    11200.00
03537             -28.00    11400.00
03538             -10.00    11400.00
03539             -20.00    11400.00
03540             -16.00    11600.00
03541             -24.00    11800.00
03542             -32.00    11800.00
03543             -22.00    11800.00
03544             -30.00    12000.00
03545             -30.00    12000.00
03546             -14.00    12000.00
03547             -16.00    12000.00
03548             -30.00    12000.00
03549             -28.00    12200.00
03550             -32.00    12400.00
03551             -30.00    12200.00
03552             -18.00    12400.00
03553             -22.00    12200.00
03554             -24.00    12400.00
03555             -30.00    12400.00
03556             -38.00    12400.00
03557             -32.00    12400.00
03558             -20.00    12600.00
03559             -24.00    12400.00
03560             -26.00    12600.00
03561             -26.00    12600.00
03562             -30.00    12600.00
03563             -30.00    12600.00
03564             -26.00    12600.00
03565             -32.00    12400.00
03566             -32.00    12400.00
03567             -30.00    12400.00
03568             -26.00    12600.00
03569             -16.00    12600.00
03570             -16.00    12600.00
03571             -38.00    12400.00
03572             -46.00    12400.00
03573             -38.00    12600.00
03574             -24.00    12400.00
03575             -10.00    12400.00
03576             -18.00    12400.00
03577             -38.00    12400.00
03578             -40.00    12400.00
03579             -32.00    12200.00
03580             -20.00    12400.00
03581             -16.00    12200.00
03582             -32.00    12200.00
03583             -40.00    12000.00
03584             -32.00    12000.00
03585             -24.00    12000.00
03586             -16.00    11800.00
03587             -24.00    11800.00
03588             -40.00    11800.00
03589             -34.00    11600.00
03590             -26.00    11800.00
03591             -18.00    11600.00
03592             -16.00    11400.00
03593             -26.00    11400.00
03594             -34.00    11400.00
03595             -24.00    11200.00
03596             -26.00    10800.00
03597             -26.00    10800.00
03598             -22.00    10800.00
03599             -26.00    10600.00
03600             -26.00    10600.00
03601             -24.00    10600.00
03602             -24.00    10400.00
03603             -22.00    10400.00
03604             -26.00    10200.00
03605             -30.00    10000.00
03606             -20.00    10000.00
03607             -16.00     9800.00
03608             -18.00     9800.00
03609             -26.00     9400.00
03610             -32.00     9200.00
03611             -26.00     9200.00
03612             -14.00     9000.00
03613             -14.00     9000.00
03614             -18.00     8600.00
03615             -24.00     8600.00
03616             -26.00     8800.00
03617             -26.00     8400.00
03618             -22.00     8200.00
03619             -18.00     8000.00
03620             -16.00     8000.00
03621             -22.00     7600.00
03622             -18.00     7600.00
03623             -22.00     7600.00
03624             -18.00     7200.00
03625             -18.00     6800.00
03626             -22.00     7000.00
03627             -20.00     6800.00
03628             -12.00     6600.00
03629             -14.00     6400.00
03630             -16.00     6000.00
03631             -20.00     6000.00
03632             -18.00     5800.00
03633             -16.00     5600.00
03634             -14.00     5600.00
03635             -12.00     5200.00
03636             -16.00     5000.00
03637             -16.00     5000.00
03638             -14.00     4800.00
03639             -10.00     4400.00
03640             -10.00     4400.00
03641             -10.00     4000.00
03642             -14.00     4000.00
03643             -14.00     3600.00
03644             -10.00     3600.00
03645             -10.00     3200.00
03646             -12.00     3200.00
03647             -10.00     3000.00
03648             -10.00     2800.00
03649              -8.00     2600.00
03650              -8.00     2600.00
03651              -8.00     2200.00
03652              -8.00     2000.00
03653              -6.00     1800.00
03654              -8.00     1600.00
03655             -12.00     1600.00
03656              -8.00     1200.00
03657              -2.00     1200.00
03658              -2.00      800.00
03659              -4.00      400.00
03660              -6.00      400.00
03661               0.00      200.00
03662               2.00        0.00
03663               2.00        0.00
03664              26.00     -400.00
03665              20.00     -600.00
03666             -10.00     -600.00
03667             -10.00     -800.00
03668               2.00    -1000.00
03669              14.00    -1200.00
03670              40.00    -1200.00
03671             182.00    -1600.00
03672             246.00    -2000.00
03673            -190.00    -2400.00
03674            -254.00    -2400.00
03675            -146.00    -2400.00
03676             128.00    -2600.00
03677             206.00    -2600.00
03678             246.00    -3000.00
03679            -234.00    -3200.00
03680            -254.00    -3200.00
03681             244.00    -3800.00
03682              26.00    -3600.00
03683               2.00    -4000.00
03684             -32.00    -4400.00
03685             -30.00    -4000.00
03686             154.00    -4800.00
03687             -26.00    -4800.00
03688             -74.00    -5000.00
03689             -54.00    -5200.00
03690              68.00    -5400.00
03691             118.00    -5600.00
03692             -86.00    -5400.00
03693             -24.00    -6000.00
03694             -20.00    -6000.00
03695              58.00    -6000.00
03696              90.00    -6600.00
03697             -46.00    -6200.00
03698              -2.00    -6800.00
03699              14.00    -6800.00
03700              34.00    -7200.00
03701             -18.00    -7200.00
03702             -14.00    -7400.00
03703              30.00    -7600.00
03704              18.00    -7400.00
03705              38.00    -8000.00
03706             -14.00    -8000.00
03707               6.00    -8200.00
03708              48.00    -8400.00
03709              10.00    -8400.00
03710              -8.00    -8800.00
03711               2.00    -8800.00
03712              10.00    -9000.00
03713              24.00    -9000.00
03714              18.00    -9200.00
03715               6.00    -9400.00
03716              14.00    -9400.00
03717              32.00    -9400.00
03718              18.00    -9600.00
03719              16.00    -9800.00
03720              24.00   -10000.00
03721               6.00   -10200.00
03722              14.00   -10200.00
03723              10.00   -10200.00
03724              10.00   -10400.00
03725              34.00   -10400.00
03726              32.00   -10600.00
03727              16.00   -10800.00
03728              18.00   -10800.00
03729              14.00   -10800.00
03730              14.00   -11000.00
03731              24.00   -11000.00
03732              18.00   -11200.00
03733              20.00   -11200.00
03734              26.00   -11200.00
03735              18.00   -11400.00
03736              16.00   -11600.00
03737              22.00   -11600.00
03738              16.00   -11600.00
03739              30.00   -11600.00
03740              32.00   -11800.00
03741              12.00   -11600.00
03742              10.00   -11800.00
03743              16.00   -11800.00
03744              22.00   -12000.00
03745              30.00   -11800.00
03746              26.00   -11800.00
03747              18.00   -12000.00
03748              18.00   -12000.00
03749              18.00   -12000.00
03750              16.00   -12000.00
03751              24.00   -12000.00
03752              26.00   -12000.00
03753              24.00   -12200.00
03754              18.00   -12200.00
03755              14.00   -12200.00
03756              16.00   -12000.00
03757              24.00   -12200.00
03758              26.00   -12000.00
03759              24.00   -12000.00
03760              18.00   -12000.00
03761              16.00   -12000.00
03762              16.00   -12200.00
03763              16.00   -12200.00
03764              22.00   -12000.00
03765              26.00   -12000.00
03766              30.00   -12200.00
03767              18.00   -12000.00
03768              14.00   -12000.00
03769              14.00   -11800.00
03770              18.00   -12000.00
03771              24.00   -11800.00
03772              24.00   -11800.00
03773              22.00   -11800.00
03774              16.00   -11600.00
03775              16.00   -11800.00
03776              16.00   -11600.00
03777              16.00   -11600.00
03778              22.00   -11400.00
03779              26.00   -11600.00
03780              22.00   -11200.00
03781              16.00   -11200.00
03782              10.00   -11200.00
03783              18.00   -11200.00
03784              22.00   -11000.00
03785              24.00   -10800.00
03786              22.00   -11000.00
03787              18.00   -10800.00
03788              10.00   -10800.00
03789              14.00   -10400.00
03790              16.00   -10400.00
03791              22.00   -10200.00
03792              18.00   -10000.00
03793              18.00   -10000.00
03794              16.00   -10000.00
03795              16.00    -9600.00
03796              10.00    -9800.00
03797              14.00    -9400.00
03798              22.00    -9600.00
03799              22.00    -9200.00
03800              18.00    -9200.00
03801              12.00    -9200.00
03802              10.00    -9000.00
03803              14.00    -8800.00
03804              18.00    -8800.00
03805              16.00    -8600.00
03806              18.00    -8400.00
03807              16.00    -8400.00
03808              14.00    -8000.00
03809               8.00    -8000.00
03810               8.00    -7400.00
03811              16.00    -7400.00
03812              16.00    -7400.00
03813              10.00    -7200.00
03814              10.00    -7200.00
03815              10.00    -7000.00
03816              10.00    -6800.00
03817              10.00    -6800.00
03818               8.00    -6400.00
03819              10.00    -6400.00
03820              16.00    -6200.00
03821               8.00    -6000.00
03822               6.00    -5800.00
03823               8.00    -5600.00
03824               8.00    -5400.00
03825              10.00    -5400.00
03826               6.00    -5200.00
03827               6.00    -4800.00
03828               8.00    -4600.00
03829               2.00    -4600.00
03830               2.00    -4400.00
03831               8.00    -4000.00
03832               8.00    -4000.00
03833               6.00    -3800.00
03834               0.00    -3600.00
03835               0.00    -3600.00
03836               6.00    -3200.00
03837               6.00    -2800.00
03838               2.00    -2800.00
03839               2.00    -2600.00
03840               2.00    -2400.00
03841               0.00    -2200.00
03842               2.00    -2000.00
03843               0.00    -2000.00
03844               0.00    -1600.00
03845               2.00    -1400.00
03846               0.00    -1000.00
03847               0.00    -1000.00
03848               0.00     -800.00
03849              -2.00     -600.00
03850              -4.00     -400.00
03851              -2.00     -200.00
03852               0.00        0.00
03853               2.00      200.00
03854               2.00      400.00
03855               6.00      600.00
03856              30.00      800.00
03857              16.00      800.00
03858             -10.00     1000.00
03859             -16.00     1200.00
03860               0.00     1600.00
03861              22.00     1600.00
03862             144.00     1800.00
03863             246.00     2400.00
03864             -98.00     2400.00
03865            -254.00     2600.00
03866            -254.00     2600.00
03867              46.00     2800.00
03868             246.00     3200.00
03869             246.00     3400.00
03870            -254.00     3200.00
03871            -254.00     3600.00
03872             246.00     4000.00
03873             -82.00     4000.00
03874              48.00     4400.00
03875             -34.00     4400.00
03876            -130.00     4800.00
03877             222.00     4800.00
03878             -96.00     5000.00
03879            -144.00     5400.00
03880              16.00     5400.00
03881              54.00     5600.00
03882              50.00     5600.00
03883             -66.00     6000.00
03884             -16.00     6200.00
03885             -96.00     6000.00
03886              80.00     6600.00
03887              30.00     6800.00
03888            -118.00     6600.00
03889              30.00     7200.00
03890             -22.00     7000.00
03891               8.00     7400.00
03892             -26.00     7600.00
03893             -56.00     7800.00
03894             -10.00     7600.00
03895              34.00     8000.00
03896             -22.00     8200.00
03897             -64.00     8200.00
03898              -2.00     8800.00
03899             -24.00     8600.00
03900              -2.00     8800.00
03901             -18.00     9200.00
03902             -38.00     9000.00
03903             -32.00     9200.00
03904              10.00     9200.00
03905             -24.00     9600.00
03906             -26.00     9600.00
03907             -16.00     9800.00
03908             -50.00     9800.00
03909             -10.00    10000.00
03910             -14.00    10000.00
03911             -18.00    10200.00
03912             -16.00    10400.00
03913             -30.00    10400.00
03914             -50.00    10600.00
03915             -14.00    10600.00
03916              -6.00    10800.00
03917             -18.00    10800.00
03918             -22.00    11000.00
03919             -40.00    11200.00
03920             -38.00    11200.00
03921             -16.00    11400.00
03922             -16.00    11600.00
03923             -22.00    11400.00
03924             -18.00    11600.00
03925             -32.00    11600.00
03926             -32.00    11800.00
03927             -22.00    11800.00
03928             -32.00    12000.00
03929             -24.00    11800.00
03930             -16.00    12000.00
03931             -26.00    12000.00
03932             -32.00    12000.00
03933             -26.00    12200.00
03934             -34.00    12200.00
03935             -30.00    12200.00
03936             -18.00    12400.00
03937             -22.00    12400.00
03938             -24.00    12400.00
03939             -30.00    12400.00
03940             -34.00    12400.00
03941             -30.00    12600.00
03942             -26.00    12600.00
03943             -26.00    12400.00
03944             -16.00    12600.00
03945             -22.00    12600.00
03946             -34.00    12800.00
03947             -32.00    12600.00
03948             -30.00    12600.00
03949             -26.00    12400.00
03950             -18.00    12600.00
03951             -26.00    12400.00
03952             -34.00    12400.00
03953             -26.00    12400.00
03954             -36.00    12600.00
03955             -32.00    12400.00
03956             -22.00    12400.00
03957             -24.00    12400.00
03958             -26.00    12200.00
03959             -32.00    12400.00
03960             -38.00    12200.00
03961             -32.00    12400.00
03962             -24.00    12400.00
03963             -24.00    12200.00
03964             -24.00    12200.00
03965             -26.00    12200.00
03966             -34.00    12000.00
03967             -34.00    12000.00
03968             -32.00    12000.00
03969             -26.00    12000.00
03970             -22.00    12000.00
03971             -26.00    12000.00
03972             -26.00    11800.00
03973             -30.00    11600.00
03974             -32.00    11600.00
03975             -26.00    11400.00
03976             -22.00    11400.00
03977             -22.00    11200.00
03978             -26.00    11200.00
03979             -30.00    11200.00
03980             -32.00    11000.00
03981             -30.00    10800.00
03982             -22.00    10600.00
03983             -18.00    10800.00
03984             -22.00    10600.00
03985             -24.00    10400.00
03986             -32.00    10400.00
03987             -26.00    10200.00
03988             -24.00    10000.00
03989             -16.00    10000.00
03990             -16.00     9800.00
03991             -22.00     9800.00
03992             -30.00     9600.00
03993             -26.00     9400.00
03994             -22.00     9200.00
03995             -16.00     9200.00
03996             -16.00     9000.00
03997             -18.00     9000.00
03998             -22.00     8800.00
03999             -24.00     8600.00
04000             -22.00     8400.00
04001             -24.00     8400.00
04002             -16.00     8000.00
04003             -10.00     8000.00
04004             -16.00     7600.00
04005             -18.00     7600.00
04006             -22.00     7400.00
04007             -22.00     7200.00
04008             -16.00     7200.00
04009             -16.00     7000.00
04010             -14.00     6800.00
04011             -10.00     6600.00
04012             -18.00     6400.00
04013             -22.00     6400.00
04014             -18.00     6200.00
04015             -14.00     6000.00
04016             -10.00     5800.00
04017             -14.00     5600.00
04018             -16.00     5400.00
04019             -16.00     5200.00
04020             -14.00     5000.00
04021             -18.00     4800.00
04022             -14.00     4600.00
04023              -8.00     4400.00
04024              -8.00     4400.00
04025             -10.00     4000.00
04026             -16.00     4000.00
04027             -16.00     3600.00
04028             -10.00     3400.00
04029              -8.00     3200.00
04030              -8.00     3200.00
04031              -6.00     2800.00
04032             -14.00     2800.00
04033             -16.00     2600.00
04034             -10.00     2400.00
04035              -2.00     2400.00
04036              -6.00     2000.00
04037             -10.00     1800.00
04038             -10.00     1600.00
04039             -10.00     1400.00
04040              -2.00     1200.00
04041              -2.00     1000.00
04042              -2.00      800.00
04043               2.00      400.00
04044             -10.00      200.00
04045             -12.00      200.00
04046             -10.00        0.00
04047              16.00     -200.00
04048              48.00     -400.00
04049              20.00     -600.00
04050             -26.00     -800.00
04051             -32.00    -1200.00
04052               6.00    -1000.00
04053              42.00    -1400.00
04054             104.00    -1400.00
04055             246.00    -1800.00
04056              76.00    -2200.00
04057            -254.00    -2400.00
04058            -254.00    -2400.00
04059              30.00    -2400.00
04060             144.00    -2600.00
04061             246.00    -2800.00
04062             154.00    -3200.00
04063            -254.00    -3200.00
04064              18.00    -3600.00
04065             226.00    -4000.00
04066             -38.00    -3600.00
04067              26.00    -4400.00
04068             -94.00    -4000.00
04069              72.00    -4400.00
04070             104.00    -4600.00
04071             -88.00    -4800.00
04072             -50.00    -5200.00
04073             -26.00    -5000.00
04074             142.00    -5400.00
04075              26.00    -5600.00
04076             -74.00    -5600.00
04077               2.00    -6200.00
04078              -8.00    -6000.00
04079              96.00    -6400.00
04080               6.00    -6400.00
04081             -42.00    -6400.00
04082              10.00    -7000.00
04083              26.00    -6800.00
04084              30.00    -7200.00
04085             -26.00    -7200.00
04086              26.00    -7600.00
04087              22.00    -7600.00
04088              16.00    -7800.00
04089              10.00    -8000.00
04090             -24.00    -8000.00
04091              34.00    -8400.00
04092              40.00    -8400.00
04093               0.00    -8600.00
04094              -2.00    -8800.00
04095               4.00    -8800.00
04096              16.00    -9000.00
04097              28.00    -9200.00
04098              18.00    -9200.00
04099               6.00    -9400.00
04100              22.00    -9600.00
04101              16.00    -9600.00
04102               2.00    -9800.00
04103              16.00    -9800.00
04104              18.00   -10000.00
04105              18.00   -10200.00
04106              28.00   -10200.00
04107               6.00   -10200.00
04108              14.00   -10400.00
04109              32.00   -10400.00
04110              18.00   -10800.00
04111              14.00   -10800.00
04112              16.00   -10800.00
04113              14.00   -11000.00
04114              24.00   -11000.00
04115              26.00   -11000.00
04116              16.00   -11200.00
04117              18.00   -11200.00
04118              22.00   -11200.00
04119              16.00   -11400.00
04120              22.00   -11600.00
04121              22.00   -11400.00
04122              16.00   -11600.00
04123              24.00   -11600.00
04124              18.00   -11800.00
04125              12.00   -11800.00
04126              24.00   -11800.00
04127              24.00   -11800.00
04128              22.00   -12000.00
04129              24.00   -11800.00
04130              22.00   -12000.00
04131              18.00   -12000.00
04132              18.00   -12200.00
04133              16.00   -12000.00
04134              16.00   -12200.00
04135              30.00   -12000.00
04136              30.00   -12000.00
04137              24.00   -12000.00
04138              16.00   -12000.00
04139              14.00   -12000.00
04140              18.00   -12000.00
04141              30.00   -12200.00
04142              26.00   -12000.00
04143              24.00   -12000.00
04144              22.00   -12000.00
04145              16.00   -12200.00
04146              12.00   -12400.00
04147              16.00   -12000.00
04148              22.00   -12000.00
04149              26.00   -12000.00
04150              24.00   -12000.00
04151              16.00   -12000.00
04152              14.00   -11800.00
04153              16.00   -12000.00
04154              16.00   -12000.00
04155              22.00   -11800.00
04156              26.00   -11800.00
04157              24.00   -11800.00
04158              18.00   -11600.00
04159              10.00   -11800.00
04160              10.00   -11600.00
04161              22.00   -11400.00
04162              24.00   -11400.00
04163              22.00   -11400.00
04164              18.00   -11200.00
04165              16.00   -11200.00
04166              18.00   -11200.00
04167              16.00   -11000.00
04168              16.00   -11000.00
04169              20.00   -11000.00
04170              18.00   -10800.00
04171              16.00   -10800.00
04172              16.00   -10800.00
04173              18.00   -10400.00
04174              18.00   -10400.00
04175              20.00   -10200.00
04176              22.00   -10200.00
04177              16.00   -10000.00
04178              16.00    -9800.00
04179              14.00   -10000.00
04180              14.00    -9600.00
04181              16.00    -9600.00
04182              18.00    -9400.00
04183              18.00    -9200.00
04184              16.00    -9200.00
04185              14.00    -9000.00
04186              14.00    -8800.00
04187              14.00    -8800.00
04188              16.00    -8600.00
04189              16.00    -8400.00
04190              16.00    -8400.00
04191              14.00    -8200.00
04192              10.00    -8000.00
04193              14.00    -7800.00
04194              14.00    -7600.00
04195              16.00    -7400.00
04196              16.00    -7400.00
04197              14.00    -7200.00
04198              14.00    -7200.00
04199               8.00    -7000.00
04200               6.00    -6800.00
04201              10.00    -6800.00
04202              16.00    -6400.00
04203              16.00    -6200.00
04204               8.00    -6200.00
04205               6.00    -5800.00
04206               6.00    -5600.00
04207               8.00    -5400.00
04208               8.00    -5400.00
04209               8.00    -5200.00
04210              10.00    -5000.00
04211              10.00    -4800.00
04212               2.00    -4600.00
04213               0.00    -4600.00
04214               6.00    -4000.00
04215               8.00    -4000.00
04216              10.00    -3800.00
04217               2.00    -3600.00
04218              -2.00    -3600.00
04219               0.00    -3200.00
04220               4.00    -3000.00
04221               4.00    -3000.00
04222               6.00    -2600.00
04223               4.00    -2400.00
04224               0.00    -2200.00
04225              -4.00    -2000.00
04226              -2.00    -2000.00
04227               2.00    -1600.00
04228               8.00    -1600.00
04229               6.00    -1200.00
04230              -2.00    -1000.00
04231              -6.00    -1000.00
04232              -4.00     -800.00
04233               0.00     -600.00
04234               0.00     -400.00
04235              -2.00     -200.00
04236              -2.00        0.00
04237               0.00      400.00
04238               2.00      400.00
04239              18.00      800.00
04240              30.00      800.00
04241               2.00     1000.00
04242             -16.00     1000.00
04243             -10.00     1200.00
04244              14.00     1400.00
04245              50.00     1800.00
04246             246.00     2000.00
04247             218.00     2600.00
04248            -254.00     2400.00
04249            -254.00     2600.00
04250            -120.00     2800.00
04251             182.00     3000.00
04252             246.00     3400.00
04253              70.00     3400.00
04254            -254.00     3200.00
04255             140.00     3800.00
04256             222.00     4000.00
04257            -120.00     4200.00
04258             108.00     4400.00
04259            -178.00     4400.00
04260              66.00     4600.00
04261             144.00     4800.00
04262            -202.00     5200.00
04263             -48.00     5200.00
04264              26.00     5600.00
04265              80.00     5800.00
04266             -22.00     5600.00
04267             -40.00     6200.00
04268             -46.00     6200.00
04269             -46.00     6200.00
04270             120.00     6800.00
04271             -90.00     6600.00
04272             -48.00     7000.00
04273              22.00     7200.00
04274             -24.00     7200.00
04275              14.00     7400.00
04276             -54.00     7600.00
04277             -34.00     7600.00
04278              10.00     7800.00
04279              24.00     8000.00
04280             -66.00     8000.00
04281             -30.00     8400.00
04282              -6.00     8800.00
04283             -18.00     8600.00
04284              -6.00     9000.00
04285             -38.00     9000.00
04286             -38.00     9200.00
04287             -14.00     9200.00
04288               6.00     9600.00
04289             -34.00     9600.00
04290             -14.00     9600.00
04291             -40.00     9800.00
04292             -34.00     9800.00
04293              -4.00    10000.00
04294             -18.00    10000.00
04295             -16.00    10400.00
04296             -28.00    10400.00
04297             -42.00    10600.00
04298             -36.00    10600.00
04299               2.00    11000.00
04300             -14.00    10800.00
04301             -24.00    10800.00
04302             -26.00    11200.00
04303             -40.00    11200.00
04304             -32.00    11400.00
04305             -16.00    11400.00
04306             -22.00    11400.00
04307             -18.00    11400.00
04308             -16.00    11800.00
04309             -38.00    11800.00
04310             -30.00    11800.00
04311             -32.00    12000.00
04312             -34.00    11800.00
04313             -14.00    12000.00
04314             -10.00    12000.00
04315             -24.00    12000.00
04316             -32.00    12200.00
04317             -40.00    12200.00
04318             -32.00    12400.00
04319             -14.00    12400.00
04320             -14.00    12400.00
04321             -26.00    12200.00
04322             -34.00    12400.00
04323             -42.00    12400.00
04324             -32.00    12400.00
04325             -16.00    12400.00
04326             -16.00    12400.00
04327             -24.00    12400.00
04328             -26.00    12400.00
04329             -34.00    12600.00
04330             -32.00    12800.00
04331             -24.00    12800.00
04332             -26.00    12600.00
04333             -26.00    12800.00
04334             -24.00    12600.00
04335             -30.00    12600.00
04336             -26.00    12800.00
04337             -30.00    12600.00
04338             -34.00    12600.00
04339             -26.00    12400.00
04340             -22.00    12200.00
04341             -24.00    12200.00
04342             -26.00    12400.00
04343             -34.00    12400.00
04344             -38.00    12200.00
04345             -26.00    12400.00
04346             -18.00    12200.00
04347             -18.00    12200.00
04348             -28.00    12200.00
04349             -34.00    12200.00
04350             -34.00    12000.00
04351             -28.00    12000.00
04352             -24.00    12000.00
04353             -22.00    11800.00
04354             -24.00    11800.00
04355             -30.00    11800.00
04356             -30.00    11800.00
04357             -30.00    11600.00
04358             -30.00    11800.00
04359             -24.00    11200.00
04360             -22.00    11400.00
04361             -22.00    11200.00
04362             -30.00    11200.00
04363             -32.00    11200.00
04364             -30.00    10800.00
04365             -24.00    10800.00
04366             -22.00    10600.00
04367             -18.00    10400.00
04368             -24.00    10600.00
04369             -22.00    10200.00
04370             -26.00    10400.00
04371             -26.00    10000.00
04372             -26.00    10000.00
04373             -22.00    10000.00
04374             -16.00     9600.00
04375             -18.00     9600.00
04376             -26.00     9600.00
04377             -26.00     9400.00
04378             -24.00     9200.00
04379             -18.00     9000.00
04380             -16.00     9000.00
04381             -16.00     8600.00
04382             -22.00     8800.00
04383             -24.00     8600.00
04384             -26.00     8400.00
04385             -22.00     8200.00
04386             -16.00     8200.00
04387             -16.00     8000.00
04388             -18.00     7600.00
04389             -16.00     7600.00
04390             -22.00     7600.00
04391             -16.00     7400.00
04392             -18.00     7200.00
04393             -16.00     6800.00
04394             -10.00     6800.00
04395             -16.00     6600.00
04396             -22.00     6400.00
04397             -18.00     6200.00
04398             -12.00     6000.00
04399             -10.00     5800.00
04400             -14.00     5600.00
04401             -16.00     5400.00
04402             -16.00     5400.00
04403             -16.00     5200.00
04404             -14.00     4800.00
04405             -18.00     4800.00
04406             -16.00     4400.00
04407              -6.00     4400.00
04408              -6.00     4200.00
04409             -16.00     4000.00
04410             -24.00     3600.00
04411             -14.00     3600.00
04412              -8.00     3400.00
04413              -4.00     3200.00
04414             -10.00     3200.00
04415             -10.00     2800.00
04416              -8.00     2600.00
04417             -10.00     2400.00
04418             -14.00     2200.00
04419             -10.00     2000.00
04420             -12.00     1800.00
04421              -4.00     1600.00
04422               2.00     1600.00
04423               0.00     1200.00
04424             -14.00      800.00
04425             -22.00      800.00
04426             -16.00      800.00
04427               6.00      400.00
04428              10.00      200.00
04429               2.00      200.00
04430               0.00        0.00
04431              22.00     -400.00
04432              18.00     -600.00
04433             -10.00     -600.00
04434             -18.00     -800.00
04435               8.00    -1000.00
04436              26.00    -1200.00
04437              32.00    -1400.00
04438             150.00    -1400.00
04439             246.00    -2000.00
04440            -136.00    -2400.00
04441            -254.00    -2400.00
04442            -196.00    -2600.00
04443             112.00    -2800.00
04444             182.00    -2400.00
04445             246.00    -3000.00
04446            -168.00    -3200.00
04447            -254.00    -3000.00
04448             224.00    -3800.00
04449              72.00    -3600.00
04450               0.00    -3600.00
04451             -10.00    -4400.00
04452             -54.00    -4000.00
04453             144.00    -4800.00
04454             -22.00    -4800.00
04455             -90.00    -4800.00
04456             -42.00    -5200.00
04457              60.00    -5200.00
04458             148.00    -5600.00
04459             -66.00    -5400.00
04460             -32.00    -6000.00
04461             -14.00    -6000.00
04462              34.00    -6000.00
04463              88.00    -6600.00
04464             -46.00    -6200.00
04465              -8.00    -6800.00
04466              16.00    -6800.00
04467              46.00    -7000.00
04468              -2.00    -7400.00
04469             -22.00    -7200.00
04470              26.00    -7800.00
04471              18.00    -7600.00
04472              44.00    -7800.00
04473              -4.00    -7800.00
04474             -10.00    -8000.00
04475              34.00    -8400.00
04476              10.00    -8600.00
04477               6.00    -8800.00
04478              14.00    -8600.00
04479               6.00    -9000.00
04480              16.00    -9200.00
04481              30.00    -9200.00
04482              22.00    -9400.00
04483              10.00    -9400.00
04484               6.00    -9600.00
04485              -2.00    -9600.00
04486              22.00    -9800.00
04487              42.00   -10000.00
04488              16.00   -10200.00
04489              10.00   -10200.00
04490              -2.00   -10200.00
04491              -2.00   -10400.00
04492              30.00   -10400.00
04493              40.00   -10400.00
04494              30.00   -10800.00
04495              14.00   -10800.00
04496               0.00   -10800.00
04497               2.00   -11000.00
04498              18.00   -11200.00
04499              26.00   -11200.00
04500              26.00   -11200.00
04501              30.00   -11200.00
04502              18.00   -11200.00
04503               6.00   -11400.00
04504              14.00   -11600.00
04505              24.00   -11600.00
04506              30.00   -11600.00
04507              22.00   -11600.00
04508               8.00   -11800.00
04509              10.00   -11800.00
04510              26.00   -11800.00
04511              30.00   -12000.00
04512              24.00   -12000.00
04513              22.00   -12000.00
04514              20.00   -12000.00
04515              16.00   -12000.00
04516              18.00   -12000.00
04517              18.00   -12000.00
04518              26.00   -12200.00
04519              30.00   -12200.00
04520              18.00   -12000.00
04521              16.00   -12000.00
04522              22.00   -12000.00
04523              24.00   -12200.00
04524              20.00   -12200.00
04525              16.00   -12000.00
04526              26.00   -12000.00
04527              32.00   -12000.00
04528              26.00   -12200.00
04529              10.00   -12200.00
04530              10.00   -12000.00
04531              22.00   -12000.00
04532              26.00   -12000.00
04533              32.00   -12000.00
04534              22.00   -12000.00
04535              10.00   -12000.00
04536               8.00   -12000.00
04537              18.00   -11800.00
04538              32.00   -11800.00
04539              34.00   -11800.00
04540              18.00   -11800.00
04541              10.00   -11800.00
04542              10.00   -11600.00
04543              18.00   -11600.00
04544              30.00   -11600.00
04545              28.00   -11400.00
04546              24.00   -11200.00
04547              10.00   -11200.00
04548               8.00   -11200.00
04549              16.00   -11200.00
04550              24.00   -11200.00
04551              30.00   -11000.00
04552              24.00   -11000.00
04553              14.00   -11000.00
04554              10.00   -10800.00
04555              16.00   -10600.00
04556              22.00   -10400.00
04557              20.00   -10400.00
04558              16.00   -10400.00
04559              14.00   -10200.00
04560              18.00   -10000.00
04561              22.00   -10000.00
04562              18.00   -10000.00
04563              16.00    -9600.00
04564              14.00    -9600.00
04565              14.00    -9400.00
04566              14.00    -9400.00
04567              16.00    -9200.00
04568              18.00    -9200.00
04569              16.00    -9000.00
04570              10.00    -8800.00
04571               8.00    -8800.00
04572              14.00    -8600.00
04573              18.00    -8400.00
04574              22.00    -8200.00
04575              14.00    -8000.00
04576              10.00    -8000.00
04577               8.00    -7800.00
04578              10.00    -7400.00
04579              14.00    -7600.00
04580              14.00    -7400.00
04581              16.00    -7200.00
04582              14.00    -7200.00
04583              10.00    -7000.00
04584               8.00    -6800.00
04585              10.00    -6400.00
04586              10.00    -6400.00
04587              14.00    -6200.00
04588              10.00    -6000.00
04589               8.00    -5800.00
04590               6.00    -5600.00
04591               6.00    -5400.00
04592              10.00    -5200.00
04593               8.00    -4800.00
04594               8.00    -4800.00
04595               6.00    -4600.00
04596               2.00    -4600.00
04597               6.00    -4400.00
04598              10.00    -4000.00
04599              10.00    -4000.00
04600               4.00    -3800.00
04601              -2.00    -3600.00
04602              -6.00    -3400.00
04603               2.00    -3200.00
04604               6.00    -3000.00
04605              10.00    -2800.00
04606               8.00    -2600.00
04607              -2.00    -2400.00
04608              -6.00    -2400.00
04609              -6.00    -2000.00
04610               0.00    -2000.00
04611               6.00    -1600.00
04612               0.00    -1400.00
04613               2.00    -1000.00
04614               0.00    -1000.00
04615               0.00     -800.00
04616              -6.00     -600.00
04617              -8.00     -600.00
04618              -2.00     -200.00
04619               6.00        0.00
04620               0.00      200.00
04621              -2.00      400.00
04622               0.00      400.00
04623              26.00      800.00
04624              22.00     1000.00
04625              -8.00     1200.00
04626             -18.00     1200.00
04627               2.00     1600.00
04628              18.00     1600.00
04629             112.00     1800.00
04630             246.00     2400.00
04631             -24.00     2600.00
04632            -254.00     2600.00
04633            -254.00     2600.00
04634              14.00     2800.00
04635             246.00     3200.00
04636             246.00     3600.00
04637            -254.00     3400.00
04638            -254.00     3600.00
04639             246.00     4000.00
04640             -38.00     4000.00
04641               8.00     4200.00
04642              10.00     4400.00
04643            -168.00     4400.00
04644             214.00     4800.00
04645             -56.00     5000.00
04646            -170.00     5200.00
04647              12.00     5400.00
04648              46.00     5600.00
04649              58.00     5600.00
04650             -68.00     6000.00
04651             -14.00     6200.00
04652             -86.00     6200.00
04653              54.00     6600.00
04654              54.00     6600.00
04655            -124.00     6800.00
04656              22.00     7200.00
04657             -16.00     7000.00
04658               0.00     7400.00
04659             -16.00     7400.00
04660             -56.00     7600.00
04661             -14.00     7600.00
04662              26.00     8000.00
04663             -12.00     8200.00
04664             -68.00     8000.00
04665              -2.00     8400.00
04666             -24.00     8400.00
04667              -8.00     8800.00
04668             -16.00     9000.00
04669             -34.00     8800.00
04670             -34.00     9000.00
04671               6.00     9200.00
04672             -18.00     9400.00
04673             -28.00     9600.00
04674             -10.00     9800.00
04675             -54.00     9800.00
04676             -16.00    10000.00
04677             -12.00    10000.00
04678             -16.00    10000.00
04679             -18.00    10400.00
04680             -26.00    10400.00
04681             -48.00    10400.00
04682             -22.00    10600.00
04683              -2.00    10800.00
04684             -24.00    10800.00
04685             -18.00    11200.00
04686             -34.00    11000.00
04687             -40.00    11200.00
04688             -20.00    11400.00
04689             -16.00    11400.00
04690             -26.00    11400.00
04691             -18.00    11800.00
04692             -30.00    11800.00
04693             -30.00    11800.00
04694             -18.00    11800.00
04695             -34.00    12000.00
04696             -30.00    12000.00
04697             -14.00    12000.00
04698             -22.00    12000.00
04699             -30.00    12000.00
04700             -30.00    12200.00
04701             -34.00    12200.00
04702             -24.00    12200.00
04703             -18.00    12400.00
04704             -24.00    12400.00
04705             -24.00    12400.00
04706             -28.00    12400.00
04707             -34.00    12400.00
04708             -26.00    12400.00
04709             -24.00    12600.00
04710             -26.00    12400.00
04711             -18.00    12600.00
04712             -26.00    12600.00
04713             -32.00    12600.00
04714             -26.00    12600.00
04715             -26.00    12600.00
04716             -30.00    12400.00
04717             -24.00    12400.00
04718             -22.00    12600.00
04719             -26.00    12400.00
04720             -30.00    12600.00
04721             -32.00    12400.00
04722             -26.00    12400.00
04723             -22.00    12400.00
04724             -24.00    12400.00
04725             -24.00    12400.00
04726             -32.00    12200.00
04727             -32.00    12400.00
04728             -30.00    12400.00
04729             -24.00    12400.00
04730             -24.00    12400.00
04731             -24.00    12200.00
04732             -26.00    12200.00
04733             -32.00    12200.00
04734             -32.00    12000.00
04735             -24.00    12000.00
04736             -22.00    12000.00
04737             -24.00    11800.00
04738             -30.00    11600.00
04739             -30.00    11800.00
04740             -26.00    11800.00
04741             -26.00    11400.00
04742             -26.00    11400.00
04743             -24.00    11400.00
04744             -18.00    11200.00
04745             -26.00    11200.00
04746             -28.00    11200.00
04747             -26.00    10800.00
04748             -30.00    10800.00
04749             -24.00    10800.00
04750             -24.00    10600.00
04751             -24.00    10600.00
04752             -24.00    10400.00
04753             -26.00    10400.00
04754             -30.00    10000.00
04755             -26.00    10000.00
04756             -24.00    10000.00
04757             -20.00     9800.00
04758             -22.00     9600.00
04759             -26.00     9600.00
04760             -24.00     9400.00
04761             -24.00     9200.00
04762             -22.00     9200.00
04763             -18.00     9000.00
04764             -14.00     8800.00
04765             -18.00     8800.00
04766             -26.00     8600.00
04767             -26.00     8400.00
04768             -24.00     8400.00
04769             -16.00     8200.00
04770             -16.00     8000.00
04771             -16.00     8000.00
04772             -16.00     7600.00
04773             -18.00     7600.00
04774             -24.00     7400.00
04775             -22.00     7200.00
04776             -16.00     7000.00
04777             -10.00     6800.00
04778             -18.00     6600.00
04779             -24.00     6400.00
04780             -16.00     6400.00
04781              -8.00     6200.00
04782             -12.00     6000.00
04783             -18.00     5800.00
04784             -18.00     5600.00
04785             -14.00     5400.00
04786             -10.00     5200.00
04787             -14.00     5200.00
04788             -18.00     5000.00
04789             -16.00     4600.00
04790              -8.00     4400.00
04791              -6.00     4400.00
04792             -10.00     4000.00
04793             -14.00     4000.00
04794             -16.00     3600.00
04795             -14.00     3400.00
04796             -10.00     3400.00
04797              -8.00     3200.00
04798              -8.00     2800.00
04799             -10.00     2800.00
04800             -14.00     2600.00
04801             -10.00     2400.00
04802             -10.00     2200.00
04803             -10.00     1800.00
04804              -6.00     1800.00
04805              -2.00     1600.00
04806              -2.00     1200.00
04807             -12.00     1200.00
04808             -16.00      800.00
04809             -10.00      800.00
04810               2.00      600.00
04811               6.00      400.00
04812              -2.00      200.00
04813              -4.00        0.00
04814              10.00        0.00
04815              32.00     -400.00
04816              10.00     -400.00
04817             -16.00     -800.00
04818             -14.00    -1000.00
04819               8.00    -1200.00
04820              16.00    -1000.00
04821              70.00    -1400.00
04822             246.00    -1600.00
04823             144.00    -2200.00
04824            -254.00    -2400.00
04825            -254.00    -2400.00
04826             -14.00    -2800.00
04827             144.00    -2600.00
04828             246.00    -2600.00
04829             222.00    -3200.00
04830            -254.00    -3200.00
04831             -60.00    -3600.00
04832             246.00    -4000.00
04833             -38.00    -3600.00
04834              30.00    -4000.00
04835             -72.00    -4000.00
04836              48.00    -4400.00
04837             116.00    -4800.00
04838             -88.00    -4800.00
04839             -66.00    -5200.00
04840             -32.00    -5000.00
04841             140.00    -5400.00
04842              62.00    -5600.00
04843             -82.00    -5400.00
04844              -2.00    -6200.00
04845             -24.00    -6000.00
04846              90.00    -6400.00
04847              30.00    -6400.00
04848             -46.00    -6400.00
04849              14.00    -7000.00
04850              22.00    -6800.00
04851              32.00    -7200.00
04852             -28.00    -7200.00
04853              16.00    -7400.00
04854              26.00    -7600.00
04855              28.00    -7800.00
04856              26.00    -8000.00
04857             -32.00    -7800.00
04858              18.00    -8200.00
04859              38.00    -8400.00
04860              10.00    -8400.00
04861               4.00    -8800.00
04862              10.00    -8800.00
04863              16.00    -9200.00
04864              28.00    -9000.00
04865              16.00    -9200.00
04866               2.00    -9400.00
04867              16.00    -9400.00
04868              22.00    -9600.00
04869              10.00    -9600.00
04870              18.00    -9800.00
04871              22.00   -10000.00
04872              12.00   -10200.00
04873              20.00   -10200.00
04874               2.00   -10400.00
04875              14.00   -10200.00
04876              32.00   -10400.00
04877              24.00   -10800.00
04878              10.00   -10800.00
04879               6.00   -10800.00
04880              12.00   -11000.00
04881              22.00   -11000.00
04882              32.00   -11000.00
04883              18.00   -11200.00
04884              16.00   -11400.00
04885              22.00   -11400.00
04886              12.00   -11600.00
04887              16.00   -11600.00
04888              22.00   -11600.00
04889              20.00   -11600.00
04890              30.00   -11800.00
04891              22.00   -11800.00
04892               8.00   -11800.00
04893              22.00   -11800.00
04894              24.00   -11800.00
04895              18.00   -11800.00
04896              24.00   -12000.00
04897              28.00   -12000.00
04898              20.00   -12000.00
04899              18.00   -12000.00
04900              14.00   -12000.00
04901              18.00   -12000.00
04902              30.00   -12000.00
04903              26.00   -12000.00
04904              22.00   -12200.00
04905              22.00   -12000.00
04906              14.00   -12000.00
04907              18.00   -12200.00
04908              28.00   -12000.00
04909              24.00   -12000.00
04910              26.00   -12000.00
04911              22.00   -12000.00
04912              14.00   -12000.00
04913              18.00   -12200.00
04914              22.00   -12000.00
04915              24.00   -12000.00
04916              26.00   -12000.00
04917              24.00   -11800.00
04918              18.00   -12000.00
04919              18.00   -12000.00
04920              16.00   -12000.00
04921              16.00   -11800.00
04922              24.00   -11800.00
04923              24.00   -11800.00
04924              22.00   -11800.00
04925              16.00   -11800.00
04926              16.00   -11600.00
04927              18.00   -11800.00
04928              20.00   -11600.00
04929              22.00   -11600.00
04930              22.00   -11200.00
04931              18.00   -11400.00
04932              16.00   -11200.00
04933              14.00   -11200.00
04934              16.00   -11200.00
04935              20.00   -11000.00
04936              22.00   -11000.00
04937              16.00   -10800.00
04938              18.00   -10800.00
04939              14.00   -10400.00
04940              14.00   -10600.00
04941              14.00   -10400.00
04942              16.00   -10200.00
04943              22.00   -10200.00
04944              18.00   -10000.00
04945              14.00   -10000.00
04946              10.00   -10000.00
04947              14.00    -9600.00
04948              16.00    -9600.00
04949              18.00    -9400.00
04950              16.00    -9200.00
04951              16.00    -9200.00
04952              16.00    -9000.00
04953              10.00    -8800.00
04954              10.00    -8800.00
04955              16.00    -8600.00
04956              16.00    -8400.00
04957              16.00    -8400.00
04958              10.00    -8000.00
04959               8.00    -8000.00
04960              10.00    -8000.00
04961              14.00    -7800.00
04962              14.00    -7400.00
04963              14.00    -7400.00
04964              14.00    -7200.00
04965              12.00    -7200.00
04966               8.00    -6800.00
04967               6.00    -6800.00
04968              12.00    -6600.00
04969              16.00    -6400.00
04970              10.00    -6200.00
04971               8.00    -6200.00
04972               6.00    -6000.00
04973               6.00    -5600.00
04974              10.00    -5400.00
04975              10.00    -5200.00
04976              10.00    -5200.00
04977               8.00    -5200.00
04978               6.00    -4800.00
04979               6.00    -4800.00
04980               6.00    -4600.00
04981               6.00    -4400.00
04982               6.00    -4200.00
04983               6.00    -3800.00
04984               6.00    -3600.00
04985               6.00    -3600.00
04986               2.00    -3200.00
04987               0.00    -3200.00
04988               2.00    -2800.00
04989               4.00    -2800.00
04990               8.00    -2400.00
04991               2.00    -2200.00
04992              -2.00    -2200.00
04993              -2.00    -2000.00
04994              -2.00    -1600.00
04995               0.00    -1600.00
04996               0.00    -1400.00
04997               0.00    -1200.00
04998               0.00    -1000.00
04999              -2.00     -800.00
05000              -6.00     -400.00
