Unit:(mV)
                     CH1         CH2
Frequency              ? 260.712 kHz
00001              -4.00    -3200.00
00002               4.00    -3000.00
00003               0.00    -2800.00
00004               2.00    -2400.00
00005               0.00    -2400.00
00006              -2.00    -2200.00
00007              -6.00    -2000.00
00008              -6.00    -1800.00
00009              -2.00    -1400.00
00010               2.00    -1400.00
00011               2.00    -1000.00
00012              -2.00     -800.00
00013              -2.00     -800.00
00014              -2.00     -600.00
00015              -2.00     -400.00
00016              -2.00     -200.00
00017              -2.00      200.00
00018               0.00      200.00
00019               0.00      400.00
00020               6.00      400.00
00021              32.00      800.00
00022              22.00      800.00
00023              -8.00     1000.00
00024             -16.00     1200.00
00025               0.00     1400.00
00026              22.00     1600.00
00027             144.00     2000.00
00028             246.00     2200.00
00029             -72.00     2400.00
00030            -254.00     2600.00
00031            -254.00     2600.00
00032              40.00     2800.00
00033             246.00     3200.00
00034             246.00     3400.00
00035            -254.00     3200.00
00036            -254.00     3400.00
00037             246.00     3600.00
00038             -16.00     3800.00
00039              78.00     4000.00
00040             -74.00     4400.00
00041            -192.00     4200.00
00042             246.00     4800.00
00043             -56.00     4800.00
00044            -170.00     5000.00
00045               8.00     5400.00
00046              40.00     5600.00
00047              94.00     5400.00
00048             -46.00     5600.00
00049             -40.00     6000.00
00050            -104.00     5800.00
00051              98.00     6400.00
00052              80.00     6400.00
00053            -134.00     6400.00
00054              28.00     6800.00
00055             -26.00     6800.00
00056              26.00     7200.00
00057              10.00     7200.00
00058             -68.00     7400.00
00059              -6.00     7600.00
00060              42.00     7600.00
00061              -2.00     7800.00
00062             -56.00     7800.00
00063              14.00     8200.00
00064             -16.00     8200.00
00065              14.00     8400.00
00066               0.00     8400.00
00067             -42.00     8400.00
00068             -16.00     9000.00
00069              22.00     9000.00
00070              -2.00     9200.00
00071             -14.00     9200.00
00072              -4.00     9400.00
00073             -40.00     9600.00
00074               8.00     9600.00
00075               0.00     9800.00
00076              -8.00     9800.00
00077               2.00     9800.00
00078             -22.00    10000.00
00079             -32.00    10000.00
00080               0.00    10000.00
00081              14.00    10400.00
00082              -8.00    10400.00
00083              -6.00    10600.00
00084             -30.00    10600.00
00085             -20.00    10800.00
00086               0.00    10800.00
00087              -2.00    10800.00
00088              -6.00    11200.00
00089               0.00    11200.00
00090             -14.00    11200.00
00091             -12.00    11400.00
00092              -8.00    11400.00
00093             -18.00    11400.00
00094              -6.00    11400.00
00095               2.00    11400.00
00096              -8.00    11800.00
00097             -12.00    11600.00
00098             -10.00    11800.00
00099             -14.00    11800.00
00100             -10.00    11600.00
00101              -2.00    12000.00
00102             -10.00    12000.00
00103              -2.00    12000.00
00104             -12.00    12000.00
00105             -18.00    12000.00
00106             -10.00    12200.00
00107              -8.00    12000.00
00108              -8.00    12000.00
00109              -6.00    12000.00
00110             -10.00    12000.00
00111             -18.00    12000.00
00112             -16.00    12000.00
00113             -14.00    12200.00
00114              -8.00    12000.00
00115              -2.00    12000.00
00116              -8.00    12000.00
00117             -16.00    12000.00
00118             -16.00    12000.00
00119             -20.00    12000.00
00120             -10.00    12000.00
00121              -2.00    12000.00
00122              -6.00    12000.00
00123              -8.00    12000.00
00124             -14.00    11800.00
00125             -22.00    11800.00
00126             -16.00    11800.00
00127             -10.00    11600.00
00128              -8.00    11800.00
00129              -2.00    11800.00
00130              -6.00    11800.00
00131             -18.00    11600.00
00132             -22.00    11600.00
00133             -14.00    11400.00
00134              -6.00    11400.00
00135               0.00    11400.00
00136             -10.00    11400.00
00137             -16.00    11200.00
00138             -16.00    11200.00
00139             -12.00    11000.00
00140             -10.00    11000.00
00141              -6.00    10800.00
00142              -8.00    10800.00
00143              -8.00    10600.00
00144             -10.00    10800.00
00145             -16.00    10600.00
00146             -10.00    10400.00
00147              -6.00    10400.00
00148              -6.00    10000.00
00149              -8.00    10000.00
00150             -14.00    10000.00
00151             -14.00     9800.00
00152              -6.00     9800.00
00153             -10.00     9800.00
00154              -6.00     9600.00
00155              -4.00     9400.00
00156              -8.00     9200.00
00157             -10.00     9200.00
00158             -16.00     9000.00
00159             -14.00     9000.00
00160              -6.00     8800.00
00161              -6.00     8600.00
00162              -8.00     8400.00
00163              -8.00     8400.00
00164             -10.00     8200.00
00165             -10.00     8000.00
00166             -12.00     8000.00
00167             -10.00     7800.00
00168              -2.00     7600.00
00169              -6.00     7400.00
00170             -10.00     7200.00
00171             -16.00     7200.00
00172             -14.00     7000.00
00173              -2.00     6800.00
00174               0.00     6800.00
00175             -16.00     6600.00
00176             -12.00     6400.00
00177              -6.00     6200.00
00178              -6.00     6000.00
00179              -8.00     5800.00
00180              -2.00     5800.00
00181              -2.00     5600.00
00182              -2.00     5200.00
00183             -16.00     5400.00
00184             -18.00     5000.00
00185             -10.00     5000.00
00186               0.00     4800.00
00187               6.00     4400.00
00188              -2.00     4200.00
00189             -24.00     4000.00
00190             -22.00     3800.00
00191               2.00     3800.00
00192              14.00     3600.00
00193              -6.00     3400.00
00194             -26.00     3200.00
00195             -16.00     2800.00
00196               2.00     2800.00
00197               2.00     2600.00
00198              -2.00     2600.00
00199              -6.00     2400.00
00200             -12.00     1800.00
00201             -10.00     1800.00
00202               0.00     1600.00
00203               2.00     1400.00
00204              -2.00     1200.00
00205             -10.00     1000.00
00206             -10.00     1000.00
00207              -8.00      600.00
00208              -2.00      400.00
00209               6.00      400.00
00210              10.00      200.00
00211              -2.00        0.00
00212               0.00     -400.00
00213              26.00     -400.00
00214              10.00     -600.00
00215             -12.00     -800.00
00216             -10.00     -800.00
00217               6.00    -1000.00
00218              22.00    -1200.00
00219              82.00    -1400.00
00220             246.00    -1600.00
00221             108.00    -2200.00
00222            -254.00    -2400.00
00223            -254.00    -2400.00
00224               2.00    -2600.00
00225             182.00    -2600.00
00226             246.00    -2800.00
00227             126.00    -3200.00
00228            -254.00    -3000.00
00229               8.00    -3600.00
00230             246.00    -3800.00
00231               0.00    -3400.00
00232               0.00    -4000.00
00233            -160.00    -4000.00
00234              58.00    -4400.00
00235             154.00    -4600.00
00236             -82.00    -4400.00
00237            -104.00    -5200.00
00238             -58.00    -4800.00
00239             166.00    -5200.00
00240              62.00    -5400.00
00241             -98.00    -5400.00
00242             -48.00    -6000.00
00243             -30.00    -5600.00
00244             128.00    -6200.00
00245              22.00    -6200.00
00246             -80.00    -6200.00
00247             -10.00    -6600.00
00248              20.00    -6400.00
00249              38.00    -7000.00
00250             -38.00    -7000.00
00251              -6.00    -7200.00
00252              16.00    -7400.00
00253              20.00    -7400.00
00254              14.00    -7800.00
00255             -48.00    -7600.00
00256              14.00    -8000.00
00257              24.00    -8000.00
00258              -8.00    -8200.00
00259             -10.00    -8400.00
00260              -6.00    -8400.00
00261              14.00    -8800.00
00262              16.00    -8600.00
00263               2.00    -8800.00
00264             -16.00    -9200.00
00265               2.00    -9200.00
00266              14.00    -9200.00
00267               0.00    -9400.00
00268              14.00    -9400.00
00269               2.00    -9600.00
00270              -8.00    -9600.00
00271               6.00    -9800.00
00272              -6.00    -9800.00
00273               8.00   -10000.00
00274              26.00   -10000.00
00275               2.00   -10200.00
00276              -2.00   -10200.00
00277              -6.00   -10400.00
00278              -8.00   -10400.00
00279              10.00   -10600.00
00280              22.00   -10600.00
00281               6.00   -10800.00
00282               0.00   -10800.00
00283               0.00   -10800.00
00284              -6.00   -11000.00
00285               8.00   -11000.00
00286               8.00   -11000.00
00287               6.00   -11000.00
00288              16.00   -11200.00
00289               4.00   -11400.00
00290              -6.00   -11200.00
00291               0.00   -11600.00
00292               2.00   -11400.00
00293              10.00   -11600.00
00294              14.00   -11400.00
00295               6.00   -11600.00
00296               4.00   -11600.00
00297               4.00   -11600.00
00298               0.00   -11600.00
00299               0.00   -11600.00
00300               6.00   -11600.00
00301              12.00   -11600.00
00302              10.00   -11600.00
00303               4.00   -11800.00
00304              -4.00   -11800.00
00305               0.00   -11600.00
00306               8.00   -11600.00
00307               8.00   -11600.00
00308               8.00   -11800.00
00309               6.00   -11600.00
00310               0.00   -11600.00
00311              -2.00   -11600.00
00312               0.00   -11600.00
00313              10.00   -11600.00
00314              14.00   -11600.00
00315               6.00   -11600.00
00316              -2.00   -11600.00
00317              -2.00   -11400.00
00318               2.00   -11400.00
00319               6.00   -11200.00
00320               8.00   -11400.00
00321               8.00   -11200.00
00322               2.00   -11200.00
00323               0.00   -11200.00
00324               2.00   -11200.00
00325               2.00   -11200.00
00326               6.00   -11000.00
00327               8.00   -11000.00
00328               6.00   -11000.00
00329               2.00   -10800.00
00330               2.00   -10800.00
00331               0.00   -10400.00
00332               2.00   -10400.00
00333               6.00   -10600.00
00334               8.00   -10400.00
00335               8.00   -10200.00
00336              -2.00   -10200.00
00337              -4.00   -10200.00
00338               0.00   -10000.00
00339               6.00   -10000.00
00340               8.00   -10000.00
00341               6.00    -9600.00
00342               4.00    -9600.00
00343               4.00    -9600.00
00344               0.00    -9400.00
00345              -2.00    -9400.00
00346               2.00    -9200.00
00347               8.00    -9000.00
00348               8.00    -8800.00
00349               2.00    -8800.00
00350              -2.00    -8800.00
00351               0.00    -8600.00
00352               2.00    -8400.00
00353               6.00    -8400.00
00354               6.00    -8000.00
00355               6.00    -8000.00
00356               0.00    -7800.00
00357              -2.00    -7600.00
00358              -6.00    -7600.00
00359               0.00    -7400.00
00360              10.00    -7200.00
00361               6.00    -7200.00
00362               0.00    -6800.00
00363               0.00    -6800.00
00364              -2.00    -6800.00
00365              -2.00    -6400.00
00366               0.00    -6400.00
00367               4.00    -6200.00
00368               6.00    -6000.00
00369               0.00    -6000.00
00370              -6.00    -5600.00
00371              -2.00    -5400.00
00372               0.00    -5200.00
00373               0.00    -5200.00
00374               2.00    -4800.00
00375               0.00    -4800.00
00376              -6.00    -4600.00
00377              -2.00    -4400.00
00378              -2.00    -4400.00
00379              -2.00    -4000.00
00380               0.00    -3800.00
00381               0.00    -3800.00
00382               0.00    -3600.00
00383               0.00    -3400.00
00384              -2.00    -3000.00
00385              -2.00    -3000.00
00386             -14.00    -2800.00
00387             -10.00    -2800.00
00388               2.00    -2400.00
00389              12.00    -2200.00
00390               8.00    -2200.00
00391             -10.00    -2000.00
00392             -16.00    -1600.00
00393             -10.00    -1600.00
00394               0.00    -1000.00
00395               6.00    -1000.00
00396               8.00     -800.00
00397              -6.00     -600.00
00398             -14.00     -400.00
00399             -10.00     -400.00
00400               0.00        0.00
00401               8.00        0.00
00402               6.00      200.00
00403              -8.00      400.00
00404              16.00      600.00
00405              36.00      800.00
00406              12.00      800.00
00407             -16.00     1000.00
00408             -16.00     1200.00
00409               6.00     1600.00
00410              54.00     1600.00
00411             246.00     2000.00
00412             246.00     2400.00
00413            -254.00     2400.00
00414            -254.00     2600.00
00415            -166.00     2600.00
00416             242.00     2800.00
00417             246.00     3200.00
00418              54.00     3200.00
00419            -254.00     3200.00
00420             134.00     3800.00
00421             246.00     3600.00
00422             -70.00     4000.00
00423             114.00     4200.00
00424            -248.00     4200.00
00425              62.00     4600.00
00426             224.00     4800.00
00427            -206.00     5000.00
00428             -62.00     5000.00
00429              14.00     5400.00
00430              88.00     5600.00
00431              34.00     5600.00
00432             -48.00     5800.00
00433             -64.00     5800.00
00434             -58.00     6000.00
00435             160.00     6600.00
00436             -66.00     6400.00
00437             -64.00     6600.00
00438              36.00     6800.00
00439             -26.00     6800.00
00440              54.00     7200.00
00441             -46.00     7400.00
00442             -48.00     7400.00
00443              22.00     7600.00
00444              46.00     7600.00
00445             -38.00     7800.00
00446             -28.00     8000.00
00447               0.00     8200.00
00448             -16.00     8200.00
00449              30.00     8600.00
00450             -24.00     8400.00
00451             -38.00     8800.00
00452               0.00     9000.00
00453              18.00     9000.00
00454             -16.00     9000.00
00455               0.00     9200.00
00456             -26.00     9600.00
00457             -26.00     9400.00
00458              16.00     9600.00
00459             -10.00     9600.00
00460               2.00     9800.00
00461              -8.00    10000.00
00462             -32.00    10000.00
00463             -18.00    10200.00
00464              16.00    10400.00
00465               0.00    10400.00
00466             -10.00    10400.00
00467             -14.00    10800.00
00468             -30.00    10600.00
00469              -8.00    10800.00
00470               2.00    10800.00
00471              -6.00    10800.00
00472              -4.00    11200.00
00473              -6.00    11200.00
00474             -18.00    11400.00
00475              -8.00    11400.00
00476             -10.00    11400.00
00477             -16.00    11400.00
00478               0.00    11400.00
00479               0.00    11800.00
00480             -10.00    11600.00
00481             -16.00    11800.00
00482             -16.00    11800.00
00483             -18.00    11600.00
00484               0.00    12000.00
00485               0.00    11800.00
00486             -10.00    11800.00
00487             -10.00    12000.00
00488             -16.00    12000.00
00489             -14.00    12000.00
00490              -6.00    12000.00
00491             -12.00    12200.00
00492              -8.00    12000.00
00493              -2.00    12200.00
00494             -10.00    12000.00
00495             -16.00    12000.00
00496             -16.00    12200.00
00497             -16.00    12200.00
00498              -4.00    12000.00
00499               0.00    12000.00
00500             -10.00    12000.00
00501             -14.00    12000.00
00502             -16.00    12000.00
00503             -18.00    12000.00
00504              -6.00    12000.00
00505              -2.00    12000.00
00506             -10.00    12000.00
00507             -14.00    12000.00
00508             -20.00    12000.00
00509             -16.00    11800.00
00510              -8.00    11600.00
00511              -8.00    11800.00
00512             -12.00    11800.00
00513             -10.00    11800.00
00514             -10.00    11800.00
00515             -10.00    11400.00
00516             -10.00    11800.00
00517             -16.00    11400.00
00518             -10.00    11400.00
00519              -8.00    11200.00
00520             -10.00    11200.00
00521              -8.00    11200.00
00522             -14.00    11000.00
00523             -18.00    10800.00
00524             -14.00    10800.00
00525              -8.00    10800.00
00526               0.00    10600.00
00527             -10.00    10600.00
00528             -16.00    10600.00
00529             -16.00    10600.00
00530             -10.00    10400.00
00531              -6.00    10200.00
00532              -2.00    10000.00
00533             -10.00    10000.00
00534             -14.00    10000.00
00535             -10.00     9800.00
00536             -14.00     9800.00
00537             -10.00     9600.00
00538              -4.00     9600.00
00539              -6.00     9400.00
00540              -8.00     9200.00
00541             -14.00     9200.00
00542             -14.00     9000.00
00543              -8.00     9000.00
00544              -6.00     8600.00
00545              -8.00     8400.00
00546              -6.00     8400.00
00547             -10.00     8200.00
00548             -10.00     8200.00
00549             -14.00     8000.00
00550             -10.00     8000.00
00551              -2.00     7600.00
00552              -4.00     7600.00
00553              -8.00     7400.00
00554              -8.00     7200.00
00555             -10.00     7000.00
00556              -8.00     6800.00
00557             -10.00     6800.00
00558              -8.00     6600.00
00559              -2.00     6400.00
00560              -6.00     6400.00
00561             -12.00     6000.00
00562             -10.00     6000.00
00563             -10.00     5800.00
00564              -2.00     5600.00
00565              -6.00     5600.00
00566              -8.00     5200.00
00567             -10.00     5200.00
00568              -6.00     5000.00
00569             -12.00     4800.00
00570             -10.00     4600.00
00571              -2.00     4400.00
00572              -2.00     4200.00
00573              -6.00     4000.00
00574             -10.00     4000.00
00575             -10.00     3600.00
00576              -6.00     3600.00
00577              -2.00     3400.00
00578              -6.00     3200.00
00579              -8.00     2800.00
00580              -8.00     2800.00
00581              -8.00     2600.00
00582              -6.00     2400.00
00583              -6.00     2000.00
00584              -8.00     2000.00
00585              -2.00     1800.00
00586              -2.00     1600.00
00587              -6.00     1400.00
00588              -6.00     1200.00
00589              -8.00     1000.00
00590              -6.00      800.00
00591              -2.00      600.00
00592              -2.00      400.00
00593               2.00      200.00
00594               0.00      200.00
00595               2.00        0.00
00596              24.00     -200.00
00597              22.00     -400.00
00598             -10.00     -800.00
00599             -22.00     -800.00
00600              -2.00     -800.00
00601              18.00    -1200.00
00602              38.00    -1400.00
00603             150.00    -1400.00
00604             246.00    -2000.00
00605            -122.00    -2200.00
00606            -254.00    -2400.00
00607            -246.00    -2600.00
00608             110.00    -2600.00
00609             246.00    -2400.00
00610             246.00    -3000.00
00611            -254.00    -3200.00
00612            -254.00    -3000.00
00613             246.00    -3800.00
00614             134.00    -3600.00
00615               8.00    -3600.00
00616             -74.00    -4200.00
00617            -110.00    -3800.00
00618             178.00    -4600.00
00619              32.00    -4400.00
00620            -114.00    -4800.00
00621             -96.00    -4800.00
00622              42.00    -4800.00
00623             182.00    -5400.00
00624             -50.00    -5200.00
00625             -72.00    -5800.00
00626             -50.00    -5800.00
00627              38.00    -6000.00
00628             118.00    -6400.00
00629             -58.00    -6200.00
00630             -42.00    -6400.00
00631               0.00    -6800.00
00632              42.00    -6800.00
00633               0.00    -7000.00
00634             -38.00    -7000.00
00635              14.00    -7400.00
00636               8.00    -7400.00
00637              32.00    -7600.00
00638             -20.00    -7800.00
00639             -30.00    -7800.00
00640              32.00    -8200.00
00641               8.00    -8000.00
00642             -12.00    -8400.00
00643             -10.00    -8400.00
00644               2.00    -8600.00
00645              22.00    -8800.00
00646              12.00    -8800.00
00647             -10.00    -8800.00
00648             -10.00    -9200.00
00649              10.00    -9200.00
00650               8.00    -9400.00
00651               6.00    -9400.00
00652              10.00    -9600.00
00653              -8.00    -9600.00
00654               0.00    -9800.00
00655               0.00    -9800.00
00656              -2.00   -10000.00
00657              20.00   -10000.00
00658              18.00   -10000.00
00659               0.00   -10200.00
00660              -4.00   -10400.00
00661              -8.00   -10400.00
00662              -2.00   -10600.00
00663              16.00   -10400.00
00664              14.00   -10800.00
00665               4.00   -10800.00
00666               2.00   -10800.00
00667              -2.00   -11000.00
00668               0.00   -11200.00
00669               6.00   -11000.00
00670               6.00   -11200.00
00671               8.00   -11000.00
00672              10.00   -11200.00
00673              -2.00   -11200.00
00674              -4.00   -11200.00
00675               6.00   -11200.00
00676              10.00   -11400.00
00677              14.00   -11400.00
00678               6.00   -11600.00
00679               2.00   -11600.00
00680               0.00   -11400.00
00681               6.00   -11600.00
00682               0.00   -11600.00
00683               6.00   -11600.00
00684              14.00   -11600.00
00685              10.00   -11600.00
00686               6.00   -11600.00
00687              -2.00   -11600.00
00688               0.00   -11600.00
00689              10.00   -11800.00
00690              10.00   -11600.00
00691               6.00   -11600.00
00692               0.00   -11800.00
00693               2.00   -11800.00
00694              -2.00   -11800.00
00695               0.00   -11600.00
00696               8.00   -11600.00
00697              10.00   -11600.00
00698               8.00   -11600.00
00699              -2.00   -11600.00
00700              -2.00   -11600.00
00701               6.00   -11600.00
00702               0.00   -11400.00
00703               6.00   -11400.00
00704              12.00   -11200.00
00705               8.00   -11200.00
00706               0.00   -11200.00
00707              -2.00   -11200.00
00708              -6.00   -11200.00
00709               2.00   -11000.00
00710              14.00   -11000.00
00711              14.00   -10800.00
00712               6.00   -10800.00
00713              -2.00   -11000.00
00714             -10.00   -10800.00
00715               2.00   -10800.00
00716              12.00   -10400.00
00717              14.00   -10400.00
00718               8.00   -10200.00
00719              -2.00   -10400.00
00720              -2.00   -10000.00
00721               6.00   -10000.00
00722               8.00   -10000.00
00723               4.00   -10000.00
00724              -2.00    -9800.00
00725               2.00    -9600.00
00726               6.00    -9600.00
00727               6.00    -9400.00
00728              -2.00    -9400.00
00729               0.00    -9200.00
00730               0.00    -9200.00
00731               8.00    -8800.00
00732               8.00    -8800.00
00733               4.00    -8800.00
00734               6.00    -8600.00
00735              -2.00    -8400.00
00736              -2.00    -8400.00
00737               6.00    -8000.00
00738               8.00    -8000.00
00739               8.00    -7800.00
00740               0.00    -7800.00
00741              -8.00    -7600.00
00742               0.00    -7400.00
00743               8.00    -7400.00
00744               8.00    -7200.00
00745               2.00    -7000.00
00746               0.00    -6800.00
00747              -2.00    -6800.00
00748               0.00    -6400.00
00749               0.00    -6400.00
00750               6.00    -6200.00
00751              10.00    -6200.00
00752               2.00    -6000.00
00753              -6.00    -5800.00
00754              -2.00    -5600.00
00755               2.00    -5400.00
00756               6.00    -5400.00
00757               6.00    -5200.00
00758               0.00    -4800.00
00759               0.00    -4600.00
00760               0.00    -4600.00
00761              -8.00    -4400.00
00762              -2.00    -4400.00
00763               2.00    -4000.00
00764               4.00    -3800.00
00765               0.00    -3600.00
00766              -6.00    -3400.00
00767              -6.00    -3200.00
00768               0.00    -3200.00
00769               0.00    -3000.00
00770               0.00    -2800.00
00771               0.00    -2400.00
00772               0.00    -2400.00
00773               0.00    -2200.00
00774              -2.00    -2000.00
00775             -10.00    -2000.00
00776              -6.00    -1600.00
00777               0.00    -1200.00
00778               6.00    -1200.00
00779               6.00    -1000.00
00780              -2.00     -800.00
00781             -10.00     -800.00
00782             -10.00     -600.00
00783              -2.00     -200.00
00784               2.00        0.00
00785               6.00      200.00
00786               0.00      400.00
00787               6.00      400.00
00788              28.00      800.00
00789              22.00      800.00
00790              -8.00     1000.00
00791             -18.00     1000.00
00792               4.00     1400.00
00793              22.00     1600.00
00794             112.00     1800.00
00795             246.00     2400.00
00796               2.00     2400.00
00797            -254.00     2400.00
00798            -254.00     2600.00
00799               0.00     2800.00
00800             246.00     3000.00
00801             246.00     3200.00
00802            -254.00     3200.00
00803            -254.00     3400.00
00804             246.00     3800.00
00805              38.00     3800.00
00806              48.00     4200.00
00807             -26.00     4400.00
00808            -234.00     4400.00
00809             246.00     4600.00
00810               6.00     5000.00
00811            -194.00     5000.00
00812               6.00     5400.00
00813              32.00     5400.00
00814             106.00     5400.00
00815             -28.00     5600.00
00816             -38.00     6000.00
00817            -106.00     5800.00
00818              64.00     6400.00
00819             106.00     6400.00
00820            -128.00     6400.00
00821              26.00     6800.00
00822             -14.00     6600.00
00823              10.00     6800.00
00824              18.00     7200.00
00825             -68.00     7400.00
00826               0.00     7400.00
00827              46.00     7600.00
00828               6.00     7800.00
00829             -64.00     7600.00
00830               2.00     8200.00
00831             -14.00     8200.00
00832              14.00     8400.00
00833               8.00     8800.00
00834             -42.00     8400.00
00835             -22.00     8800.00
00836              16.00     9000.00
00837               2.00     9200.00
00838             -16.00     9200.00
00839               0.00     9200.00
00840             -42.00     9400.00
00841               6.00     9600.00
00842               2.00     9600.00
00843             -10.00     9600.00
00844               0.00    10000.00
00845             -18.00    10000.00
00846             -32.00    10200.00
00847              -4.00    10000.00
00848              14.00    10400.00
00849             -10.00    10400.00
00850              -2.00    10600.00
00851             -24.00    10600.00
00852             -24.00    10600.00
00853               0.00    10800.00
00854              -2.00    10800.00
00855             -10.00    10800.00
00856               0.00    11200.00
00857             -16.00    11200.00
00858             -16.00    11200.00
00859              -6.00    11200.00
00860             -18.00    11400.00
00861             -10.00    11400.00
00862               6.00    11800.00
00863              -6.00    11400.00
00864             -10.00    11800.00
00865             -14.00    11800.00
00866             -22.00    11800.00
00867             -10.00    11600.00
00868               2.00    12000.00
00869              -8.00    12000.00
00870              -8.00    12000.00
00871             -10.00    12000.00
00872             -20.00    12000.00
00873             -12.00    12000.00
00874              -8.00    12000.00
00875              -8.00    12000.00
00876               0.00    12000.00
00877             -10.00    12000.00
00878             -18.00    12000.00
00879             -10.00    12200.00
00880             -10.00    12000.00
00881              -8.00    12000.00
00882              -4.00    12200.00
00883             -10.00    12000.00
00884             -10.00    12000.00
00885             -14.00    12000.00
00886             -18.00    12000.00
00887             -12.00    12000.00
00888              -2.00    12000.00
00889              -6.00    12000.00
00890              -8.00    12000.00
00891             -18.00    11800.00
00892             -18.00    12000.00
00893             -14.00    11800.00
00894             -10.00    11800.00
00895              -6.00    11800.00
00896              -6.00    11600.00
00897             -12.00    11600.00
00898             -18.00    11800.00
00899             -18.00    11600.00
00900             -12.00    11800.00
00901              -4.00    11400.00
00902              -6.00    11400.00
00903             -10.00    11200.00
00904             -16.00    11200.00
00905             -16.00    11200.00
00906             -10.00    11200.00
00907             -12.00    10800.00
00908              -8.00    10800.00
00909              -6.00    10800.00
00910             -10.00    10600.00
00911             -16.00    10600.00
00912             -14.00    10400.00
00913             -14.00    10400.00
00914             -10.00    10400.00
00915             -10.00    10200.00
00916              -6.00    10000.00
00917              -2.00    10000.00
00918             -14.00    10000.00
00919             -24.00     9800.00
00920             -14.00     9800.00
00921               0.00     9600.00
00922               2.00     9400.00
00923             -10.00     9600.00
00924             -22.00     9200.00
00925             -10.00     9200.00
00926               0.00     9000.00
00927             -10.00     8800.00
00928             -16.00     8600.00
00929              -4.00     8600.00
00930               0.00     8400.00
00931              -8.00     8200.00
00932             -16.00     8200.00
00933             -16.00     8000.00
00934               0.00     7800.00
00935               0.00     7600.00
00936             -10.00     7600.00
00937              -8.00     7200.00
00938              -8.00     7200.00
00939              -8.00     7000.00
00940              -6.00     6800.00
00941             -10.00     6800.00
00942              -8.00     6400.00
00943              -8.00     6400.00
00944              -8.00     6200.00
00945              -2.00     6200.00
00946              -2.00     5800.00
00947             -10.00     5800.00
00948              -8.00     5600.00
00949              -2.00     5400.00
00950              -8.00     5200.00
00951              -8.00     5200.00
00952             -10.00     5000.00
00953              -6.00     4600.00
00954              -2.00     4400.00
00955              -6.00     4200.00
00956              -8.00     4000.00
00957              -8.00     4000.00
00958              -8.00     3600.00
00959              -6.00     3600.00
00960              -8.00     3400.00
00961              -6.00     3200.00
00962              -4.00     3000.00
00963              -2.00     2800.00
00964              -8.00     2600.00
00965              -8.00     2400.00
00966              -8.00     2200.00
00967              -6.00     2000.00
00968              -4.00     2000.00
00969              -2.00     1800.00
00970              -2.00     1600.00
00971              -2.00     1200.00
00972              -6.00     1000.00
00973             -10.00     1000.00
00974             -10.00      800.00
00975               0.00      400.00
00976               6.00      400.00
00977               2.00      200.00
00978              -2.00        0.00
00979               8.00     -400.00
00980              30.00     -400.00
00981              10.00     -600.00
00982             -18.00     -800.00
00983             -16.00     -800.00
00984              10.00    -1000.00
00985              20.00    -1200.00
00986              64.00    -1400.00
00987             242.00    -1600.00
00988             158.00    -2200.00
00989            -254.00    -2400.00
00990            -254.00    -2400.00
00991             -48.00    -2800.00
00992             174.00    -2400.00
00993             246.00    -2600.00
00994             214.00    -3200.00
00995            -254.00    -3200.00
00996             -84.00    -3200.00
00997             246.00    -3800.00
00998              14.00    -3400.00
00999              16.00    -4000.00
01000            -146.00    -4000.00
01001              24.00    -4200.00
01002             166.00    -4600.00
01003             -72.00    -4600.00
01004            -102.00    -4800.00
01005             -66.00    -4800.00
01006             150.00    -5400.00
01007              90.00    -5200.00
01008             -96.00    -5400.00
01009             -44.00    -6000.00
01010             -40.00    -5600.00
01011             112.00    -6000.00
01012              46.00    -6200.00
01013             -78.00    -6200.00
01014             -10.00    -6600.00
01015              16.00    -6400.00
01016              40.00    -7000.00
01017             -32.00    -7000.00
01018             -14.00    -7000.00
01019              14.00    -7400.00
01020              22.00    -7200.00
01021              24.00    -7800.00
01022             -48.00    -7800.00
01023               2.00    -8000.00
01024              28.00    -8000.00
01025               0.00    -8200.00
01026              -4.00    -8400.00
01027             -12.00    -8400.00
01028               6.00    -8600.00
01029              22.00    -8800.00
01030               6.00    -8800.00
01031             -18.00    -9000.00
01032              -4.00    -9200.00
01033              12.00    -9200.00
01034               8.00    -9400.00
01035               8.00    -9400.00
01036              -2.00    -9600.00
01037             -10.00    -9600.00
01038               6.00   -10000.00
01039               0.00    -9600.00
01040               6.00   -10000.00
01041              14.00   -10000.00
01042               2.00   -10200.00
01043              -2.00   -10400.00
01044               0.00   -10200.00
01045              -2.00   -10400.00
01046               6.00   -10400.00
01047              10.00   -10800.00
01048               2.00   -10800.00
01049               0.00   -10800.00
01050               6.00   -10800.00
01051              -2.00   -11000.00
01052               2.00   -11000.00
01053               8.00   -11000.00
01054               8.00   -11200.00
01055              14.00   -11200.00
01056               2.00   -11200.00
01057              -8.00   -11400.00
01058               2.00   -11400.00
01059              10.00   -11200.00
01060               8.00   -11600.00
01061               6.00   -11400.00
01062              10.00   -11600.00
01063               6.00   -11600.00
01064               2.00   -11600.00
01065              -6.00   -11600.00
01066              -2.00   -11600.00
01067              18.00   -11600.00
01068              22.00   -11800.00
01069               6.00   -11800.00
01070              -2.00   -11600.00
01071              -8.00   -11600.00
01072               2.00   -11800.00
01073              16.00   -11600.00
01074               8.00   -11800.00
01075               8.00   -11600.00
01076               6.00   -11600.00
01077              -6.00   -11600.00
01078               0.00   -11600.00
01079              10.00   -11600.00
01080              14.00   -11600.00
01081              14.00   -11400.00
01082               2.00   -11600.00
01083              -6.00   -11600.00
01084               6.00   -11400.00
01085               0.00   -11600.00
01086               2.00   -11600.00
01087               8.00   -11200.00
01088               8.00   -11200.00
01089               6.00   -11200.00
01090               2.00   -11200.00
01091              -2.00   -11200.00
01092               4.00   -11200.00
01093               8.00   -11200.00
01094               2.00   -11000.00
01095               2.00   -10800.00
01096               6.00   -11000.00
01097               6.00   -10800.00
01098               2.00   -10800.00
01099               2.00   -10800.00
01100               4.00   -10400.00
01101               6.00   -10400.00
01102               2.00   -10400.00
01103               0.00   -10200.00
01104               2.00   -10200.00
01105               4.00   -10000.00
01106               2.00   -10000.00
01107               0.00   -10000.00
01108               4.00    -9800.00
01109               8.00    -9600.00
01110               8.00    -9600.00
01111               2.00    -9400.00
01112              -6.00    -9200.00
01113              -2.00    -9200.00
01114               8.00    -9000.00
01115              14.00    -8800.00
01116              10.00    -8800.00
01117               2.00    -8800.00
01118              -6.00    -8600.00
01119              -8.00    -8400.00
01120               6.00    -8400.00
01121              10.00    -8000.00
01122               8.00    -8000.00
01123               4.00    -7800.00
01124              -6.00    -7800.00
01125               0.00    -7400.00
01126               8.00    -7400.00
01127               6.00    -7200.00
01128               8.00    -7000.00
01129               4.00    -7000.00
01130              -6.00    -7000.00
01131              -8.00    -6600.00
01132              -6.00    -6400.00
01133               6.00    -6400.00
01134              16.00    -6200.00
01135               6.00    -6000.00
01136              -8.00    -6000.00
01137              -6.00    -5600.00
01138               0.00    -5600.00
01139               6.00    -5200.00
01140               8.00    -5200.00
01141               0.00    -5000.00
01142               0.00    -4800.00
01143               0.00    -4600.00
01144              -6.00    -4400.00
01145               0.00    -4400.00
01146               6.00    -4000.00
01147               6.00    -4000.00
01148               0.00    -3600.00
01149              -6.00    -3400.00
01150              -6.00    -3400.00
01151               0.00    -3200.00
01152              -2.00    -3200.00
01153              -2.00    -2800.00
01154               2.00    -2400.00
01155               0.00    -2400.00
01156               0.00    -2200.00
01157              -2.00    -2200.00
01158              -6.00    -1800.00
01159               0.00    -1800.00
01160              -2.00    -1600.00
01161              -2.00    -1400.00
01162               0.00    -1000.00
01163               2.00    -1000.00
01164              -2.00     -600.00
01165              -6.00     -600.00
01166              -8.00     -200.00
01167              -2.00        0.00
01168               2.00        0.00
01169               6.00      200.00
01170               2.00      400.00
01171              16.00      400.00
01172              26.00      800.00
01173               6.00     1000.00
01174             -18.00     1200.00
01175              -8.00     1200.00
01176              14.00     1400.00
01177              38.00     1600.00
01178             230.00     2000.00
01179             246.00     2400.00
01180            -254.00     2200.00
01181            -254.00     2600.00
01182            -210.00     2600.00
01183             182.00     2800.00
01184             246.00     3200.00
01185             202.00     3400.00
01186            -254.00     3200.00
01187              24.00     3600.00
01188             246.00     4000.00
01189             -78.00     4000.00
01190             118.00     4400.00
01191            -220.00     4400.00
01192              -2.00     4400.00
01193             246.00     4800.00
01194            -184.00     5000.00
01195             -86.00     5000.00
01196              14.00     5200.00
01197              80.00     5600.00
01198              54.00     5400.00
01199             -50.00     6000.00
01200             -52.00     6000.00
01201             -76.00     6000.00
01202             154.00     6600.00
01203             -32.00     6400.00
01204             -82.00     6600.00
01205              42.00     6800.00
01206             -32.00     6800.00
01207              46.00     7200.00
01208             -32.00     7200.00
01209             -46.00     7400.00
01210              22.00     7400.00
01211              40.00     7800.00
01212             -34.00     7800.00
01213             -38.00     8000.00
01214               8.00     8200.00
01215             -22.00     8200.00
01216              22.00     8400.00
01217             -16.00     8600.00
01218             -38.00     8800.00
01219              -8.00     8800.00
01220              22.00     9000.00
01221             -14.00     9000.00
01222              -2.00     9400.00
01223             -22.00     9200.00
01224             -34.00     9400.00
01225              16.00     9600.00
01226              -6.00     9800.00
01227              -2.00     9800.00
01228              -6.00    10000.00
01229             -30.00    10000.00
01230             -26.00    10000.00
01231              14.00    10400.00
01232               0.00    10400.00
01233              -8.00    10400.00
01234              -8.00    10600.00
01235             -32.00    10800.00
01236             -16.00    10800.00
01237               0.00    10800.00
01238              -6.00    10800.00
01239              -6.00    10800.00
01240              -6.00    11200.00
01241             -18.00    11400.00
01242              -6.00    11400.00
01243             -10.00    11400.00
01244             -20.00    11400.00
01245               0.00    11400.00
01246               2.00    11400.00
01247             -14.00    11800.00
01248             -14.00    11800.00
01249             -18.00    11800.00
01250             -16.00    11800.00
01251              -2.00    11800.00
01252              -2.00    12000.00
01253              -8.00    12000.00
01254              -6.00    12000.00
01255             -16.00    12000.00
01256             -20.00    12000.00
01257             -10.00    12000.00
01258             -10.00    12000.00
01259               0.00    12000.00
01260              -4.00    12000.00
01261             -16.00    12000.00
01262             -16.00    12200.00
01263             -10.00    12000.00
01264             -10.00    12200.00
01265              -8.00    12000.00
01266              -4.00    12200.00
01267              -8.00    12000.00
01268             -12.00    12000.00
01269             -18.00    12000.00
01270             -16.00    12000.00
01271              -6.00    12000.00
01272              -2.00    12000.00
01273              -8.00    12000.00
01274             -10.00    12000.00
01275             -16.00    12000.00
01276             -16.00    12000.00
01277             -10.00    11800.00
01278              -6.00    11800.00
01279              -6.00    11600.00
01280              -6.00    11800.00
01281             -16.00    11800.00
01282             -18.00    11800.00
01283             -16.00    11400.00
01284              -8.00    11400.00
01285              -8.00    11400.00
01286              -8.00    11200.00
01287             -10.00    11200.00
01288             -12.00    11200.00
01289             -14.00    11200.00
01290             -16.00    11000.00
01291             -16.00    10800.00
01292              -2.00    10800.00
01293              -6.00    10600.00
01294             -10.00    10800.00
01295             -14.00    10600.00
01296             -16.00    10400.00
01297             -14.00    10400.00
01298              -6.00    10200.00
01299              -6.00    10000.00
01300              -4.00    10000.00
01301             -12.00    10000.00
01302             -18.00     9800.00
01303             -14.00     9800.00
01304              -8.00     9600.00
01305              -6.00     9400.00
01306              -6.00     9400.00
01307             -10.00     9200.00
01308             -14.00     9000.00
01309              -8.00     9000.00
01310             -10.00     9000.00
01311             -10.00     8600.00
01312              -4.00     8600.00
01313              -6.00     8400.00
01314             -10.00     8200.00
01315             -14.00     8200.00
01316             -16.00     8000.00
01317              -2.00     7800.00
01318              -2.00     7800.00
01319              -6.00     7600.00
01320              -6.00     7400.00
01321              -6.00     7200.00
01322             -10.00     7200.00
01323             -10.00     7000.00
01324             -10.00     6600.00
01325              -4.00     6600.00
01326              -4.00     6600.00
01327              -6.00     6400.00
01328             -10.00     6200.00
01329              -6.00     6000.00
01330              -6.00     6000.00
01331              -2.00     5600.00
01332              -6.00     5600.00
01333              -2.00     5200.00
01334              -6.00     5400.00
01335             -10.00     4800.00
01336             -14.00     4800.00
01337              -6.00     4400.00
01338              -2.00     4400.00
01339               0.00     4200.00
01340              -6.00     4000.00
01341              -8.00     3800.00
01342              -6.00     3800.00
01343              -8.00     3600.00
01344              -8.00     3200.00
01345              -6.00     3200.00
01346              -2.00     2800.00
01347              -6.00     2800.00
01348             -10.00     2600.00
01349              -8.00     2400.00
01350              -6.00     2000.00
01351              -2.00     2000.00
01352              -6.00     1800.00
01353              -2.00     1600.00
01354              -2.00     1600.00
01355              -8.00     1200.00
01356              -6.00     1000.00
01357             -10.00      800.00
01358              -2.00      600.00
01359               2.00      400.00
01360              -2.00      200.00
01361               0.00        0.00
01362               0.00        0.00
01363              24.00     -400.00
01364              26.00     -600.00
01365              -8.00     -600.00
01366             -22.00     -800.00
01367              -2.00     -800.00
01368              16.00    -1200.00
01369              26.00    -1200.00
01370             128.00    -1400.00
01371             246.00    -2000.00
01372             -64.00    -2400.00
01373            -254.00    -2200.00
01374            -254.00    -2400.00
01375              88.00    -2600.00
01376             238.00    -2400.00
01377             246.00    -2800.00
01378            -166.00    -3200.00
01379            -254.00    -3000.00
01380             214.00    -3600.00
01381             168.00    -3600.00
01382               0.00    -3600.00
01383             -48.00    -4200.00
01384            -130.00    -4000.00
01385             154.00    -4600.00
01386              64.00    -4600.00
01387            -110.00    -4800.00
01388             -98.00    -4800.00
01389              14.00    -4800.00
01390             182.00    -5400.00
01391             -30.00    -5200.00
01392             -74.00    -5600.00
01393             -50.00    -6000.00
01394              16.00    -5800.00
01395             128.00    -6400.00
01396             -42.00    -6000.00
01397             -48.00    -6400.00
01398               0.00    -6800.00
01399              38.00    -6600.00
01400              14.00    -7200.00
01401             -44.00    -6800.00
01402              12.00    -7400.00
01403              14.00    -7200.00
01404              30.00    -7600.00
01405             -16.00    -7800.00
01406             -34.00    -7800.00
01407              34.00    -8000.00
01408              24.00    -8000.00
01409              -8.00    -8200.00
01410             -24.00    -8400.00
01411              -6.00    -8400.00
01412              26.00    -8800.00
01413              20.00    -8800.00
01414             -16.00    -9200.00
01415             -22.00    -9200.00
01416              16.00    -9200.00
01417              26.00    -9400.00
01418              -2.00    -9400.00
01419              -8.00    -9400.00
01420              -8.00    -9600.00
01421              16.00    -9800.00
01422              14.00    -9800.00
01423             -10.00   -10000.00
01424               0.00   -10000.00
01425              12.00   -10200.00
01426               0.00   -10200.00
01427              -2.00   -10400.00
01428               0.00   -10400.00
01429               4.00   -10400.00
01430              12.00   -10600.00
01431               8.00   -10800.00
01432             -10.00   -10800.00
01433              -8.00   -10800.00
01434               6.00   -11000.00
01435              10.00   -11000.00
01436              16.00   -11000.00
01437              -2.00   -11200.00
01438             -10.00   -11200.00
01439               6.00   -11200.00
01440              14.00   -11200.00
01441              10.00   -11200.00
01442               6.00   -11200.00
01443             -10.00   -11400.00
01444              -8.00   -11600.00
01445              16.00   -11600.00
01446              22.00   -11600.00
01447              14.00   -11600.00
01448              -8.00   -11600.00
01449             -16.00   -11600.00
01450               2.00   -11600.00
01451              24.00   -11600.00
01452              18.00   -11600.00
01453               6.00   -11600.00
01454             -10.00   -11600.00
01455              -8.00   -11800.00
01456              14.00   -11600.00
01457              22.00   -11600.00
01458              14.00   -11600.00
01459               0.00   -11600.00
01460              -8.00   -11800.00
01461               0.00   -11600.00
01462              14.00   -11600.00
01463              12.00   -11600.00
01464               6.00   -11600.00
01465               6.00   -11600.00
01466               8.00   -11600.00
01467               6.00   -11600.00
01468               2.00   -11600.00
01469              -2.00   -11600.00
01470               4.00   -11600.00
01471              16.00   -11400.00
01472               8.00   -11200.00
01473               2.00   -11200.00
01474              -2.00   -11200.00
01475               2.00   -11000.00
01476               8.00   -11200.00
01477               4.00   -11000.00
01478               0.00   -11000.00
01479               2.00   -10800.00
01480              12.00   -10800.00
01481               8.00   -10800.00
01482              -8.00   -10800.00
01483              -6.00   -10800.00
01484               6.00   -10400.00
01485              10.00   -10400.00
01486              14.00   -10200.00
01487               6.00   -10200.00
01488              -8.00   -10000.00
01489              -2.00   -10000.00
01490               8.00   -10000.00
01491              12.00    -9800.00
01492               8.00    -9600.00
01493             -10.00    -9600.00
01494             -10.00    -9600.00
01495               2.00    -9400.00
01496              14.00    -9200.00
01497              10.00    -9200.00
01498               2.00    -8800.00
01499              -2.00    -8800.00
01500              -2.00    -8800.00
01501              -2.00    -8600.00
01502               6.00    -8600.00
01503              10.00    -8400.00
01504               6.00    -8400.00
01505              -8.00    -8000.00
01506              -6.00    -8000.00
01507               6.00    -7800.00
01508              18.00    -7600.00
01509              10.00    -7600.00
01510             -10.00    -7200.00
01511             -14.00    -7200.00
01512               2.00    -7200.00
01513              18.00    -7000.00
01514              12.00    -6800.00
01515              -8.00    -6600.00
01516             -10.00    -6400.00
01517               2.00    -6200.00
01518              12.00    -6200.00
01519               8.00    -6000.00
01520               0.00    -5800.00
01521              -2.00    -5600.00
01522               0.00    -5400.00
01523              -2.00    -5200.00
01524              -2.00    -5200.00
01525               6.00    -4800.00
01526              10.00    -4800.00
01527               2.00    -4600.00
01528              -2.00    -4400.00
01529              -6.00    -4400.00
01530              -2.00    -4000.00
01531               0.00    -3800.00
01532               2.00    -3600.00
01533              10.00    -3400.00
01534               2.00    -3200.00
01535             -10.00    -3000.00
01536             -10.00    -3000.00
01537               0.00    -2800.00
01538              10.00    -2600.00
01539              10.00    -2400.00
01540              -6.00    -2200.00
01541             -10.00    -2200.00
01542              -6.00    -2000.00
01543               2.00    -1600.00
01544               0.00    -1400.00
01545               2.00    -1200.00
01546               0.00    -1000.00
01547               0.00     -800.00
01548              -6.00     -600.00
01549              -6.00     -400.00
01550              -2.00     -200.00
01551               0.00        0.00
01552               0.00        0.00
01553               2.00      200.00
01554               6.00      400.00
01555              30.00      600.00
01556              22.00      800.00
01557             -10.00     1200.00
01558             -18.00     1000.00
01559               0.00     1400.00
01560              22.00     1600.00
01561              96.00     1800.00
01562             246.00     2000.00
01563              66.00     2400.00
01564            -254.00     2400.00
01565            -254.00     2600.00
01566             -38.00     2800.00
01567             246.00     2800.00
01568             246.00     3200.00
01569            -254.00     3200.00
01570            -254.00     3400.00
01571             246.00     3800.00
01572              96.00     3800.00
01573              22.00     4200.00
01574              18.00     4400.00
01575            -254.00     4200.00
01576             228.00     4400.00
01577              56.00     4600.00
01578            -202.00     5000.00
01579               0.00     5200.00
01580              22.00     5400.00
01581             104.00     5400.00
01582             -24.00     5600.00
01583             -38.00     6000.00
01584             -94.00     5800.00
01585              32.00     6400.00
01586             128.00     6400.00
01587            -126.00     6400.00
01588               0.00     6800.00
01589               0.00     6800.00
01590               0.00     7200.00
01591              34.00     7200.00
01592             -64.00     7600.00
01593             -16.00     7400.00
01594              38.00     7600.00
01595              22.00     8000.00
01596             -56.00     7800.00
01597               0.00     8200.00
01598             -14.00     8200.00
01599               0.00     8400.00
01600              22.00     8800.00
01601             -32.00     8600.00
01602             -30.00     8800.00
01603              10.00     9000.00
01604              10.00     9200.00
01605             -16.00     9200.00
01606               2.00     9400.00
01607             -42.00     9200.00
01608              -4.00     9600.00
01609              10.00     9600.00
01610             -14.00     9800.00
01611               2.00     9800.00
01612             -16.00    10000.00
01613             -34.00    10200.00
01614              -8.00    10400.00
01615              16.00    10200.00
01616             -10.00    10400.00
01617              -2.00    10400.00
01618             -26.00    10600.00
01619             -30.00    10800.00
01620              -2.00    10800.00
01621               6.00    11000.00
01622              -8.00    10800.00
01623              -6.00    11200.00
01624             -16.00    11200.00
01625             -14.00    11200.00
01626               0.00    11400.00
01627             -18.00    11400.00
01628             -16.00    11400.00
01629               0.00    11400.00
01630              -8.00    11800.00
01631             -14.00    11600.00
01632             -16.00    11600.00
01633             -18.00    11800.00
01634             -10.00    11800.00
01635              -2.00    11800.00
01636              -8.00    12000.00
01637              -6.00    12000.00
01638             -14.00    12000.00
01639             -18.00    12000.00
01640             -14.00    12000.00
01641             -10.00    12000.00
01642             -10.00    12000.00
01643               0.00    12000.00
01644              -6.00    12000.00
01645             -16.00    12000.00
01646             -16.00    12200.00
01647             -14.00    12000.00
01648             -12.00    12200.00
01649              -2.00    12000.00
01650              -6.00    12000.00
01651             -10.00    12000.00
01652             -16.00    12000.00
01653             -16.00    12000.00
01654             -10.00    12000.00
01655              -2.00    12000.00
01656              -4.00    12000.00
01657             -10.00    12000.00
01658             -10.00    12000.00
01659             -18.00    12000.00
01660             -16.00    12000.00
01661              -8.00    11800.00
01662              -2.00    11800.00
01663              -6.00    12000.00
01664             -10.00    11600.00
01665             -14.00    11600.00
01666             -18.00    11800.00
01667             -10.00    11600.00
01668              -6.00    11400.00
01669              -2.00    11400.00
01670              -8.00    11400.00
01671             -10.00    11200.00
01672             -14.00    11200.00
01673             -16.00    11200.00
01674             -10.00    11000.00
01675              -6.00    10800.00
01676              -6.00    10800.00
01677              -8.00    10800.00
01678             -16.00    10600.00
01679             -16.00    10600.00
01680             -16.00    10600.00
01681              -8.00    10400.00
01682              -6.00    10400.00
01683              -4.00    10200.00
01684             -10.00    10000.00
01685             -16.00     9800.00
01686             -16.00     9800.00
01687             -10.00     9800.00
01688              -8.00     9400.00
01689              -8.00     9600.00
01690             -10.00     9200.00
01691             -10.00     9200.00
01692             -12.00     9000.00
01693             -14.00     8800.00
01694             -10.00     9000.00
01695             -10.00     8800.00
01696              -6.00     8400.00
01697              -6.00     8400.00
01698             -12.00     8400.00
01699             -16.00     8000.00
01700             -10.00     8000.00
01701              -8.00     8000.00
01702              -6.00     7600.00
01703              -6.00     7600.00
01704              -8.00     7400.00
01705             -10.00     7200.00
01706             -10.00     7200.00
01707             -10.00     6800.00
01708             -10.00     6800.00
01709              -6.00     6400.00
01710              -6.00     6400.00
01711              -6.00     6200.00
01712              -6.00     6200.00
01713             -10.00     5800.00
01714             -10.00     5800.00
01715              -8.00     5600.00
01716               0.00     5600.00
01717              -2.00     5200.00
01718             -10.00     5200.00
01719             -16.00     4800.00
01720             -10.00     4600.00
01721              -2.00     4600.00
01722               0.00     4400.00
01723              -2.00     4200.00
01724              -8.00     4000.00
01725              -8.00     3800.00
01726             -10.00     3600.00
01727              -8.00     3400.00
01728              -6.00     3200.00
01729               0.00     3200.00
01730               0.00     2800.00
01731              -2.00     2600.00
01732             -14.00     2600.00
01733             -10.00     2000.00
01734              -2.00     2000.00
01735               0.00     1800.00
01736               0.00     1600.00
01737              -4.00     1400.00
01738             -10.00     1200.00
01739             -10.00     1200.00
01740              -2.00     1000.00
01741              -2.00      800.00
01742              -4.00      400.00
01743              -8.00      200.00
01744              -2.00      200.00
01745               6.00        0.00
01746              16.00        0.00
01747              30.00     -400.00
01748               0.00     -800.00
01749             -24.00     -800.00
01750             -12.00     -800.00
01751              10.00     -800.00
01752              18.00    -1200.00
01753              50.00    -1400.00
01754             214.00    -1600.00
01755             200.00    -2200.00
01756            -254.00    -2400.00
01757            -254.00    -2400.00
01758             -98.00    -2600.00
01759             150.00    -2400.00
01760             246.00    -2400.00
01761             246.00    -3200.00
01762            -254.00    -3000.00
01763            -170.00    -3200.00
01764             246.00    -3800.00
01765              26.00    -3200.00
01766              22.00    -3800.00
01767            -128.00    -4000.00
01768             -10.00    -4000.00
01769             176.00    -4800.00
01770             -54.00    -4400.00
01771            -110.00    -4800.00
01772             -84.00    -4800.00
01773             128.00    -5200.00
01774             118.00    -5600.00
01775             -94.00    -5400.00
01776             -50.00    -6000.00
01777             -48.00    -5600.00
01778              98.00    -6000.00
01779              70.00    -6400.00
01780             -86.00    -6200.00
01781             -22.00    -6800.00
01782              10.00    -6400.00
01783              48.00    -6800.00
01784             -20.00    -7000.00
01785             -18.00    -7000.00
01786              16.00    -7400.00
01787              10.00    -7200.00
01788              24.00    -7800.00
01789             -40.00    -7600.00
01790               2.00    -7800.00
01791              38.00    -8200.00
01792               0.00    -8000.00
01793             -14.00    -8400.00
01794             -12.00    -8400.00
01795               8.00    -8600.00
01796              24.00    -8800.00
01797              10.00    -8800.00
01798             -14.00    -8800.00
01799              -6.00    -9200.00
01800              14.00    -9200.00
01801               2.00    -9200.00
01802               4.00    -9400.00
01803              10.00    -9600.00
01804               0.00    -9800.00
01805               4.00    -9600.00
01806             -16.00   -10000.00
01807             -10.00   -10000.00
01808              34.00   -10000.00
01809              22.00   -10200.00
01810             -10.00   -10400.00
01811             -16.00   -10400.00
01812              -6.00   -10400.00
01813              10.00   -10400.00
01814              16.00   -10600.00
01815               0.00   -10800.00
01816               2.00   -10800.00
01817              10.00   -10800.00
01818              -6.00   -11000.00
01819              -6.00   -11000.00
01820               4.00   -11000.00
01821               8.00   -11000.00
01822              22.00   -11200.00
01823              14.00   -11200.00
01824             -10.00   -11600.00
01825             -14.00   -11600.00
01826              -2.00   -11400.00
01827              14.00   -11400.00
01828              24.00   -11600.00
01829               8.00   -11400.00
01830              -8.00   -11800.00
01831               0.00   -11600.00
01832               6.00   -11600.00
01833               6.00   -11600.00
01834               8.00   -11600.00
01835               8.00   -11600.00
01836               8.00   -11800.00
01837               6.00   -11800.00
01838              -2.00   -11600.00
01839              -2.00   -11600.00
01840               6.00   -11600.00
01841               8.00   -11600.00
01842              14.00   -11600.00
01843               4.00   -11600.00
01844               2.00   -11800.00
01845               2.00   -11600.00
01846               8.00   -11600.00
01847              10.00   -11600.00
01848               6.00   -11400.00
01849               2.00   -11400.00
01850               4.00   -11600.00
01851               8.00   -11400.00
01852               8.00   -11600.00
01853               6.00   -11400.00
01854               6.00   -11400.00
01855               6.00   -11400.00
01856               6.00   -11200.00
01857               8.00   -11400.00
01858               6.00   -11200.00
01859               2.00   -11200.00
01860               2.00   -11000.00
01861               6.00   -11000.00
01862               8.00   -10800.00
01863               8.00   -10800.00
01864               8.00   -10800.00
01865               0.00   -10800.00
01866               2.00   -10600.00
01867               8.00   -10400.00
01868               6.00   -10400.00
01869               6.00   -10400.00
01870               2.00   -10200.00
01871               0.00   -10200.00
01872               0.00   -10000.00
01873               0.00   -10000.00
01874               8.00    -9800.00
01875               8.00    -9600.00
01876               2.00    -9600.00
01877               0.00    -9400.00
01878               0.00    -9600.00
01879               2.00    -9200.00
01880               2.00    -9200.00
01881               2.00    -9200.00
01882               4.00    -9000.00
01883               8.00    -8800.00
01884               0.00    -8800.00
01885              -4.00    -8600.00
01886              -2.00    -8400.00
01887               6.00    -8400.00
01888               8.00    -8200.00
01889               6.00    -8000.00
01890              -2.00    -8000.00
01891              -6.00    -7800.00
01892               0.00    -7400.00
01893               0.00    -7400.00
01894               8.00    -7200.00
01895               6.00    -7200.00
01896               0.00    -7000.00
01897               0.00    -7000.00
01898              -4.00    -6800.00
01899               0.00    -6400.00
01900               6.00    -6400.00
01901               0.00    -6200.00
01902               0.00    -6000.00
01903               2.00    -6000.00
01904               0.00    -5600.00
01905              -2.00    -5600.00
01906              -6.00    -5200.00
01907               0.00    -5200.00
01908               8.00    -4800.00
01909               6.00    -4800.00
01910              -2.00    -4800.00
01911              -2.00    -4400.00
01912               0.00    -4400.00
01913               2.00    -4000.00
01914               2.00    -3800.00
01915               0.00    -3800.00
01916               2.00    -3600.00
01917               2.00    -3600.00
01918              -2.00    -3200.00
01919              -8.00    -3000.00
01920              -2.00    -2800.00
01921               0.00    -2600.00
01922               4.00    -2400.00
01923               0.00    -2200.00
01924              -2.00    -2200.00
01925              -6.00    -2000.00
01926              -6.00    -1600.00
01927               0.00    -1400.00
01928               2.00    -1000.00
01929               2.00    -1000.00
01930              -2.00     -800.00
01931              -6.00     -800.00
01932              -8.00     -600.00
01933               0.00     -400.00
01934               0.00     -200.00
01935               0.00        0.00
01936              -2.00      200.00
01937               0.00      400.00
01938              12.00      800.00
01939              32.00      800.00
01940              10.00      800.00
01941             -18.00     1000.00
01942             -16.00     1400.00
01943               8.00     1600.00
01944              38.00     1600.00
01945             206.00     1800.00
01946             246.00     2400.00
01947            -234.00     2400.00
01948            -254.00     2600.00
01949            -254.00     2600.00
01950             138.00     2800.00
01951             246.00     3200.00
01952             246.00     3400.00
01953            -254.00     3200.00
01954             -98.00     3600.00
01955             246.00     3600.00
01956             -74.00     4000.00
01957             112.00     4200.00
01958            -176.00     4200.00
01959             -78.00     4400.00
01960             246.00     4800.00
01961            -144.00     4800.00
01962            -110.00     5000.00
01963              14.00     5400.00
01964              64.00     5600.00
01965              66.00     5400.00
01966             -46.00     6000.00
01967             -46.00     6000.00
01968             -98.00     5800.00
01969             140.00     6400.00
01970               6.00     6400.00
01971            -104.00     6400.00
01972              46.00     6800.00
01973             -32.00     6800.00
01974              44.00     7200.00
01975             -16.00     7400.00
01976             -60.00     7400.00
01977              14.00     7600.00
01978              48.00     7600.00
01979             -18.00     8000.00
01980             -42.00     8000.00
01981               6.00     8200.00
01982             -24.00     8200.00
01983              26.00     8400.00
01984              -6.00     8600.00
01985             -38.00     8800.00
01986             -10.00     9000.00
01987              22.00     9000.00
01988             -10.00     9200.00
01989               0.00     9200.00
01990             -14.00     9400.00
01991             -40.00     9400.00
01992              16.00     9600.00
01993              -2.00     9600.00
01994               0.00    10000.00
01995               0.00    10000.00
01996             -26.00    10200.00
01997             -30.00    10000.00
01998              10.00    10200.00
01999               6.00    10400.00
02000              -8.00    10400.00
02001              -6.00    10600.00
02002             -34.00    10800.00
02003             -16.00    10800.00
02004               2.00    10800.00
02005              -6.00    10800.00
02006              -8.00    11200.00
02007              -4.00    11200.00
02008             -16.00    11200.00
02009              -8.00    11200.00
02010             -10.00    11400.00
02011             -22.00    11400.00
02012               0.00    11400.00
02013               8.00    11800.00
02014             -16.00    11600.00
02015             -32.00    11800.00
02016             -10.00    11800.00
02017             -26.00    11800.00
02018               8.00    11600.00
02019             -36.00    12000.00
02020              10.00    11600.00
02021              26.00    12000.00
02022              24.00    11800.00
02023             -38.00    12000.00
02024             -34.00    12000.00
02025             -24.00    12200.00
02026             -26.00    12000.00
02027             -22.00    12000.00
02028              -6.00    12200.00
02029              22.00    12000.00
02030              22.00    12200.00
02031             -16.00    12000.00
02032             -32.00    12200.00
02033              -4.00    12000.00
02034              -8.00    12000.00
02035             -22.00    12200.00
02036             -10.00    12000.00
02037             -22.00    12200.00
02038             -22.00    12000.00
02039             -10.00    12000.00
02040               4.00    12000.00
02041              14.00    12000.00
02042               0.00    11800.00
02043             -36.00    12000.00
02044             -18.00    12000.00
02045              -2.00    11800.00
02046             -16.00    11800.00
02047             -16.00    11800.00
02048             -20.00    11600.00
02049             -12.00    11600.00
02050              -2.00    11800.00
02051               0.00    11600.00
02052              -2.00    11800.00
02053               0.00    11400.00
02054             -14.00    11200.00
02055             -22.00    11200.00
02056             -20.00    11200.00
02057             -26.00    11000.00
02058             -18.00    11000.00
02059               8.00    10800.00
02060              14.00    10800.00
02061               0.00    10800.00
02062             -12.00    10600.00
02063             -24.00    10600.00
02064             -22.00    10400.00
02065             -10.00    10400.00
02066             -10.00    10200.00
02067              -6.00    10000.00
02068              -6.00    10000.00
02069             -18.00     9800.00
02070             -12.00     9600.00
02071               0.00     9600.00
02072              -2.00     9600.00
02073             -10.00     9400.00
02074             -14.00     9200.00
02075             -10.00     9200.00
02076             -10.00     9000.00
02077             -18.00     9000.00
02078             -18.00     8800.00
02079              -2.00     8600.00
02080               8.00     8400.00
02081               2.00     8400.00
02082             -14.00     8200.00
02083             -38.00     8000.00
02084             -22.00     8000.00
02085              14.00     7800.00
02086              20.00     7600.00
02087             -12.00     7600.00
02088             -32.00     7200.00
02089             -24.00     7200.00
02090              -2.00     6800.00
02091               2.00     6800.00
02092              -2.00     6600.00
02093              -6.00     6600.00
02094             -10.00     6400.00
02095             -16.00     6400.00
02096              -8.00     6000.00
02097               0.00     5800.00
02098              -2.00     5800.00
02099              -8.00     5600.00
02100             -10.00     5400.00
02101             -10.00     5000.00
02102              -8.00     5000.00
02103              -2.00     4800.00
02104              -2.00     4400.00
02105              -8.00     4400.00
02106             -10.00     4200.00
02107              -6.00     4000.00
02108               2.00     3800.00
02109               0.00     3600.00
02110              -8.00     3600.00
02111             -10.00     3400.00
02112              -4.00     3200.00
02113               0.00     2800.00
02114              -4.00     2800.00
02115             -12.00     2600.00
02116              -8.00     2400.00
02117               0.00     2400.00
02118               6.00     2000.00
02119               2.00     1800.00
02120             -12.00     1600.00
02121             -16.00     1400.00
02122              -8.00     1200.00
02123               0.00     1200.00
02124               0.00      800.00
02125               0.00      600.00
02126              -2.00      600.00
02127              -6.00      400.00
02128               0.00      200.00
02129               2.00        0.00
02130              24.00     -400.00
02131              26.00     -400.00
02132              -4.00     -600.00
02133             -24.00     -800.00
02134             -10.00    -1000.00
02135              10.00    -1200.00
02136              28.00    -1200.00
02137             118.00    -1400.00
02138             246.00    -1800.00
02139              -2.00    -2200.00
02140            -254.00    -2400.00
02141            -254.00    -2600.00
02142              64.00    -2600.00
02143             214.00    -2400.00
02144             246.00    -2800.00
02145             -62.00    -3200.00
02146            -254.00    -3000.00
02147             150.00    -3600.00
02148             214.00    -3600.00
02149              -8.00    -3600.00
02150             -30.00    -4400.00
02151            -146.00    -4000.00
02152             128.00    -4400.00
02153              96.00    -4600.00
02154            -106.00    -4800.00
02155             -98.00    -5000.00
02156             -16.00    -4800.00
02157             184.00    -5400.00
02158               0.00    -5200.00
02159             -82.00    -5600.00
02160             -48.00    -5800.00
02161              -2.00    -5600.00
02162             130.00    -6400.00
02163             -26.00    -6200.00
02164             -64.00    -6400.00
02165              -4.00    -6800.00
02166              38.00    -6400.00
02167              24.00    -7000.00
02168             -42.00    -7000.00
02169               6.00    -7200.00
02170              10.00    -7200.00
02171              30.00    -7400.00
02172              -2.00    -7800.00
02173             -40.00    -7800.00
02174              30.00    -8200.00
02175              22.00    -8000.00
02176              -8.00    -8400.00
02177             -10.00    -8400.00
02178              -8.00    -8400.00
02179              16.00    -8800.00
02180              22.00    -8800.00
02181               0.00    -9000.00
02182             -12.00    -9000.00
02183               8.00    -9200.00
02184              10.00    -9200.00
02185               6.00    -9400.00
02186               8.00    -9400.00
02187               0.00    -9600.00
02188               2.00    -9800.00
02189               6.00    -9600.00
02190              -6.00    -9800.00
02191              14.00   -10000.00
02192              22.00   -10000.00
02193               2.00   -10200.00
02194              -4.00   -10400.00
02195              -6.00   -10400.00
02196               0.00   -10600.00
02197              14.00   -10400.00
02198              12.00   -10800.00
02199               0.00   -10800.00
02200               6.00   -11000.00
02201               0.00   -11000.00
02202              -4.00   -11000.00
02203               6.00   -11200.00
02204               6.00   -11000.00
02205               8.00   -11200.00
02206              14.00   -11200.00
02207              -2.00   -11200.00
02208              -2.00   -11200.00
02209               0.00   -11400.00
02210               4.00   -11400.00
02211              10.00   -11400.00
02212              14.00   -11600.00
02213               6.00   -11600.00
02214              -2.00   -11600.00
02215               0.00   -11600.00
02216               2.00   -11800.00
02217               6.00   -11600.00
02218              10.00   -11600.00
02219               8.00   -11800.00
02220               6.00   -11600.00
02221               2.00   -11800.00
02222              -6.00   -11600.00
02223               0.00   -11600.00
02224              10.00   -11800.00
02225              14.00   -11600.00
02226               8.00   -11600.00
02227               2.00   -11600.00
02228              -2.00   -11800.00
02229               0.00   -11600.00
02230               2.00   -11600.00
02231               6.00   -11600.00
02232              10.00   -11600.00
02233              10.00   -11600.00
02234               0.00   -11600.00
02235               0.00   -11400.00
02236               2.00   -11400.00
02237               8.00   -11400.00
02238              12.00   -11200.00
02239               8.00   -11200.00
02240               2.00   -11200.00
02241               6.00   -11200.00
02242               0.00   -11000.00
02243               2.00   -11000.00
02244               8.00   -11000.00
02245              10.00   -11000.00
02246               8.00   -11000.00
02247               2.00   -10800.00
02248              -2.00   -10800.00
02249               2.00   -10800.00
02250               6.00   -10600.00
02251               8.00   -10400.00
02252               6.00   -10400.00
02253               8.00   -10200.00
02254               2.00   -10200.00
02255               0.00   -10000.00
02256              -2.00   -10000.00
02257               2.00   -10000.00
02258               8.00    -9800.00
02259               8.00    -9800.00
02260               0.00    -9600.00
02261               0.00    -9600.00
02262               0.00    -9400.00
02263               2.00    -9200.00
02264               0.00    -9200.00
02265               6.00    -9000.00
02266               8.00    -8800.00
02267               6.00    -8800.00
02268              -4.00    -8600.00
02269              -6.00    -8600.00
02270               0.00    -8400.00
02271               6.00    -8200.00
02272               6.00    -8200.00
02273               4.00    -7800.00
02274              -2.00    -8000.00
02275              -6.00    -7600.00
02276              -2.00    -7600.00
02277               2.00    -7200.00
02278               8.00    -7200.00
02279               2.00    -7200.00
02280              -2.00    -7000.00
02281              -4.00    -6600.00
02282              -2.00    -6600.00
02283               6.00    -6400.00
02284               2.00    -6200.00
02285               0.00    -6000.00
02286              -2.00    -6000.00
02287              -2.00    -5800.00
02288               6.00    -5600.00
02289               8.00    -5600.00
02290               2.00    -5200.00
02291               0.00    -5000.00
02292             -10.00    -4800.00
02293             -10.00    -4800.00
02294               0.00    -4600.00
02295              10.00    -4400.00
02296              10.00    -4000.00
02297              -2.00    -4000.00
02298              -8.00    -3800.00
02299              -8.00    -3600.00
02300               0.00    -3600.00
02301               6.00    -3200.00
02302              10.00    -3200.00
02303               0.00    -3000.00
02304             -10.00    -2800.00
02305             -10.00    -2400.00
02306               2.00    -2200.00
02307              10.00    -2000.00
02308               2.00    -2000.00
02309             -10.00    -1800.00
02310             -10.00    -1600.00
02311               2.00    -1400.00
02312               8.00    -1000.00
02313               2.00    -1000.00
02314             -10.00     -800.00
02315             -16.00     -600.00
02316               0.00     -400.00
02317               6.00        0.00
02318               8.00        0.00
02319               0.00      200.00
02320              -2.00      400.00
02321               0.00      600.00
02322              24.00      800.00
02323              28.00      800.00
02324               2.00     1000.00
02325             -18.00     1200.00
02326             -10.00     1600.00
02327              14.00     1600.00
02328              78.00     1800.00
02329             246.00     2000.00
02330             136.00     2400.00
02331            -254.00     2600.00
02332            -254.00     2400.00
02333             -78.00     2600.00
02334             246.00     2800.00
02335             246.00     3400.00
02336            -254.00     3200.00
02337            -254.00     3400.00
02338             246.00     3800.00
02339             162.00     3800.00
02340             -18.00     4000.00
02341              60.00     4400.00
02342            -254.00     4200.00
02343             182.00     4400.00
02344             122.00     4800.00
02345            -214.00     5000.00
02346             -20.00     5200.00
02347              16.00     5600.00
02348             102.00     5400.00
02349              -2.00     5400.00
02350             -40.00     6000.00
02351             -88.00     5800.00
02352              -2.00     6200.00
02353             150.00     6400.00
02354            -110.00     6400.00
02355             -12.00     6800.00
02356              16.00     6600.00
02357             -14.00     7200.00
02358              38.00     7400.00
02359             -64.00     7400.00
02360             -20.00     7600.00
02361              40.00     7600.00
02362              32.00     7800.00
02363             -58.00     7800.00
02364             -16.00     8200.00
02365              -2.00     8200.00
02366              -2.00     8400.00
02367              22.00     8800.00
02368             -34.00     8600.00
02369             -30.00     8800.00
02370              12.00     9000.00
02371              16.00     9000.00
02372             -20.00     9200.00
02373               0.00     9200.00
02374             -34.00     9400.00
02375              -8.00     9600.00
02376              14.00     9800.00
02377             -10.00     9800.00
02378               6.00     9800.00
02379             -10.00    10000.00
02380             -36.00    10200.00
02381             -18.00    10400.00
02382              22.00    10400.00
02383               2.00    10400.00
02384              -2.00    10600.00
02385             -20.00    10800.00
02386             -32.00    10600.00
02387              -6.00    10800.00
02388               4.00    10800.00
02389              -8.00    10800.00
02390              -4.00    11200.00
02391             -14.00    11200.00
02392             -22.00    11200.00
02393              -2.00    11400.00
02394             -12.00    11400.00
02395             -16.00    11400.00
02396               0.00    11400.00
02397             -10.00    11800.00
02398             -14.00    11600.00
02399              -8.00    11800.00
02400             -16.00    11800.00
02401             -18.00    11600.00
02402              -2.00    11800.00
02403              -4.00    12000.00
02404              -8.00    12000.00
02405             -10.00    12000.00
02406             -24.00    12000.00
02407             -14.00    12000.00
02408              -6.00    12000.00
02409             -10.00    12000.00
02410              -6.00    12000.00
02411             -10.00    12000.00
02412             -20.00    12000.00
02413             -16.00    12000.00
02414             -10.00    12000.00
02415              -8.00    12000.00
02416              -6.00    12000.00
02417             -14.00    12000.00
02418             -16.00    12000.00
02419             -10.00    12200.00
02420             -12.00    12000.00
02421             -10.00    12200.00
02422              -8.00    12000.00
02423             -14.00    12000.00
02424              -8.00    12000.00
02425              -8.00    11800.00
02426             -16.00    12000.00
02427             -16.00    11800.00
02428             -10.00    12000.00
02429              -6.00    11800.00
02430              -2.00    11800.00
02431             -10.00    11600.00
02432             -14.00    11600.00
02433             -14.00    11600.00
02434             -14.00    11600.00
02435              -8.00    11400.00
02436              -2.00    11400.00
02437              -8.00    11400.00
02438             -10.00    11400.00
02439             -16.00    11400.00
02440             -14.00    11200.00
02441              -8.00    10800.00
02442              -6.00    10800.00
02443              -6.00    10800.00
02444              -8.00    10800.00
02445              -8.00    10600.00
02446             -14.00    10600.00
02447             -14.00    10400.00
02448             -10.00    10400.00
02449              -2.00    10200.00
02450              -2.00    10200.00
02451             -10.00    10000.00
02452             -14.00    10000.00
02453             -12.00     9800.00
02454             -10.00     9800.00
02455             -10.00     9600.00
02456              -8.00     9600.00
02457              -6.00     9200.00
02458              -8.00     9200.00
02459             -16.00     9000.00
02460             -16.00     9000.00
02461             -10.00     8800.00
02462              -8.00     8600.00
02463              -6.00     8400.00
02464             -10.00     8400.00
02465             -14.00     8200.00
02466              -8.00     8200.00
02467             -14.00     8000.00
02468             -10.00     8000.00
02469              -6.00     7600.00
02470              -8.00     7600.00
02471              -6.00     7200.00
02472              -6.00     7400.00
02473             -16.00     7200.00
02474             -12.00     6800.00
02475             -12.00     6600.00
02476              -8.00     6600.00
02477              -2.00     6400.00
02478              -6.00     6400.00
02479             -12.00     6000.00
02480             -12.00     6000.00
02481             -10.00     5800.00
02482              -4.00     5600.00
02483               0.00     5400.00
02484              -6.00     5200.00
02485             -10.00     5200.00
02486             -12.00     5000.00
02487             -10.00     4800.00
02488              -6.00     4400.00
02489              -2.00     4400.00
02490              -6.00     4200.00
02491              -4.00     4000.00
02492              -8.00     3800.00
02493              -8.00     3600.00
02494              -8.00     3400.00
02495              -2.00     3200.00
02496              -6.00     3200.00
02497               0.00     3000.00
02498              -4.00     2600.00
02499              -6.00     2600.00
02500              -8.00     2400.00
02501              -6.00     2200.00
02502              -2.00     2000.00
02503              -2.00     1800.00
02504              -2.00     1600.00
02505              -4.00     1200.00
02506              -6.00     1200.00
02507              -8.00     1000.00
02508              -4.00      800.00
02509               0.00      800.00
02510               0.00      400.00
02511               2.00      200.00
02512               0.00      200.00
02513               6.00        0.00
02514              30.00     -400.00
02515              18.00     -400.00
02516             -14.00     -800.00
02517             -16.00     -800.00
02518               6.00    -1000.00
02519              16.00    -1200.00
02520              48.00    -1400.00
02521             194.00    -1600.00
02522             232.00    -2000.00
02523            -246.00    -2400.00
02524            -254.00    -2400.00
02525            -144.00    -2600.00
02526             144.00    -2600.00
02527             246.00    -2600.00
02528             246.00    -3000.00
02529            -254.00    -3200.00
02530            -254.00    -3200.00
02531             246.00    -3800.00
02532              56.00    -3600.00
02533              16.00    -4000.00
02534            -114.00    -4000.00
02535             -48.00    -4000.00
02536             190.00    -4800.00
02537             -26.00    -4400.00
02538            -112.00    -4800.00
02539             -94.00    -5000.00
02540              98.00    -5200.00
02541             146.00    -5400.00
02542             -82.00    -5200.00
02543             -56.00    -6000.00
02544             -56.00    -5800.00
02545              78.00    -6000.00
02546              94.00    -6200.00
02547             -78.00    -6200.00
02548             -24.00    -6800.00
02549               6.00    -6400.00
02550              48.00    -7000.00
02551             -18.00    -7000.00
02552             -28.00    -7000.00
02553              16.00    -7400.00
02554              14.00    -7400.00
02555              30.00    -7600.00
02556             -38.00    -7400.00
02557             -10.00    -8000.00
02558              36.00    -8000.00
02559               2.00    -8000.00
02560             -10.00    -8400.00
02561              -8.00    -8200.00
02562               6.00    -8800.00
02563              22.00    -8600.00
02564               8.00    -8800.00
02565             -12.00    -9000.00
02566               0.00    -9200.00
02567              10.00    -9200.00
02568               0.00    -9200.00
02569               8.00    -9400.00
02570              10.00    -9600.00
02571              -2.00    -9600.00
02572               6.00    -9600.00
02573              -6.00   -10000.00
02574               0.00   -10000.00
02575              22.00   -10000.00
02576              14.00   -10000.00
02577               0.00   -10200.00
02578              -6.00   -10400.00
02579              -8.00   -10400.00
02580               4.00   -10600.00
02581              16.00   -10400.00
02582              10.00   -10800.00
02583               4.00   -10800.00
02584               2.00   -10800.00
02585              -2.00   -11000.00
02586               2.00   -11000.00
02587               6.00   -11200.00
02588               6.00   -11200.00
02589               6.00   -11200.00
02590               8.00   -11200.00
02591               0.00   -11200.00
02592              -2.00   -11400.00
02593               2.00   -11400.00
02594               6.00   -11600.00
02595               8.00   -11400.00
02596              10.00   -11600.00
02597               2.00   -11600.00
02598               0.00   -11600.00
02599               4.00   -11600.00
02600              -2.00   -11600.00
02601               6.00   -11600.00
02602              14.00   -11800.00
02603              10.00   -11600.00
02604               6.00   -11600.00
02605              -8.00   -11800.00
02606              -6.00   -11600.00
02607              10.00   -11800.00
02608              16.00   -11600.00
02609              10.00   -11800.00
02610               6.00   -11600.00
02611              -6.00   -11800.00
02612              -6.00   -11600.00
02613               6.00   -11600.00
02614              10.00   -11600.00
02615               8.00   -11600.00
02616               8.00   -11600.00
02617               0.00   -11600.00
02618               2.00   -11600.00
02619              10.00   -11600.00
02620               0.00   -11600.00
02621               6.00   -11200.00
02622               6.00   -11400.00
02623               6.00   -11200.00
02624               8.00   -11200.00
02625               4.00   -11200.00
02626               0.00   -11000.00
02627               6.00   -11000.00
02628              10.00   -11200.00
02629              14.00   -11000.00
02630               6.00   -11000.00
02631              -2.00   -10800.00
02632              -2.00   -10800.00
02633              10.00   -10600.00
02634              14.00   -10600.00
02635              14.00   -10400.00
02636               2.00   -10400.00
02637              -4.00   -10200.00
02638              -6.00   -10000.00
02639               2.00   -10000.00
02640              10.00   -10000.00
02641              14.00    -9800.00
02642               6.00    -9800.00
02643               2.00    -9600.00
02644               0.00    -9400.00
02645               0.00    -9400.00
02646               2.00    -9400.00
02647               8.00    -9200.00
02648              10.00    -9000.00
02649               6.00    -9000.00
02650               0.00    -8600.00
02651              -2.00    -8800.00
02652               0.00    -8600.00
02653               6.00    -8400.00
02654               2.00    -8400.00
02655               2.00    -8000.00
02656               2.00    -8000.00
02657               6.00    -8000.00
02658               0.00    -7800.00
02659              -2.00    -7800.00
02660               0.00    -7400.00
02661               6.00    -7200.00
02662               4.00    -7000.00
02663               0.00    -7000.00
02664              -2.00    -7000.00
02665               0.00    -6800.00
02666               6.00    -6600.00
02667               0.00    -6400.00
02668              -2.00    -6200.00
02669               0.00    -6000.00
02670               2.00    -5800.00
02671               6.00    -5600.00
02672              -2.00    -5600.00
02673              -6.00    -5400.00
02674              -2.00    -5200.00
02675               0.00    -5000.00
02676               2.00    -4800.00
02677               6.00    -4600.00
02678               0.00    -4600.00
02679              -6.00    -4400.00
02680              -2.00    -4000.00
02681               0.00    -4000.00
02682               2.00    -3800.00
02683               6.00    -3600.00
02684              -4.00    -3400.00
02685              -6.00    -3200.00
02686              -2.00    -3000.00
02687               0.00    -2800.00
02688               6.00    -2800.00
02689               0.00    -2400.00
02690              -6.00    -2400.00
02691              -2.00    -2200.00
02692              -2.00    -2000.00
02693               2.00    -1600.00
02694               6.00    -1400.00
02695               0.00    -1400.00
02696              -2.00    -1000.00
02697              -2.00     -800.00
02698               0.00     -800.00
02699               2.00     -600.00
02700               0.00     -600.00
02701              -6.00        0.00
02702               0.00        0.00
02703               6.00      200.00
02704               2.00      400.00
02705              10.00      600.00
02706              32.00      800.00
02707              16.00     1000.00
02708             -10.00     1000.00
02709             -16.00     1200.00
02710               4.00     1400.00
02711              32.00     1600.00
02712             174.00     2000.00
02713             246.00     2400.00
02714            -154.00     2400.00
02715            -254.00     2400.00
02716            -254.00     2600.00
02717              86.00     2800.00
02718             246.00     3200.00
02719             246.00     3200.00
02720            -254.00     3200.00
02721            -232.00     3400.00
02722             246.00     3800.00
02723             -48.00     3800.00
02724             106.00     4200.00
02725            -132.00     4200.00
02726            -144.00     4400.00
02727             246.00     4400.00
02728            -104.00     4800.00
02729            -138.00     5000.00
02730              10.00     5200.00
02731              50.00     5600.00
02732              86.00     5400.00
02733             -46.00     5800.00
02734             -40.00     6000.00
02735            -106.00     6000.00
02736             120.00     6400.00
02737              42.00     6400.00
02738            -120.00     6400.00
02739              32.00     7000.00
02740             -32.00     6800.00
02741              38.00     7200.00
02742              -2.00     7200.00
02743             -66.00     7400.00
02744               2.00     7400.00
02745              46.00     7600.00
02746              -2.00     8000.00
02747             -48.00     7800.00
02748               4.00     8400.00
02749             -24.00     8200.00
02750              24.00     8400.00
02751               2.00     8400.00
02752             -42.00     8800.00
02753             -22.00     8800.00
02754              24.00     9200.00
02755               2.00     9000.00
02756              -8.00     9200.00
02757             -16.00     9400.00
02758             -42.00     9200.00
02759              16.00     9600.00
02760               2.00     9800.00
02761              -6.00     9800.00
02762               0.00    10000.00
02763             -26.00    10000.00
02764             -32.00    10200.00
02765              14.00    10400.00
02766              16.00    10400.00
02767             -16.00    10400.00
02768             -10.00    10800.00
02769             -30.00    10600.00
02770             -14.00    10600.00
02771               6.00    10800.00
02772              -8.00    11000.00
02773              -8.00    11000.00
02774               0.00    11200.00
02775             -18.00    11200.00
02776             -16.00    11200.00
02777              -2.00    11400.00
02778             -16.00    11200.00
02779              -2.00    11600.00
02780              -8.00    11600.00
02781             -18.00    11800.00
02782             -10.00    11800.00
02783             -10.00    11600.00
02784             -22.00    11800.00
02785              -6.00    11800.00
02786              -2.00    11800.00
02787              -8.00    12000.00
02788              -8.00    12000.00
02789             -18.00    12000.00
02790             -18.00    12000.00
02791              -6.00    12000.00
02792             -10.00    12000.00
02793             -10.00    12000.00
02794              -2.00    12000.00
02795             -10.00    12000.00
02796             -16.00    12000.00
02797             -16.00    12200.00
02798             -16.00    12200.00
02799             -10.00    12000.00
02800              -2.00    12200.00
02801             -10.00    12000.00
02802             -12.00    12000.00
02803             -16.00    12000.00
02804             -18.00    12000.00
02805             -12.00    12000.00
02806              -6.00    12000.00
02807              -6.00    12000.00
02808              -6.00    12000.00
02809             -14.00    12000.00
02810             -20.00    11800.00
02811             -16.00    12000.00
02812              -6.00    11800.00
02813              -6.00    11800.00
02814             -10.00    11800.00
02815             -16.00    11600.00
02816             -18.00    11800.00
02817             -16.00    11600.00
02818              -6.00    11800.00
02819              -6.00    11400.00
02820              -8.00    11400.00
02821             -14.00    11400.00
02822             -16.00    11200.00
02823             -10.00    11200.00
02824              -8.00    11200.00
02825             -10.00    10800.00
02826             -10.00    10800.00
02827              -8.00    10800.00
02828              -8.00    10800.00
02829             -10.00    10600.00
02830             -16.00    10600.00
02831             -10.00    10400.00
02832              -6.00    10400.00
02833              -2.00    10200.00
02834             -10.00    10000.00
02835             -14.00    10000.00
02836             -16.00     9800.00
02837             -10.00     9800.00
02838              -6.00     9600.00
02839              -8.00     9600.00
02840              -8.00     9600.00
02841              -8.00     9200.00
02842             -10.00     9200.00
02843             -10.00     9000.00
02844             -10.00     8800.00
02845             -10.00     8800.00
02846              -8.00     8600.00
02847              -8.00     8400.00
02848             -10.00     8400.00
02849             -14.00     8200.00
02850             -14.00     8200.00
02851             -10.00     8000.00
02852              -6.00     7600.00
02853              -6.00     7600.00
02854              -8.00     7600.00
02855              -6.00     7200.00
02856             -10.00     7200.00
02857             -14.00     7200.00
02858             -10.00     6800.00
02859              -8.00     6600.00
02860              -6.00     6600.00
02861              -6.00     6400.00
02862             -10.00     6200.00
02863             -10.00     6000.00
02864              -8.00     5800.00
02865              -6.00     5800.00
02866              -6.00     5400.00
02867              -4.00     5400.00
02868              -8.00     5200.00
02869             -10.00     5000.00
02870             -10.00     4800.00
02871              -8.00     4600.00
02872              -6.00     4400.00
02873              -2.00     4200.00
02874              -6.00     4000.00
02875              -8.00     3800.00
02876              -8.00     3600.00
02877              -6.00     3600.00
02878              -2.00     3200.00
02879              -2.00     3200.00
02880              -6.00     3000.00
02881              -6.00     2800.00
02882              -2.00     2600.00
02883              -6.00     2400.00
02884              -8.00     2200.00
02885              -6.00     2000.00
02886               0.00     1800.00
02887               0.00     1800.00
02888               0.00     1600.00
02889              -6.00     1200.00
02890              -8.00     1000.00
02891              -8.00     1000.00
02892              -2.00      800.00
02893               0.00      400.00
02894               0.00      400.00
02895               2.00      200.00
02896              -2.00        0.00
02897              16.00     -200.00
02898              30.00     -400.00
02899               2.00     -600.00
02900             -18.00     -600.00
02901             -10.00     -800.00
02902              14.00    -1200.00
02903              24.00    -1200.00
02904              96.00    -1400.00
02905             246.00    -1600.00
02906              56.00    -2200.00
02907            -254.00    -2400.00
02908            -254.00    -2400.00
02909              32.00    -2600.00
02910             192.00    -2400.00
02911             246.00    -2800.00
02912              38.00    -3200.00
02913            -254.00    -3000.00
02914              80.00    -3600.00
02915             246.00    -3600.00
02916              -6.00    -3400.00
02917             -10.00    -4200.00
02918            -154.00    -4000.00
02919              98.00    -4400.00
02920             122.00    -4800.00
02921            -100.00    -4600.00
02922            -104.00    -4800.00
02923             -38.00    -4800.00
02924             178.00    -5600.00
02925              30.00    -5400.00
02926             -90.00    -5600.00
02927             -48.00    -6000.00
02928             -22.00    -5600.00
02929             128.00    -6200.00
02930               0.00    -6000.00
02931             -66.00    -6400.00
02932              -6.00    -6800.00
02933              22.00    -6800.00
02934              24.00    -7000.00
02935             -42.00    -6800.00
02936               2.00    -7200.00
02937              16.00    -7400.00
02938              24.00    -7400.00
02939               0.00    -7600.00
02940             -48.00    -7800.00
02941              24.00    -8000.00
02942              26.00    -8000.00
02943              -8.00    -8200.00
02944             -16.00    -8400.00
02945             -10.00    -8400.00
02946              16.00    -8800.00
02947              22.00    -8600.00
02948               2.00    -9000.00
02949             -16.00    -9200.00
02950               0.00    -9200.00
02951              10.00    -9400.00
02952               0.00    -9200.00
02953               6.00    -9600.00
02954               2.00    -9400.00
02955              -2.00    -9600.00
02956               2.00    -9800.00
02957              -8.00   -10000.00
02958              10.00   -10000.00
02959              24.00   -10000.00
02960               8.00   -10200.00
02961              -8.00   -10400.00
02962             -10.00   -10400.00
02963              -2.00   -10600.00
02964              16.00   -10600.00
02965              20.00   -10800.00
02966               0.00   -10800.00
02967              -8.00   -11000.00
02968               0.00   -10800.00
02969               6.00   -11000.00
02970              14.00   -11000.00
02971               8.00   -11000.00
02972               0.00   -11200.00
02973               6.00   -11200.00
02974               2.00   -11200.00
02975               0.00   -11400.00
02976               8.00   -11200.00
02977               8.00   -11400.00
02978               6.00   -11400.00
02979               8.00   -11400.00
02980               4.00   -11600.00
02981               0.00   -11600.00
02982               2.00   -11600.00
02983               6.00   -11600.00
02984               0.00   -11800.00
02985              10.00   -11600.00
02986               2.00   -11600.00
02987               2.00   -11600.00
02988               6.00   -11600.00
02989               4.00   -11600.00
02990               6.00   -11600.00
02991               0.00   -11800.00
02992              -2.00   -11600.00
02993               8.00   -11800.00
02994              10.00   -11800.00
02995               2.00   -11800.00
02996              -6.00   -11600.00
02997              -2.00   -11600.00
02998              10.00   -11600.00
02999              16.00   -11600.00
03000               8.00   -11600.00
03001               2.00   -11600.00
03002               0.00   -11400.00
03003              -8.00   -11600.00
03004              -2.00   -11400.00
03005              14.00   -11200.00
03006              16.00   -11200.00
03007              14.00   -11200.00
03008              -6.00   -11200.00
03009             -12.00   -11200.00
03010               0.00   -11000.00
03011              16.00   -11000.00
03012              22.00   -11000.00
03013              10.00   -10800.00
03014              -8.00   -11000.00
03015              -8.00   -10800.00
03016               0.00   -10600.00
03017               6.00   -10800.00
03018              14.00   -10400.00
03019              16.00   -10400.00
03020              10.00   -10400.00
03021               2.00   -10400.00
03022             -10.00   -10200.00
03023              -6.00   -10000.00
03024               4.00   -10000.00
03025              14.00    -9800.00
03026              14.00    -9600.00
03027               6.00    -9600.00
03028              -6.00    -9600.00
03029              -6.00    -9400.00
03030               4.00    -9400.00
03031              10.00    -9200.00
03032              12.00    -9200.00
03033               2.00    -8800.00
03034              -4.00    -8800.00
03035               2.00    -8800.00
03036               4.00    -8600.00
03037               6.00    -8400.00
03038               6.00    -8400.00
03039               0.00    -8200.00
03040               6.00    -7800.00
03041               8.00    -7800.00
03042               0.00    -7600.00
03043              -4.00    -7600.00
03044              -2.00    -7400.00
03045               0.00    -7200.00
03046               6.00    -7200.00
03047               4.00    -6800.00
03048               0.00    -6800.00
03049               2.00    -6800.00
03050               0.00    -6400.00
03051               0.00    -6200.00
03052               0.00    -6200.00
03053               2.00    -6000.00
03054               0.00    -5800.00
03055               0.00    -5600.00
03056               0.00    -5600.00
03057               0.00    -5200.00
03058              -2.00    -5200.00
03059               0.00    -5000.00
03060               0.00    -4800.00
03061               2.00    -4600.00
03062               0.00    -4400.00
03063              -2.00    -4400.00
03064              -6.00    -4000.00
03065               0.00    -3800.00
03066               2.00    -3800.00
03067               0.00    -3600.00
03068               0.00    -3200.00
03069              -2.00    -3200.00
03070              -2.00    -3000.00
03071               0.00    -2800.00
03072               0.00    -2400.00
03073               2.00    -2400.00
03074               0.00    -2200.00
03075              -8.00    -2000.00
03076              -6.00    -2000.00
03077               0.00    -1600.00
03078               4.00    -1400.00
03079               2.00    -1400.00
03080              -2.00    -1000.00
03081              -2.00     -800.00
03082              -2.00     -800.00
03083              -2.00     -600.00
03084              -2.00     -400.00
03085               2.00        0.00
03086               0.00      200.00
03087               0.00      400.00
03088               0.00      400.00
03089              22.00      800.00
03090              30.00      800.00
03091               4.00     1200.00
03092             -16.00     1200.00
03093              -4.00     1400.00
03094              16.00     1600.00
03095              58.00     1800.00
03096             246.00     2000.00
03097             194.00     2400.00
03098            -254.00     2400.00
03099            -254.00     2400.00
03100            -118.00     2600.00
03101             246.00     2800.00
03102             246.00     3200.00
03103            -114.00     3200.00
03104            -254.00     3200.00
03105             238.00     3600.00
03106             230.00     3800.00
03107             -52.00     4000.00
03108              90.00     4400.00
03109            -254.00     4200.00
03110             126.00     4400.00
03111             176.00     5000.00
03112            -216.00     5000.00
03113             -36.00     5000.00
03114              14.00     5400.00
03115              98.00     5600.00
03116              14.00     5600.00
03117             -46.00     6000.00
03118             -78.00     5800.00
03119             -30.00     6000.00
03120             160.00     6400.00
03121             -90.00     6400.00
03122             -42.00     6800.00
03123              22.00     6600.00
03124             -20.00     6800.00
03125              48.00     7200.00
03126             -56.00     7200.00
03127             -34.00     7400.00
03128              30.00     7600.00
03129              32.00     7800.00
03130             -52.00     7600.00
03131             -20.00     8200.00
03132               0.00     8200.00
03133             -10.00     8400.00
03134              24.00     8400.00
03135             -26.00     8400.00
03136             -32.00     8600.00
03137               4.00     9000.00
03138              16.00     9000.00
03139             -22.00     9200.00
03140               6.00     9400.00
03141             -30.00     9200.00
03142             -22.00     9600.00
03143              16.00     9600.00
03144             -10.00     9800.00
03145               0.00     9800.00
03146              -8.00    10000.00
03147             -32.00    10000.00
03148             -18.00    10000.00
03149              14.00    10400.00
03150              -2.00    10400.00
03151              -6.00    10400.00
03152             -14.00    10600.00
03153             -30.00    10600.00
03154             -10.00    10800.00
03155               0.00    10800.00
03156              -6.00    10800.00
03157               0.00    11000.00
03158              -8.00    11200.00
03159             -24.00    11200.00
03160              -8.00    11200.00
03161             -14.00    11400.00
03162             -14.00    11400.00
03163               6.00    11400.00
03164              -6.00    11400.00
03165             -14.00    11800.00
03166             -10.00    11800.00
03167             -16.00    11800.00
03168             -10.00    11800.00
03169               2.00    12000.00
03170              -6.00    11800.00
03171              -8.00    11800.00
03172             -10.00    12000.00
03173             -18.00    12000.00
03174             -14.00    12000.00
03175             -10.00    12000.00
03176             -10.00    12000.00
03177              -2.00    12000.00
03178              -6.00    12000.00
03179             -16.00    12000.00
03180             -22.00    12000.00
03181             -10.00    12000.00
03182             -10.00    12000.00
03183              -4.00    12000.00
03184              -8.00    12000.00
03185             -10.00    12200.00
03186             -14.00    12000.00
03187             -16.00    12000.00
03188             -16.00    12000.00
03189              -8.00    12000.00
03190               0.00    12000.00
03191              -8.00    12000.00
03192             -16.00    11800.00
03193             -16.00    12000.00
03194             -18.00    12000.00
03195              -8.00    11800.00
03196              -6.00    11800.00
03197             -10.00    11600.00
03198              -8.00    11800.00
03199             -12.00    11600.00
03200             -18.00    11600.00
03201             -12.00    11600.00
03202              -8.00    11600.00
03203              -6.00    11400.00
03204              -6.00    11200.00
03205             -14.00    11200.00
03206             -16.00    11200.00
03207             -10.00    11200.00
03208             -14.00    11000.00
03209              -8.00    10800.00
03210              -6.00    10800.00
03211              -8.00    10800.00
03212             -10.00    10600.00
03213             -10.00    10600.00
03214             -16.00    10400.00
03215              -8.00    10400.00
03216              -8.00    10200.00
03217              -6.00    10200.00
03218              -6.00    10000.00
03219             -10.00    10000.00
03220             -16.00     9800.00
03221             -14.00     9600.00
03222             -10.00     9600.00
03223              -2.00     9600.00
03224              -2.00     9400.00
03225              -8.00     9200.00
03226             -16.00     9200.00
03227             -10.00     9200.00
03228             -10.00     8800.00
03229              -6.00     8800.00
03230              -8.00     8400.00
03231              -2.00     8400.00
03232              -8.00     8400.00
03233             -10.00     8200.00
03234             -14.00     8000.00
03235              -8.00     8000.00
03236               0.00     7600.00
03237              -4.00     7600.00
03238              -8.00     7400.00
03239             -10.00     7200.00
03240             -10.00     7200.00
03241             -10.00     7000.00
03242             -10.00     6800.00
03243              -6.00     6600.00
03244              -6.00     6400.00
03245              -8.00     6400.00
03246             -10.00     6000.00
03247             -10.00     6000.00
03248              -6.00     5800.00
03249              -2.00     5600.00
03250              -8.00     5600.00
03251              -6.00     5200.00
03252              -6.00     5200.00
03253             -10.00     4800.00
03254             -10.00     4800.00
03255             -10.00     4400.00
03256              -2.00     4200.00
03257               0.00     4000.00
03258              -6.00     4000.00
03259             -10.00     3800.00
03260             -10.00     3600.00
03261              -8.00     3400.00
03262              -6.00     3200.00
03263              -6.00     3200.00
03264              -6.00     2800.00
03265              -2.00     2800.00
03266              -8.00     2400.00
03267             -10.00     2400.00
03268              -6.00     2000.00
03269              -2.00     1800.00
03270              -2.00     1600.00
03271              -2.00     1600.00
03272              -8.00     1200.00
03273              -8.00     1200.00
03274              -6.00     1000.00
03275              -6.00     1000.00
03276              -2.00      600.00
03277               2.00      400.00
03278               4.00      200.00
03279              -2.00      200.00
03280               0.00        0.00
03281              30.00     -400.00
03282              24.00     -600.00
03283             -14.00     -600.00
03284             -20.00     -800.00
03285               6.00    -1000.00
03286              16.00    -1200.00
03287              38.00    -1400.00
03288             178.00    -1400.00
03289             246.00    -2000.00
03290            -186.00    -2400.00
03291            -254.00    -2400.00
03292            -198.00    -2600.00
03293             134.00    -2400.00
03294             246.00    -2600.00
03295             246.00    -3000.00
03296            -254.00    -3200.00
03297            -254.00    -3000.00
03298             246.00    -3800.00
03299              96.00    -3400.00
03300              26.00    -3800.00
03301             -86.00    -4400.00
03302             -80.00    -4000.00
03303             176.00    -4600.00
03304              -6.00    -4600.00
03305            -118.00    -4800.00
03306             -90.00    -4800.00
03307              80.00    -4800.00
03308             166.00    -5400.00
03309             -82.00    -5200.00
03310             -78.00    -5800.00
03311             -54.00    -5600.00
03312              80.00    -6000.00
03313             126.00    -6400.00
03314             -80.00    -6000.00
03315             -58.00    -6800.00
03316              -8.00    -6400.00
03317              64.00    -6800.00
03318               8.00    -7000.00
03319             -48.00    -7000.00
03320              -2.00    -7200.00
03321              16.00    -7200.00
03322              50.00    -7800.00
03323             -26.00    -7600.00
03324             -38.00    -8000.00
03325              22.00    -8200.00
03326              16.00    -7800.00
03327               0.00    -8400.00
03328             -14.00    -8400.00
03329             -10.00    -8600.00
03330              10.00    -8800.00
03331              18.00    -8800.00
03332               2.00    -9000.00
03333               0.00    -9000.00
03334               8.00    -9200.00
03335              -6.00    -9400.00
03336              -6.00    -9400.00
03337               8.00    -9600.00
03338              -2.00    -9600.00
03339               8.00    -9600.00
03340               8.00    -9800.00
03341              -2.00   -10000.00
03342              16.00   -10000.00
03343               8.00   -10200.00
03344               0.00   -10200.00
03345              -2.00   -10400.00
03346               0.00   -10200.00
03347               2.00   -10400.00
03348              14.00   -10600.00
03349               8.00   -10800.00
03350               0.00   -10800.00
03351              14.00   -10800.00
03352               8.00   -11000.00
03353               0.00   -11000.00
03354               0.00   -11200.00
03355              -2.00   -11000.00
03356               6.00   -11200.00
03357              18.00   -11200.00
03358               6.00   -11200.00
03359               0.00   -11200.00
03360               0.00   -11200.00
03361               2.00   -11600.00
03362              14.00   -11600.00
03363              16.00   -11600.00
03364               0.00   -11600.00
03365              -8.00   -11600.00
03366               0.00   -11600.00
03367               6.00   -11600.00
03368              16.00   -11600.00
03369              14.00   -11800.00
03370               6.00   -11600.00
03371               0.00   -11600.00
03372              -6.00   -11600.00
03373              -2.00   -11600.00
03374               8.00   -11800.00
03375              14.00   -11600.00
03376              10.00   -11600.00
03377               0.00   -11600.00
03378              -2.00   -11600.00
03379              -2.00   -11800.00
03380               4.00   -11800.00
03381               8.00   -11600.00
03382               8.00   -11600.00
03383               6.00   -11600.00
03384               2.00   -11600.00
03385               6.00   -11600.00
03386               4.00   -11400.00
03387               0.00   -11400.00
03388               2.00   -11400.00
03389               8.00   -11200.00
03390              14.00   -11400.00
03391               6.00   -11200.00
03392               0.00   -11200.00
03393              -2.00   -11200.00
03394               0.00   -11000.00
03395               4.00   -11000.00
03396              10.00   -11000.00
03397              10.00   -11000.00
03398               8.00   -10800.00
03399              -2.00   -10800.00
03400              -6.00   -10800.00
03401               0.00   -10400.00
03402              10.00   -10400.00
03403              16.00   -10400.00
03404              14.00   -10200.00
03405               0.00   -10200.00
03406              -6.00   -10000.00
03407              -2.00   -10200.00
03408               8.00   -10000.00
03409              14.00    -9600.00
03410              10.00    -9600.00
03411               0.00    -9600.00
03412              -4.00    -9400.00
03413               0.00    -9400.00
03414               8.00    -9200.00
03415              10.00    -9200.00
03416               6.00    -9000.00
03417               2.00    -8800.00
03418               0.00    -8800.00
03419               0.00    -8800.00
03420               0.00    -8400.00
03421               6.00    -8400.00
03422               6.00    -8200.00
03423               2.00    -8000.00
03424               4.00    -7800.00
03425               0.00    -7600.00
03426               0.00    -7600.00
03427               2.00    -7400.00
03428               6.00    -7200.00
03429               8.00    -7200.00
03430               4.00    -7000.00
03431              -2.00    -7000.00
03432              -2.00    -6800.00
03433               2.00    -6800.00
03434               2.00    -6400.00
03435               0.00    -6200.00
03436               0.00    -6200.00
03437               2.00    -6000.00
03438               2.00    -5600.00
03439               2.00    -5600.00
03440              -6.00    -5400.00
03441              -2.00    -5200.00
03442               0.00    -5000.00
03443               2.00    -4800.00
03444               2.00    -4600.00
03445              -2.00    -4600.00
03446              -2.00    -4400.00
03447              -2.00    -4000.00
03448              -2.00    -4000.00
03449               2.00    -3800.00
03450               0.00    -3600.00
03451               0.00    -3400.00
03452              -6.00    -3200.00
03453              -6.00    -3000.00
03454              -6.00    -3000.00
03455               2.00    -2600.00
03456               2.00    -2400.00
03457               0.00    -2200.00
03458              -6.00    -2000.00
03459              -8.00    -2000.00
03460              -6.00    -1800.00
03461               0.00    -1600.00
03462               0.00    -1400.00
03463              -2.00    -1000.00
03464              -6.00     -800.00
03465              -2.00     -800.00
03466              -2.00     -600.00
03467              -6.00     -400.00
03468              -4.00     -200.00
03469               0.00        0.00
03470               2.00      200.00
03471               0.00      400.00
03472               8.00      400.00
03473              32.00      800.00
03474              18.00      800.00
03475             -12.00     1000.00
03476             -16.00     1200.00
03477               2.00     1400.00
03478              24.00     1600.00
03479             144.00     1800.00
03480             246.00     2400.00
03481             -76.00     2400.00
03482            -254.00     2400.00
03483            -254.00     2600.00
03484              42.00     2800.00
03485             246.00     3000.00
03486             246.00     3400.00
03487            -254.00     3200.00
03488            -254.00     3400.00
03489             246.00     3800.00
03490             -14.00     3800.00
03491              78.00     4200.00
03492             -80.00     4400.00
03493            -188.00     4200.00
03494             246.00     4400.00
03495             -56.00     4800.00
03496            -170.00     5000.00
03497              10.00     5200.00
03498              46.00     5400.00
03499              96.00     5200.00
03500             -44.00     5600.00
03501             -38.00     6000.00
03502            -106.00     5800.00
03503              98.00     6400.00
03504              72.00     6400.00
03505            -134.00     6400.00
03506              32.00     6800.00
03507             -24.00     6600.00
03508              24.00     7200.00
03509               8.00     7200.00
03510             -66.00     7400.00
03511               0.00     7400.00
03512              44.00     7600.00
03513              -2.00     8000.00
03514             -58.00     7800.00
03515               8.00     8200.00
03516             -22.00     8200.00
03517              14.00     8400.00
03518               2.00     8400.00
03519             -40.00     8600.00
03520             -18.00     8800.00
03521              22.00     9000.00
03522              -2.00     9200.00
03523             -12.00     9200.00
03524              -6.00     9200.00
03525             -46.00     9400.00
03526               8.00     9600.00
03527               2.00     9800.00
03528              -4.00     9800.00
03529               0.00    10000.00
03530             -24.00    10000.00
03531             -34.00    10200.00
03532               2.00    10200.00
03533              16.00    10400.00
03534             -10.00    10400.00
03535              -4.00    10600.00
03536             -26.00    10600.00
03537             -26.00    10800.00
03538               0.00    10800.00
03539              -2.00    10800.00
03540              -6.00    10800.00
03541              -2.00    11200.00
03542             -16.00    11200.00
03543             -12.00    11200.00
03544              -6.00    11400.00
03545             -20.00    11400.00
03546             -10.00    11400.00
03547               2.00    11800.00
03548              -8.00    11400.00
03549             -10.00    11800.00
03550             -10.00    11800.00
03551             -16.00    12000.00
03552              -8.00    11800.00
03553               0.00    11800.00
03554             -10.00    12000.00
03555              -8.00    11800.00
03556             -10.00    12000.00
03557             -16.00    12000.00
03558             -10.00    12000.00
03559             -10.00    12000.00
03560              -8.00    12200.00
03561               0.00    12000.00
03562             -10.00    12000.00
03563             -18.00    12000.00
03564             -16.00    12000.00
03565             -14.00    12200.00
03566             -14.00    12000.00
03567              -2.00    12200.00
03568              -8.00    12000.00
03569             -14.00    12000.00
03570             -18.00    12000.00
03571             -22.00    12000.00
03572             -10.00    12000.00
03573              -2.00    12000.00
03574              -8.00    12000.00
03575             -10.00    11800.00
03576             -18.00    12000.00
03577             -18.00    12000.00
03578             -12.00    11800.00
03579              -6.00    11800.00
03580              -8.00    11600.00
03581              -8.00    11800.00
03582             -10.00    11800.00
03583             -18.00    11600.00
03584             -16.00    11600.00
03585             -10.00    11400.00
03586              -8.00    11400.00
03587              -6.00    11400.00
03588             -10.00    11200.00
03589             -14.00    11200.00
03590             -14.00    11200.00
03591             -16.00    11200.00
03592             -10.00    10800.00
03593              -2.00    11000.00
03594              -6.00    10800.00
03595             -10.00    10800.00
03596             -16.00    10600.00
03597             -16.00    10600.00
03598             -10.00    10400.00
03599              -6.00    10400.00
03600              -8.00    10000.00
03601             -10.00    10200.00
03602             -10.00    10000.00
03603             -10.00     9800.00
03604             -10.00     9800.00
03605             -10.00     9600.00
03606             -10.00     9600.00
03607              -4.00     9400.00
03608              -6.00     9400.00
03609             -10.00     9200.00
03610             -10.00     9000.00
03611             -14.00     9000.00
03612             -10.00     8800.00
03613              -4.00     8800.00
03614              -6.00     8400.00
03615             -10.00     8400.00
03616             -10.00     8200.00
03617             -10.00     8000.00
03618              -8.00     8000.00
03619              -6.00     7800.00
03620              -8.00     7600.00
03621              -6.00     7600.00
03622              -6.00     7400.00
03623              -8.00     7200.00
03624             -12.00     7200.00
03625             -10.00     6800.00
03626              -2.00     6800.00
03627              -4.00     6600.00
03628              -8.00     6600.00
03629             -10.00     6400.00
03630             -10.00     6000.00
03631              -2.00     5800.00
03632              -6.00     5800.00
03633             -10.00     5600.00
03634              -8.00     5400.00
03635              -8.00     5200.00
03636             -10.00     5000.00
03637             -12.00     4800.00
03638              -6.00     4800.00
03639               0.00     4400.00
03640               2.00     4400.00
03641             -10.00     4200.00
03642             -16.00     4000.00
03643              -8.00     3800.00
03644              -8.00     3600.00
03645              -8.00     3400.00
03646              -8.00     3200.00
03647              -2.00     2800.00
03648               2.00     2800.00
03649              -8.00     2600.00
03650             -16.00     2400.00
03651             -10.00     2000.00
03652              -2.00     2000.00
03653               0.00     1800.00
03654              -2.00     1600.00
03655              -8.00     1400.00
03656              -2.00     1200.00
03657              -6.00     1000.00
03658             -14.00      800.00
03659              -8.00      600.00
03660               2.00      400.00
03661               6.00      400.00
03662               2.00      200.00
03663              -6.00        0.00
03664              12.00     -200.00
03665              32.00     -400.00
03666               6.00     -600.00
03667             -22.00     -600.00
03668             -10.00    -1000.00
03669               8.00    -1000.00
03670              22.00    -1200.00
03671              82.00    -1400.00
03672             246.00    -1600.00
03673             112.00    -2400.00
03674            -254.00    -2400.00
03675            -254.00    -2400.00
03676               0.00    -2400.00
03677             190.00    -2400.00
03678             246.00    -2600.00
03679             118.00    -3200.00
03680            -254.00    -3000.00
03681              14.00    -3600.00
03682             246.00    -3800.00
03683               0.00    -3600.00
03684               0.00    -4000.00
03685            -158.00    -4000.00
03686              62.00    -4400.00
03687             146.00    -4600.00
03688             -90.00    -4600.00
03689            -102.00    -4800.00
03690             -48.00    -4800.00
03691             168.00    -5400.00
03692              58.00    -5200.00
03693             -96.00    -5600.00
03694             -48.00    -6000.00
03695             -34.00    -5600.00
03696             122.00    -6200.00
03697              22.00    -6200.00
03698             -74.00    -6400.00
03699             -14.00    -6800.00
03700              16.00    -6600.00
03701              38.00    -7000.00
03702             -32.00    -7000.00
03703              -8.00    -7200.00
03704              10.00    -7200.00
03705              20.00    -7400.00
03706              14.00    -7800.00
03707             -46.00    -7400.00
03708              16.00    -8000.00
03709              26.00    -8200.00
03710              -8.00    -8200.00
03711             -10.00    -8400.00
03712              -8.00    -8400.00
03713              14.00    -8800.00
03714              22.00    -8800.00
03715               2.00    -8800.00
03716             -18.00    -9000.00
03717              -2.00    -9200.00
03718              10.00    -9200.00
03719               6.00    -9400.00
03720              14.00    -9400.00
03721               2.00    -9600.00
03722              -6.00    -9600.00
03723               0.00    -9800.00
03724              -8.00   -10000.00
03725               8.00   -10000.00
03726              26.00   -10000.00
03727               8.00   -10400.00
03728              -6.00   -10200.00
03729              -8.00   -10400.00
03730              -2.00   -10400.00
03731              14.00   -10400.00
03732              18.00   -10600.00
03733               2.00   -10800.00
03734               0.00   -11000.00
03735               4.00   -10800.00
03736              -2.00   -11000.00
03737               8.00   -11000.00
03738               8.00   -11000.00
03739               6.00   -11200.00
03740              10.00   -11200.00
03741               2.00   -11200.00
03742               0.00   -11200.00
03743              10.00   -11400.00
03744               4.00   -11600.00
03745               4.00   -11400.00
03746              10.00   -11600.00
03747              10.00   -11600.00
03748               6.00   -11600.00
03749              -2.00   -11800.00
03750               2.00   -11600.00
03751              10.00   -11600.00
03752              14.00   -11600.00
03753               6.00   -11600.00
03754               6.00   -11800.00
03755               6.00   -11800.00
03756              -2.00   -11600.00
03757               0.00   -11800.00
03758              12.00   -11600.00
03759              16.00   -11600.00
03760              10.00   -11600.00
03761              -4.00   -11600.00
03762              -8.00   -11800.00
03763              -2.00   -11800.00
03764              10.00   -11600.00
03765              18.00   -11600.00
03766              16.00   -11600.00
03767               0.00   -11600.00
03768             -16.00   -11800.00
03769              -2.00   -11600.00
03770              14.00   -11600.00
03771              16.00   -11400.00
03772              10.00   -11200.00
03773               2.00   -11400.00
03774               0.00   -11200.00
03775               0.00   -11200.00
03776               0.00   -11200.00
03777               2.00   -11200.00
03778               6.00   -11000.00
03779              10.00   -11000.00
03780               8.00   -11000.00
03781               2.00   -10800.00
03782               0.00   -10800.00
03783               0.00   -10800.00
03784               0.00   -10400.00
03785               6.00   -10600.00
03786              10.00   -10400.00
03787               6.00   -10400.00
03788               2.00   -10200.00
03789               0.00   -10200.00
03790               2.00   -10000.00
03791               0.00   -10000.00
03792               2.00   -10000.00
03793               8.00    -9600.00
03794              10.00    -9600.00
03795               6.00    -9400.00
03796              -2.00    -9400.00
03797              -6.00    -9200.00
03798               0.00    -9200.00
03799              10.00    -9200.00
03800              12.00    -8800.00
03801               6.00    -8800.00
03802              -2.00    -8800.00
03803              -6.00    -8400.00
03804               2.00    -8400.00
03805               8.00    -8400.00
03806               8.00    -8000.00
03807               4.00    -8000.00
03808               0.00    -7800.00
03809               0.00    -7800.00
03810               0.00    -7400.00
03811               2.00    -7400.00
03812               2.00    -7200.00
03813               2.00    -7200.00
03814               6.00    -7000.00
03815               2.00    -6800.00
03816              -2.00    -6800.00
03817               0.00    -6600.00
03818               0.00    -6400.00
03819               6.00    -6200.00
03820               2.00    -6000.00
03821               2.00    -5800.00
03822               2.00    -5600.00
03823               0.00    -5600.00
03824              -2.00    -5400.00
03825               0.00    -5200.00
03826               2.00    -5000.00
03827               2.00    -4800.00
03828              -2.00    -4800.00
03829              -4.00    -4400.00
03830              -2.00    -4400.00
03831               6.00    -4000.00
03832               0.00    -3800.00
03833               0.00    -3600.00
03834               0.00    -3600.00
03835               0.00    -3200.00
03836              -2.00    -3000.00
03837              -6.00    -3000.00
03838              -6.00    -2800.00
03839               0.00    -2600.00
03840               6.00    -2400.00
03841               2.00    -2200.00
03842              -2.00    -2200.00
03843             -10.00    -2000.00
03844             -14.00    -1600.00
03845              -2.00    -1400.00
03846               8.00    -1200.00
03847               8.00    -1000.00
03848              -6.00     -800.00
03849             -16.00     -600.00
03850             -10.00     -600.00
03851               2.00     -200.00
03852               8.00        0.00
03853               2.00        0.00
03854              -2.00      200.00
03855               0.00      600.00
03856              24.00      600.00
03857              26.00      800.00
03858              -8.00     1000.00
03859             -18.00     1200.00
03860               2.00     1200.00
03861              30.00     1600.00
03862              46.00     1600.00
03863             242.00     2000.00
03864             230.00     2400.00
03865            -254.00     2400.00
03866            -254.00     2600.00
03867            -154.00     2600.00
03868             232.00     2800.00
03869             246.00     3200.00
03870              40.00     3200.00
03871            -254.00     3200.00
03872             146.00     3800.00
03873             246.00     3800.00
03874             -74.00     4000.00
03875             106.00     4400.00
03876            -248.00     4200.00
03877              70.00     4600.00
03878             222.00     4800.00
03879            -208.00     5000.00
03880             -62.00     5000.00
03881              16.00     5400.00
03882              98.00     5600.00
03883              38.00     5400.00
03884             -48.00     6000.00
03885             -70.00     5800.00
03886             -58.00     6000.00
03887             166.00     6600.00
03888             -60.00     6400.00
03889             -58.00     6600.00
03890              32.00     6800.00
03891             -30.00     6800.00
03892              48.00     7200.00
03893             -46.00     7200.00
03894             -42.00     7600.00
03895              26.00     7400.00
03896              40.00     7800.00
03897             -42.00     7600.00
03898             -26.00     8000.00
03899               6.00     8400.00
03900             -14.00     8200.00
03901              26.00     8400.00
03902             -24.00     8800.00
03903             -34.00     8800.00
03904               0.00     9000.00
03905              22.00     9000.00
03906             -18.00     9200.00
03907               0.00     9200.00
03908             -30.00     9600.00
03909             -28.00     9600.00
03910              16.00     9800.00
03911              -8.00     9800.00
03912               0.00    10000.00
03913             -10.00    10000.00
03914             -32.00    10000.00
03915             -24.00    10200.00
03916              16.00    10400.00
03917               2.00    10200.00
03918              -8.00    10600.00
03919             -12.00    10600.00
03920             -34.00    10600.00
03921             -10.00    10800.00
03922               6.00    11000.00
03923              -2.00    10800.00
03924              -6.00    10800.00
03925             -10.00    11200.00
03926             -18.00    11200.00
03927              -2.00    11200.00
03928              -8.00    11400.00
03929             -18.00    11400.00
03930              -2.00    11400.00
03931              -2.00    11600.00
03932              -8.00    11800.00
03933              -8.00    11800.00
03934             -16.00    11800.00
03935             -20.00    11800.00
03936              -4.00    11800.00
03937              -2.00    12000.00
03938              -2.00    12000.00
03939              -6.00    12000.00
03940             -22.00    12000.00
03941             -22.00    12000.00
03942              -8.00    12000.00
03943              -6.00    12000.00
03944              -2.00    12000.00
03945              -6.00    12000.00
03946             -16.00    12000.00
03947             -16.00    12200.00
03948              -8.00    12000.00
03949             -10.00    12000.00
03950              -6.00    12200.00
03951              -6.00    12000.00
03952             -10.00    12200.00
03953             -14.00    12000.00
03954             -16.00    12000.00
03955             -14.00    12000.00
03956              -6.00    12000.00
03957              -6.00    11800.00
03958              -8.00    12000.00
03959             -10.00    12000.00
03960             -16.00    12000.00
03961             -16.00    11800.00
03962             -10.00    11800.00
03963              -8.00    11800.00
03964              -8.00    11600.00
03965              -6.00    11800.00
03966             -16.00    11600.00
03967             -18.00    11600.00
03968             -16.00    11400.00
03969             -10.00    11400.00
03970              -6.00    11400.00
03971              -6.00    11400.00
03972             -10.00    11400.00
03973             -16.00    11200.00
03974             -16.00    11200.00
03975             -14.00    11000.00
03976             -10.00    10800.00
03977              -6.00    10800.00
03978              -8.00    10800.00
03979             -10.00    10600.00
03980             -12.00    10600.00
03981             -16.00    10400.00
03982             -14.00    10400.00
03983              -6.00    10200.00
03984              -6.00    10000.00
03985              -6.00    10000.00
03986             -10.00     9800.00
03987             -16.00     9800.00
03988             -16.00     9800.00
03989             -10.00     9600.00
03990              -6.00     9400.00
03991              -6.00     9400.00
03992              -8.00     9200.00
03993             -14.00     9200.00
03994             -10.00     9000.00
03995             -14.00     8800.00
03996              -8.00     8600.00
03997               0.00     8600.00
03998              -2.00     8400.00
03999             -16.00     8400.00
04000             -18.00     8200.00
04001             -12.00     8000.00
04002              -2.00     7800.00
04003              -2.00     7800.00
04004              -2.00     7600.00
04005              -2.00     7400.00
04006             -10.00     7200.00
04007             -26.00     7200.00
04008             -18.00     7000.00
04009              -6.00     7000.00
04010              10.00     6600.00
04011              10.00     6400.00
04012             -10.00     6400.00
04013             -34.00     6200.00
04014             -18.00     6000.00
04015              12.00     5800.00
04016              20.00     5600.00
04017              -8.00     5200.00
04018             -32.00     5400.00
04019             -16.00     5000.00
04020              -2.00     5000.00
04021              -2.00     4800.00
04022              -2.00     4400.00
04023               0.00     4400.00
04024              -8.00     4000.00
04025             -10.00     4200.00
04026              -8.00     4000.00
04027              -2.00     3600.00
04028              -6.00     3600.00
04029             -10.00     3400.00
04030             -10.00     3200.00
04031              -8.00     2800.00
04032              -6.00     2600.00
04033              -2.00     2600.00
04034               0.00     2400.00
04035             -10.00     2000.00
04036             -14.00     2000.00
04037              -2.00     1800.00
04038               2.00     1600.00
04039              -2.00     1400.00
04040             -10.00     1200.00
04041             -10.00     1000.00
04042              -6.00      800.00
04043               0.00      600.00
04044               0.00      400.00
04045              -8.00      200.00
04046              -6.00      200.00
04047               8.00     -400.00
04048              38.00     -400.00
04049              26.00     -600.00
04050             -20.00     -400.00
04051             -32.00     -800.00
04052              -2.00    -1000.00
04053              26.00    -1000.00
04054              46.00    -1200.00
04055             154.00    -1400.00
04056             246.00    -2000.00
04057            -134.00    -2200.00
04058            -254.00    -2400.00
04059            -240.00    -2400.00
04060             118.00    -2600.00
04061             246.00    -2400.00
04062             246.00    -3000.00
04063            -254.00    -3200.00
04064            -254.00    -3000.00
04065             246.00    -3800.00
04066             122.00    -3600.00
04067              14.00    -3600.00
04068             -62.00    -4200.00
04069            -104.00    -3800.00
04070             170.00    -4600.00
04071              22.00    -4400.00
04072            -114.00    -4800.00
04073             -94.00    -4800.00
04074              50.00    -5000.00
04075             182.00    -5400.00
04076             -54.00    -5200.00
04077             -72.00    -5600.00
04078             -54.00    -6000.00
04079              40.00    -5600.00
04080             120.00    -6400.00
04081             -58.00    -6200.00
04082             -40.00    -6400.00
04083               2.00    -6800.00
04084              46.00    -6800.00
04085               2.00    -7200.00
04086             -40.00    -6800.00
04087              10.00    -7400.00
04088               8.00    -7400.00
04089              32.00    -7600.00
04090             -18.00    -7800.00
04091             -26.00    -7800.00
04092              32.00    -8200.00
04093               8.00    -8000.00
04094             -10.00    -8400.00
04095             -10.00    -8400.00
04096               0.00    -8600.00
04097              22.00    -8800.00
04098              14.00    -8800.00
04099              -8.00    -8800.00
04100             -12.00    -9200.00
04101               8.00    -9200.00
04102               2.00    -9200.00
04103               6.00    -9600.00
04104              14.00    -9600.00
04105               0.00    -9600.00
04106               0.00    -9600.00
04107              -6.00    -9800.00
04108             -10.00   -10000.00
04109              16.00   -10000.00
04110              22.00   -10200.00
04111               0.00   -10400.00
04112              -4.00   -10200.00
04113              -8.00   -10400.00
04114               0.00   -10600.00
04115              18.00   -10800.00
04116              14.00   -10800.00
04117               0.00   -10800.00
04118               6.00   -10800.00
04119               0.00   -11000.00
04120               0.00   -11000.00
04121               8.00   -11000.00
04122               6.00   -11000.00
04123              10.00   -11200.00
04124              10.00   -11200.00
04125              -2.00   -11200.00
04126               0.00   -11200.00
04127               6.00   -11400.00
04128               6.00   -11600.00
04129               8.00   -11600.00
04130              10.00   -11600.00
04131               6.00   -11600.00
04132               2.00   -11600.00
04133               2.00   -11600.00
04134               0.00   -11600.00
04135               6.00   -11600.00
04136              16.00   -11800.00
04137               8.00   -11600.00
04138               6.00   -11600.00
04139               0.00   -11800.00
04140              -2.00   -11600.00
04141              10.00   -11600.00
04142              10.00   -11600.00
04143              10.00   -11800.00
04144               8.00   -11600.00
04145               0.00   -11600.00
04146              -2.00   -11600.00
04147               2.00   -11600.00
04148               8.00   -11600.00
04149              12.00   -11600.00
04150              14.00   -11600.00
04151               2.00   -11600.00
04152               0.00   -11600.00
04153              -2.00   -11600.00
04154               0.00   -11600.00
04155               8.00   -11400.00
04156              10.00   -11400.00
04157               8.00   -11200.00
04158               0.00   -11200.00
04159               0.00   -11200.00
04160               0.00   -11200.00
04161               6.00   -11200.00
04162               8.00   -11000.00
04163              10.00   -11000.00
04164               4.00   -10800.00
04165               2.00   -11000.00
04166              -2.00   -10800.00
04167               0.00   -10800.00
04168               6.00   -10600.00
04169               8.00   -10600.00
04170               6.00   -10400.00
04171               4.00   -10200.00
04172               0.00   -10200.00
04173               0.00   -10000.00
04174               0.00   -10000.00
04175               6.00   -10000.00
04176               8.00    -9800.00
04177               8.00   -10000.00
04178               2.00    -9600.00
04179               0.00    -9400.00
04180              -2.00    -9400.00
04181               0.00    -9200.00
04182               8.00    -9200.00
04183               8.00    -9000.00
04184               6.00    -8800.00
04185               0.00    -8800.00
04186              -2.00    -8800.00
04187               0.00    -8600.00
04188               2.00    -8400.00
04189               8.00    -8400.00
04190               6.00    -8200.00
04191               2.00    -8000.00
04192              -2.00    -7800.00
04193               0.00    -7800.00
04194               0.00    -7400.00
04195               4.00    -7400.00
04196               6.00    -7200.00
04197               2.00    -7000.00
04198               0.00    -7000.00
04199               0.00    -6800.00
04200               0.00    -6400.00
04201               0.00    -6400.00
04202               2.00    -6400.00
04203               6.00    -6200.00
04204              -2.00    -6000.00
04205              -2.00    -5800.00
04206               0.00    -5600.00
04207               0.00    -5400.00
04208               2.00    -5200.00
04209               0.00    -5000.00
04210               0.00    -4800.00
04211               0.00    -4600.00
04212               2.00    -4600.00
04213              -2.00    -4400.00
04214              -2.00    -4200.00
04215              -2.00    -4000.00
04216               0.00    -3800.00
04217               2.00    -3800.00
04218               0.00    -3400.00
04219              -6.00    -3200.00
04220              -6.00    -3000.00
04221              -2.00    -3000.00
04222               6.00    -2800.00
04223               6.00    -2600.00
04224               0.00    -2400.00
04225             -10.00    -2200.00
04226             -14.00    -2200.00
04227             -10.00    -2000.00
04228               0.00    -1600.00
04229               8.00    -1400.00
04230               8.00    -1000.00
04231              -2.00    -1000.00
04232             -12.00     -800.00
04233             -14.00     -600.00
04234              -6.00     -400.00
04235               6.00     -200.00
04236              10.00        0.00
04237              -2.00      200.00
04238              -8.00      400.00
04239               0.00      600.00
04240              34.00      800.00
04241              26.00      800.00
04242             -10.00     1000.00
04243             -24.00     1200.00
04244               0.00     1200.00
04245              28.00     1600.00
04246             122.00     1800.00
04247             246.00     2400.00
04248             -14.00     2200.00
04249            -254.00     2400.00
04250            -254.00     2600.00
04251              14.00     2600.00
04252             246.00     3200.00
04253             246.00     3400.00
04254            -254.00     3200.00
04255            -254.00     3600.00
04256             246.00     3800.00
04257              34.00     3800.00
04258              48.00     4200.00
04259             -32.00     4400.00
04260            -228.00     4400.00
04261             246.00     4400.00
04262              -2.00     4800.00
04263            -192.00     5000.00
04264               4.00     5200.00
04265              34.00     5400.00
04266             106.00     5600.00
04267             -32.00     5600.00
04268             -38.00     6000.00
04269            -106.00     5800.00
04270              72.00     6400.00
04271             106.00     6400.00
04272            -134.00     6400.00
04273              20.00     6800.00
04274             -14.00     6800.00
04275              18.00     7000.00
04276              26.00     7200.00
04277             -64.00     7400.00
04278              -8.00     7400.00
04279              38.00     7600.00
04280               6.00     8000.00
04281             -56.00     7800.00
04282              12.00     8200.00
04283             -10.00     8200.00
04284              10.00     8400.00
04285               8.00     8400.00
04286             -42.00     8600.00
04287             -24.00     8800.00
04288              16.00     9000.00
04289               6.00     9200.00
04290             -14.00     9200.00
04291               0.00     9400.00
04292             -42.00     9400.00
04293               0.00     9600.00
04294               6.00     9800.00
04295             -10.00     9800.00
04296               0.00     9800.00
04297             -18.00    10000.00
04298             -32.00    10000.00
04299              -2.00    10400.00
04300              16.00    10400.00
04301             -10.00    10400.00
04302              -2.00    10400.00
04303             -24.00    10600.00
04304             -26.00    10600.00
04305               0.00    10800.00
04306               0.00    11000.00
04307             -10.00    10800.00
04308              -2.00    11200.00
04309             -16.00    11200.00
04310             -14.00    11200.00
04311              -2.00    11400.00
04312             -16.00    11400.00
04313             -10.00    11400.00
04314               0.00    11600.00
04315             -10.00    11400.00
04316             -10.00    11600.00
04317              -8.00    11800.00
04318             -16.00    11800.00
04319             -12.00    11800.00
04320              -2.00    12000.00
04321              -6.00    11800.00
04322              -2.00    12000.00
04323             -12.00    12000.00
04324             -22.00    12000.00
04325             -12.00    12000.00
04326              -6.00    12000.00
04327              -2.00    12000.00
04328              -2.00    12200.00
04329             -10.00    12000.00
04330             -16.00    12200.00
04331             -12.00    12000.00
04332             -10.00    12200.00
04333              -8.00    12000.00
04334              -6.00    12000.00
04335             -10.00    12000.00
04336             -16.00    12000.00
04337             -14.00    12000.00
04338             -10.00    12000.00
04339             -10.00    12000.00
04340              -4.00    12000.00
04341             -10.00    12000.00
04342             -10.00    12000.00
04343             -10.00    12000.00
04344             -14.00    12000.00
04345             -14.00    11800.00
04346              -8.00    11800.00
04347              -8.00    11600.00
04348             -10.00    11800.00
04349             -10.00    11800.00
04350             -14.00    11600.00
04351             -14.00    11600.00
04352             -10.00    11400.00
04353              -8.00    11400.00
04354             -10.00    11400.00
04355             -10.00    11200.00
04356             -14.00    11200.00
04357             -12.00    11000.00
04358             -14.00    11000.00
04359             -10.00    10800.00
04360              -8.00    10800.00
04361              -8.00    10800.00
04362             -10.00    10800.00
04363             -10.00    10600.00
04364             -16.00    10400.00
04365             -14.00    10400.00
04366             -10.00    10200.00
04367              -8.00    10200.00
04368              -6.00    10000.00
04369             -10.00     9800.00
04370             -14.00     9800.00
04371             -16.00     9800.00
04372             -10.00     9600.00
04373              -8.00     9600.00
04374              -8.00     9600.00
04375              -8.00     9200.00
04376             -10.00     9200.00
04377             -14.00     9200.00
04378             -14.00     9000.00
04379             -10.00     9000.00
04380              -6.00     8600.00
04381              -6.00     8400.00
04382              -8.00     8400.00
04383             -12.00     8200.00
04384             -10.00     8000.00
04385             -10.00     8000.00
04386              -8.00     7800.00
04387              -6.00     7600.00
04388              -8.00     7600.00
04389             -10.00     7400.00
04390             -10.00     7200.00
04391             -10.00     6800.00
04392             -10.00     6800.00
04393             -10.00     6600.00
04394              -6.00     6600.00
04395              -2.00     6400.00
04396              -8.00     6400.00
04397             -10.00     6000.00
04398              -8.00     6000.00
04399              -8.00     5800.00
04400              -6.00     5600.00
04401              -2.00     5400.00
04402              -8.00     5200.00
04403              -8.00     5000.00
04404              -8.00     4800.00
04405              -8.00     4800.00
04406              -2.00     4400.00
04407              -2.00     4200.00
04408              -2.00     4000.00
04409              -4.00     4000.00
04410              -8.00     3800.00
04411              -6.00     3400.00
04412              -8.00     3200.00
04413              -6.00     3000.00
04414              -2.00     3000.00
04415              -2.00     2800.00
04416              -6.00     2600.00
04417              -8.00     2400.00
04418              -8.00     2200.00
04419              -6.00     2000.00
04420              -2.00     1800.00
04421               0.00     1600.00
04422              -2.00     1600.00
04423              -6.00     1200.00
04424             -10.00     1200.00
04425              -8.00      800.00
04426              -2.00      800.00
04427              -2.00      400.00
04428               0.00      400.00
04429               0.00      200.00
04430              -2.00        0.00
04431              10.00     -200.00
04432              30.00     -400.00
04433               8.00     -600.00
04434             -18.00     -800.00
04435             -16.00     -800.00
04436              10.00    -1000.00
04437              18.00    -1200.00
04438              66.00    -1400.00
04439             240.00    -1600.00
04440             152.00    -2200.00
04441            -254.00    -2400.00
04442            -254.00    -2400.00
04443             -40.00    -2600.00
04444             168.00    -2400.00
04445             246.00    -2600.00
04446             208.00    -3200.00
04447            -254.00    -3000.00
04448             -74.00    -3200.00
04449             246.00    -3800.00
04450               6.00    -3600.00
04451              14.00    -4000.00
04452            -144.00    -4000.00
04453              30.00    -4200.00
04454             166.00    -4800.00
04455             -74.00    -4600.00
04456            -106.00    -4800.00
04457             -66.00    -4800.00
04458             152.00    -5200.00
04459              90.00    -5400.00
04460             -96.00    -5400.00
04461             -48.00    -6000.00
04462             -42.00    -5600.00
04463             114.00    -6200.00
04464              42.00    -6400.00
04465             -78.00    -6200.00
04466             -10.00    -6600.00
04467              18.00    -6600.00
04468              48.00    -7000.00
04469             -32.00    -7000.00
04470             -16.00    -7200.00
04471              16.00    -7600.00
04472              24.00    -7400.00
04473              24.00    -7800.00
04474             -46.00    -7800.00
04475               2.00    -8000.00
04476              26.00    -8000.00
04477               0.00    -8200.00
04478              -6.00    -8400.00
04479              -6.00    -8400.00
04480               8.00    -8800.00
04481              16.00    -8800.00
04482               6.00    -9000.00
04483             -14.00    -9000.00
04484               0.00    -9200.00
04485              10.00    -9200.00
04486               0.00    -9400.00
04487               8.00    -9400.00
04488               8.00    -9600.00
04489               0.00    -9800.00
04490               2.00    -9800.00
04491             -10.00   -10000.00
04492               0.00   -10000.00
04493              24.00   -10000.00
04494              10.00   -10200.00
04495              -2.00   -10200.00
04496             -10.00   -10400.00
04497              -8.00   -10600.00
04498               8.00   -10600.00
04499              16.00   -10600.00
04500               6.00   -10800.00
04501               0.00   -10800.00
04502               6.00   -10800.00
04503               0.00   -11000.00
04504               0.00   -11000.00
04505               6.00   -11200.00
04506               6.00   -11200.00
04507              12.00   -11200.00
04508               6.00   -11200.00
04509              -2.00   -11200.00
04510               0.00   -11600.00
04511               6.00   -11400.00
04512               2.00   -11600.00
04513               8.00   -11600.00
04514              10.00   -11600.00
04515               6.00   -11600.00
04516               2.00   -11600.00
04517               0.00   -11600.00
04518               2.00   -11600.00
04519              10.00   -11800.00
04520              10.00   -11800.00
04521               6.00   -11600.00
04522               2.00   -11800.00
04523              -2.00   -11800.00
04524               2.00   -11600.00
04525              10.00   -11800.00
04526              10.00   -11600.00
04527               8.00   -11800.00
04528               6.00   -11600.00
04529               0.00   -11600.00
04530               0.00   -11600.00
04531               6.00   -11600.00
04532               6.00   -11600.00
04533              10.00   -11600.00
04534               8.00   -11600.00
04535               2.00   -11600.00
04536               2.00   -11600.00
04537               2.00   -11600.00
04538               2.00   -11400.00
04539               8.00   -11200.00
04540              10.00   -11200.00
04541               6.00   -11400.00
04542               0.00   -11200.00
04543               0.00   -11200.00
04544               2.00   -11200.00
04545               8.00   -11000.00
04546               8.00   -11000.00
04547              10.00   -10800.00
04548               2.00   -10800.00
04549               0.00   -10800.00
04550              -6.00   -10800.00
04551               2.00   -10600.00
04552               8.00   -10600.00
04553              10.00   -10400.00
04554               6.00   -10200.00
04555               0.00   -10200.00
04556              -2.00   -10200.00
04557               0.00   -10000.00
04558               2.00   -10000.00
04559               8.00   -10000.00
04560               8.00    -9600.00
04561               2.00    -9800.00
04562              -2.00    -9600.00
04563              -2.00    -9400.00
04564               0.00    -9200.00
04565               6.00    -9200.00
04566               8.00    -9200.00
04567               2.00    -8800.00
04568               0.00    -8800.00
04569              -2.00    -8600.00
04570              -2.00    -8600.00
04571               2.00    -8400.00
04572               6.00    -8400.00
04573               2.00    -8000.00
04574               2.00    -8000.00
04575               2.00    -7800.00
04576               0.00    -7600.00
04577              -2.00    -7800.00
04578               0.00    -7400.00
04579               6.00    -7200.00
04580               8.00    -7000.00
04581               2.00    -7000.00
04582               2.00    -6800.00
04583               0.00    -6800.00
04584              -2.00    -6400.00
04585               0.00    -6400.00
04586               6.00    -6200.00
04587               6.00    -6000.00
04588               2.00    -5800.00
04589               0.00    -5600.00
04590               0.00    -5400.00
04591               8.00    -5400.00
04592               2.00    -5200.00
04593              -6.00    -5000.00
04594              -2.00    -4800.00
04595               8.00    -4600.00
04596               8.00    -4600.00
04597              -2.00    -4400.00
04598              -8.00    -4000.00
04599               0.00    -3800.00
04600              14.00    -3600.00
04601               0.00    -3600.00
04602              -8.00    -3200.00
04603               0.00    -3200.00
04604               6.00    -3000.00
04605               2.00    -3000.00
04606              -4.00    -2800.00
04607               0.00    -2400.00
04608               6.00    -2200.00
04609               0.00    -2000.00
04610             -12.00    -2000.00
04611             -10.00    -1600.00
04612               2.00    -1400.00
04613               8.00    -1200.00
04614               8.00    -1200.00
04615              -2.00    -1000.00
04616             -14.00     -800.00
04617             -12.00     -600.00
04618              -2.00     -400.00
04619               8.00        0.00
04620               8.00        0.00
04621               0.00      200.00
04622              -6.00      400.00
04623              14.00      800.00
04624              26.00     1000.00
04625               6.00      800.00
04626             -14.00     1000.00
04627              -2.00     1200.00
04628              14.00     1600.00
04629              38.00     1600.00
04630             226.00     1800.00
04631             246.00     2400.00
04632            -254.00     2400.00
04633            -254.00     2600.00
04634            -200.00     2800.00
04635             192.00     2800.00
04636             246.00     3200.00
04637             186.00     3400.00
04638            -254.00     3200.00
04639              34.00     3600.00
04640             246.00     4000.00
04641             -78.00     4000.00
04642             118.00     4200.00
04643            -218.00     4200.00
04644               2.00     4400.00
04645             246.00     4800.00
04646            -192.00     5000.00
04647             -88.00     5200.00
04648              16.00     5400.00
04649              88.00     5400.00
04650              54.00     5600.00
04651             -54.00     5800.00
04652             -62.00     5800.00
04653             -76.00     6000.00
04654             160.00     6600.00
04655             -30.00     6400.00
04656             -82.00     6800.00
04657              40.00     6800.00
04658             -32.00     6800.00
04659              48.00     7200.00
04660             -34.00     7200.00
04661             -46.00     7600.00
04662              24.00     7600.00
04663              42.00     8000.00
04664             -38.00     7800.00
04665             -34.00     8000.00
04666              10.00     8400.00
04667             -14.00     8200.00
04668              26.00     8600.00
04669             -18.00     8600.00
04670             -40.00     8800.00
04671              -2.00     8800.00
04672              24.00     9200.00
04673             -14.00     9200.00
04674              -2.00     9200.00
04675             -22.00     9200.00
04676             -32.00     9200.00
04677              16.00     9600.00
04678             -10.00     9600.00
04679               0.00    10000.00
04680              -4.00     9800.00
04681             -28.00    10000.00
04682             -30.00    10000.00
04683              10.00    10400.00
04684               2.00    10400.00
04685              -6.00    10600.00
04686              -8.00    10600.00
04687             -32.00    10800.00
04688             -14.00    10800.00
04689               0.00    10800.00
04690              -8.00    10800.00
04691              -8.00    11000.00
04692              -8.00    11000.00
04693             -18.00    11200.00
04694              -8.00    11200.00
04695             -10.00    11400.00
04696             -18.00    11400.00
04697              -2.00    11600.00
04698              -2.00    11600.00
04699             -14.00    11800.00
04700             -10.00    11600.00
04701             -16.00    11800.00
04702             -18.00    11600.00
04703              -2.00    12000.00
04704              -2.00    11800.00
04705              -8.00    12000.00
04706             -10.00    12000.00
04707             -18.00    12000.00
04708             -18.00    12000.00
04709              -6.00    12000.00
04710              -6.00    12000.00
04711              -6.00    12000.00
04712              -6.00    12000.00
04713             -16.00    12000.00
04714             -16.00    12200.00
04715              -8.00    12000.00
04716             -10.00    12000.00
04717              -8.00    12000.00
04718              -2.00    12000.00
04719              -8.00    12200.00
04720             -14.00    12000.00
04721             -16.00    12000.00
04722             -16.00    12000.00
04723              -8.00    12000.00
04724              -2.00    12000.00
04725              -8.00    12000.00
04726             -10.00    12000.00
04727             -16.00    12000.00
04728             -18.00    12000.00
04729             -14.00    11800.00
04730              -4.00    11800.00
04731              -8.00    11600.00
04732              -8.00    11800.00
04733             -12.00    11600.00
04734             -14.00    11600.00
04735             -16.00    11800.00
04736             -10.00    11400.00
04737              -8.00    11400.00
04738              -8.00    11400.00
04739             -10.00    11400.00
04740             -16.00    11200.00
04741             -14.00    11200.00
04742             -16.00    11000.00
04743             -14.00    10800.00
04744              -8.00    10800.00
04745              -8.00    10800.00
04746             -10.00    10600.00
04747             -14.00    10600.00
04748             -14.00    10400.00
04749             -12.00    10400.00
04750              -8.00    10200.00
04751              -6.00    10000.00
04752              -6.00    10200.00
04753             -10.00     9800.00
04754             -16.00     9800.00
04755             -16.00     9800.00
04756             -10.00     9600.00
04757              -2.00     9600.00
04758              -2.00     9400.00
04759              -8.00     9200.00
04760             -18.00     9000.00
04761             -16.00     9000.00
04762             -14.00     8800.00
04763              -4.00     8800.00
04764              -2.00     8600.00
04765              -8.00     8400.00
04766             -14.00     8200.00
04767             -12.00     8200.00
04768             -10.00     8000.00
04769              -8.00     8000.00
04770              -2.00     7600.00
04771              -2.00     7600.00
04772              -8.00     7400.00
04773             -12.00     7200.00
04774             -16.00     7200.00
04775             -10.00     7000.00
04776              -8.00     6800.00
04777              -2.00     6600.00
04778              -6.00     6400.00
04779              -8.00     6400.00
04780              -8.00     6400.00
04781              -8.00     6000.00
04782             -10.00     5800.00
04783              -6.00     5600.00
04784              -2.00     5600.00
04785              -2.00     5400.00
04786              -6.00     5200.00
04787             -12.00     5000.00
04788             -10.00     4800.00
04789              -6.00     4400.00
04790              -2.00     4400.00
04791               0.00     4200.00
04792              -6.00     4000.00
04793              -6.00     4000.00
04794              -8.00     3600.00
04795              -8.00     3400.00
04796              -4.00     3200.00
04797               0.00     3200.00
04798               0.00     2800.00
04799              -2.00     2800.00
04800              -8.00     2600.00
04801              -8.00     2400.00
04802              -6.00     2400.00
04803              -2.00     2000.00
04804              -2.00     1800.00
04805              -2.00     1600.00
04806              -6.00     1400.00
04807              -6.00     1200.00
04808             -10.00     1000.00
04809              -8.00      800.00
04810              -2.00      600.00
04811               0.00      600.00
04812               2.00      200.00
04813               0.00        0.00
04814              -2.00     -200.00
04815              22.00     -400.00
04816              24.00     -600.00
04817              -2.00     -600.00
04818             -18.00     -800.00
04819              -6.00     -800.00
04820              14.00    -1000.00
04821              28.00    -1400.00
04822             134.00    -1400.00
04823             246.00    -1800.00
04824             -70.00    -2200.00
04825            -254.00    -2400.00
04826            -254.00    -2600.00
04827              94.00    -2800.00
04828             240.00    -2400.00
04829             246.00    -3000.00
04830            -172.00    -3200.00
04831            -254.00    -3000.00
04832             216.00    -3800.00
04833             166.00    -3600.00
04834              -2.00    -3600.00
04835             -50.00    -4200.00
04836            -126.00    -4000.00
04837             160.00    -4600.00
04838              56.00    -4600.00
04839            -114.00    -4800.00
04840             -98.00    -5200.00
04841              18.00    -4800.00
04842             186.00    -5600.00
04843             -34.00    -5400.00
04844             -80.00    -5800.00
04845             -48.00    -6000.00
04846              24.00    -5600.00
04847             128.00    -6400.00
04848             -50.00    -6200.00
04849             -50.00    -6400.00
04850               6.00    -6400.00
04851              44.00    -6800.00
04852              10.00    -7000.00
04853             -42.00    -7000.00
04854              10.00    -7200.00
04855              14.00    -7200.00
04856              38.00    -7600.00
04857             -12.00    -7800.00
04858             -38.00    -7800.00
04859              26.00    -8000.00
04860              14.00    -8000.00
04861              -2.00    -8400.00
04862              -6.00    -8400.00
04863              -2.00    -8600.00
04864              16.00    -8800.00
04865              16.00    -8800.00
04866              -8.00    -9000.00
04867             -10.00    -9200.00
04868              16.00    -9200.00
04869              14.00    -9200.00
04870               0.00    -9400.00
04871               0.00    -9400.00
04872             -10.00    -9800.00
04873               2.00    -9800.00
04874              14.00    -9800.00
04875              -2.00    -9800.00
04876              10.00   -10200.00
04877              14.00   -10000.00
04878              -2.00   -10200.00
04879               0.00   -10400.00
04880               0.00   -10200.00
04881               0.00   -10400.00
04882               8.00   -10600.00
04883               8.00   -10400.00
04884               2.00   -10800.00
04885               8.00   -10800.00
04886               0.00   -10800.00
04887              -2.00   -11000.00
04888               6.00   -11000.00
04889               2.00   -11200.00
04890               0.00   -11200.00
04891               6.00   -11200.00
04892               0.00   -11200.00
04893               6.00   -11200.00
04894               8.00   -11200.00
04895               0.00   -11600.00
04896               0.00   -11400.00
04897              14.00   -11600.00
04898              12.00   -11600.00
04899               6.00   -11600.00
04900               0.00   -11600.00
04901              -8.00   -11600.00
04902               2.00   -11800.00
04903              16.00   -11600.00
04904              14.00   -11600.00
04905               6.00   -11800.00
04906              -4.00   -11600.00
04907              -6.00   -11800.00
04908               6.00   -11600.00
04909               8.00   -11800.00
04910               8.00   -11600.00
04911              12.00   -11600.00
04912               8.00   -11800.00
04913               4.00   -11600.00
04914               0.00   -11600.00
04915               8.00   -11600.00
04916               6.00   -11600.00
04917               0.00   -11400.00
04918               6.00   -11600.00
04919              -6.00   -11600.00
04920               0.00   -11600.00
04921               8.00   -11400.00
04922              14.00   -11400.00
04923              22.00   -11200.00
04924              18.00   -11200.00
04925               2.00   -11400.00
04926              -2.00   -11200.00
04927             -10.00   -11200.00
04928             -14.00   -11200.00
04929               4.00   -11000.00
04930              14.00   -10800.00
04931              12.00   -11000.00
04932              14.00   -10800.00
04933               6.00   -10800.00
04934               6.00   -10800.00
04935               8.00   -10600.00
04936               0.00   -10400.00
04937              -2.00   -10400.00
04938               0.00   -10200.00
04939              -6.00   -10200.00
04940               0.00   -10200.00
04941               2.00   -10000.00
04942               8.00   -10000.00
04943              14.00    -9800.00
04944              14.00    -9600.00
04945               4.00    -9600.00
04946              -2.00    -9400.00
04947              -6.00    -9400.00
04948              -6.00    -9200.00
04949               0.00    -9200.00
04950               6.00    -9000.00
04951               6.00    -8800.00
04952               6.00    -8800.00
04953               6.00    -8800.00
04954               6.00    -8600.00
04955               6.00    -8400.00
04956               2.00    -8400.00
04957               0.00    -8000.00
04958              -4.00    -8000.00
04959              -6.00    -7800.00
04960              -6.00    -7800.00
04961               6.00    -7600.00
04962              10.00    -7200.00
04963              10.00    -7200.00
04964               8.00    -6800.00
04965               0.00    -7000.00
04966              -2.00    -6800.00
04967              -2.00    -6600.00
04968              -4.00    -6400.00
04969               0.00    -6400.00
04970               6.00    -6200.00
04971               6.00    -6000.00
04972               6.00    -5800.00
04973               2.00    -5600.00
04974               0.00    -5400.00
04975               0.00    -5200.00
04976               2.00    -5200.00
04977               0.00    -4800.00
04978               2.00    -4800.00
04979              -2.00    -4600.00
04980              -2.00    -4200.00
04981               0.00    -4200.00
04982               2.00    -4000.00
04983               6.00    -3800.00
04984               6.00    -3600.00
04985               0.00    -3600.00
04986              -2.00    -3200.00
04987              -6.00    -3200.00
04988              -6.00    -3000.00
04989               0.00    -2800.00
04990               0.00    -2400.00
04991               0.00    -2400.00
04992               0.00    -2000.00
04993              -2.00    -2000.00
04994              -2.00    -1800.00
04995              -2.00    -1600.00
04996               2.00    -1400.00
04997               2.00    -1200.00
04998              -2.00    -1000.00
04999              -2.00    -1000.00
05000              -6.00     -600.00
