Unit:(mV)
                     CH1         CH2
Frequency              ? 260.753 kHz
00001               0.00    -3200.00
00002               2.00    -3000.00
00003               0.00    -2800.00
00004               0.00    -2600.00
00005               2.00    -2400.00
00006               8.00    -2200.00
00007               0.00    -2000.00
00008              -8.00    -1800.00
00009              -8.00    -1600.00
00010               2.00    -1400.00
00011              10.00    -1000.00
00012               6.00    -1000.00
00013              -6.00     -600.00
00014             -14.00     -600.00
00015              -6.00     -400.00
00016               2.00     -200.00
00017               8.00        0.00
00018               8.00      400.00
00019               2.00      400.00
00020              -8.00      600.00
00021              10.00      800.00
00022              22.00     1000.00
00023              18.00     1200.00
00024              14.00     1200.00
00025             -10.00     1600.00
00026             -18.00     1600.00
00027             174.00     2000.00
00028             246.00     2600.00
00029            -186.00     2600.00
00030            -254.00     2600.00
00031            -254.00     2600.00
00032             134.00     2800.00
00033             246.00     3200.00
00034             246.00     3600.00
00035            -254.00     3200.00
00036            -254.00     3600.00
00037             246.00     4000.00
00038              66.00     4000.00
00039             118.00     4400.00
00040            -238.00     4600.00
00041            -166.00     4800.00
00042             246.00     4800.00
00043             -50.00     5200.00
00044            -128.00     5200.00
00045             -80.00     5600.00
00046              40.00     5800.00
00047             118.00     5600.00
00048             -24.00     6000.00
00049             -70.00     6200.00
00050            -140.00     6200.00
00051             118.00     6800.00
00052              34.00     6600.00
00053             -76.00     6800.00
00054               6.00     7200.00
00055             -66.00     7000.00
00056              30.00     7400.00
00057             -18.00     7600.00
00058             -56.00     7600.00
00059              -8.00     7800.00
00060              46.00     8000.00
00061             -30.00     8200.00
00062             -64.00     8200.00
00063             -26.00     8600.00
00064             -30.00     8600.00
00065              30.00     8800.00
00066             -10.00     9000.00
00067             -46.00     9000.00
00068             -42.00     9200.00
00069               0.00     9400.00
00070             -24.00     9600.00
00071             -10.00     9600.00
00072             -32.00     9800.00
00073             -50.00     9800.00
00074               0.00    10000.00
00075             -18.00    10000.00
00076             -22.00    10200.00
00077             -26.00    10400.00
00078             -34.00    10600.00
00079             -42.00    10600.00
00080               0.00    10800.00
00081              -6.00    10800.00
00082             -24.00    10800.00
00083             -30.00    11200.00
00084             -48.00    11000.00
00085             -32.00    11200.00
00086             -10.00    11400.00
00087             -14.00    11400.00
00088             -22.00    11400.00
00089             -24.00    11800.00
00090             -34.00    11800.00
00091             -26.00    11800.00
00092             -24.00    12000.00
00093             -32.00    12000.00
00094             -18.00    12000.00
00095             -14.00    12000.00
00096             -26.00    12000.00
00097             -32.00    12000.00
00098             -34.00    12200.00
00099             -36.00    12200.00
00100             -18.00    12400.00
00101             -14.00    12400.00
00102             -22.00    12400.00
00103             -24.00    12400.00
00104             -34.00    12400.00
00105             -36.00    12400.00
00106             -22.00    12400.00
00107             -22.00    12600.00
00108             -26.00    12800.00
00109             -22.00    12800.00
00110             -26.00    12600.00
00111             -30.00    12600.00
00112             -30.00    12600.00
00113             -34.00    12600.00
00114             -26.00    12600.00
00115             -14.00    12400.00
00116             -24.00    12600.00
00117             -30.00    12600.00
00118             -34.00    12400.00
00119             -36.00    12400.00
00120             -26.00    12400.00
00121             -24.00    12400.00
00122             -24.00    12400.00
00123             -24.00    12400.00
00124             -26.00    12400.00
00125             -38.00    12400.00
00126             -30.00    12400.00
00127             -24.00    12400.00
00128             -22.00    12200.00
00129             -22.00    12200.00
00130             -30.00    12000.00
00131             -32.00    12200.00
00132             -32.00    12000.00
00133             -28.00    12000.00
00134             -18.00    11800.00
00135             -18.00    11800.00
00136             -28.00    11800.00
00137             -32.00    11600.00
00138             -32.00    11800.00
00139             -30.00    11600.00
00140             -22.00    11400.00
00141             -20.00    11400.00
00142             -26.00    11200.00
00143             -28.00    11200.00
00144             -30.00    11000.00
00145             -28.00    11000.00
00146             -22.00    10800.00
00147             -18.00    10800.00
00148             -22.00    10600.00
00149             -24.00    10600.00
00150             -26.00    10400.00
00151             -26.00    10400.00
00152             -24.00    10200.00
00153             -24.00    10000.00
00154             -18.00    10000.00
00155             -22.00     9800.00
00156             -24.00     9800.00
00157             -22.00     9600.00
00158             -24.00     9400.00
00159             -18.00     9400.00
00160             -18.00     9200.00
00161             -20.00     9000.00
00162             -18.00     9000.00
00163             -18.00     8800.00
00164             -22.00     8600.00
00165             -22.00     8400.00
00166             -24.00     8200.00
00167             -16.00     8000.00
00168             -14.00     8000.00
00169             -14.00     7600.00
00170             -18.00     7600.00
00171             -26.00     7600.00
00172             -22.00     7400.00
00173             -14.00     7200.00
00174             -16.00     7000.00
00175             -18.00     6800.00
00176             -18.00     6600.00
00177             -18.00     6400.00
00178             -14.00     6400.00
00179             -14.00     6200.00
00180             -14.00     6000.00
00181             -12.00     5800.00
00182             -10.00     5600.00
00183             -18.00     5400.00
00184             -22.00     5400.00
00185             -20.00     5000.00
00186             -10.00     5000.00
00187              -2.00     4600.00
00188              -6.00     4400.00
00189             -16.00     4200.00
00190             -18.00     4000.00
00191             -10.00     3800.00
00192              -6.00     3600.00
00193             -10.00     3400.00
00194             -18.00     3200.00
00195             -16.00     3000.00
00196              -8.00     3000.00
00197              -2.00     2600.00
00198              -8.00     2600.00
00199             -16.00     2400.00
00200             -16.00     2000.00
00201              -6.00     1800.00
00202               6.00     1800.00
00203               0.00     1600.00
00204             -16.00     1400.00
00205             -20.00     1200.00
00206             -14.00      800.00
00207               0.00      800.00
00208               6.00      400.00
00209               0.00      400.00
00210              -6.00      200.00
00211              -6.00        0.00
00212              22.00     -400.00
00213              32.00     -600.00
00214               0.00     -600.00
00215             -24.00     -800.00
00216             -10.00    -1000.00
00217              18.00    -1200.00
00218              30.00    -1200.00
00219             120.00    -1400.00
00220             246.00    -1600.00
00221              -6.00    -2400.00
00222            -254.00    -2400.00
00223            -254.00    -2600.00
00224             130.00    -2800.00
00225             246.00    -2600.00
00226             246.00    -2800.00
00227               2.00    -3200.00
00228            -254.00    -3200.00
00229              80.00    -3600.00
00230             246.00    -3800.00
00231              42.00    -3600.00
00232             -48.00    -4400.00
00233            -180.00    -4000.00
00234             140.00    -4600.00
00235             120.00    -4800.00
00236             -82.00    -4800.00
00237             -82.00    -5200.00
00238             -66.00    -5000.00
00239             194.00    -5600.00
00240              74.00    -5600.00
00241             -94.00    -5600.00
00242             -72.00    -6200.00
00243               2.00    -6000.00
00244             146.00    -6400.00
00245              16.00    -6400.00
00246             -42.00    -6600.00
00247             -36.00    -7000.00
00248              34.00    -6800.00
00249              64.00    -7200.00
00250             -26.00    -7200.00
00251               8.00    -7400.00
00252               6.00    -7600.00
00253              34.00    -7800.00
00254              32.00    -8000.00
00255             -26.00    -8000.00
00256              10.00    -8400.00
00257              30.00    -8400.00
00258              10.00    -8600.00
00259               6.00    -8800.00
00260              14.00    -8800.00
00261              16.00    -9200.00
00262              22.00    -9200.00
00263              14.00    -9400.00
00264               0.00    -9400.00
00265              16.00    -9400.00
00266              22.00    -9800.00
00267              10.00    -9600.00
00268              22.00    -9800.00
00269              14.00   -10000.00
00270              10.00   -10000.00
00271              16.00   -10200.00
00272              10.00   -10200.00
00273              22.00   -10600.00
00274              32.00   -10400.00
00275              18.00   -10800.00
00276               6.00   -10800.00
00277               8.00   -10800.00
00278              14.00   -11000.00
00279              26.00   -11000.00
00280              34.00   -11000.00
00281              16.00   -11200.00
00282              12.00   -11200.00
00283              18.00   -11200.00
00284              14.00   -11400.00
00285              22.00   -11600.00
00286              24.00   -11600.00
00287              22.00   -11600.00
00288              26.00   -11800.00
00289              16.00   -11800.00
00290              14.00   -11800.00
00291              20.00   -11800.00
00292              22.00   -12000.00
00293              24.00   -11800.00
00294              30.00   -12000.00
00295              24.00   -12000.00
00296              16.00   -12000.00
00297              18.00   -12000.00
00298              16.00   -12000.00
00299              22.00   -12000.00
00300              30.00   -12000.00
00301              26.00   -12000.00
00302              22.00   -12000.00
00303              18.00   -12200.00
00304              14.00   -12000.00
00305              22.00   -12200.00
00306              26.00   -12000.00
00307              30.00   -12000.00
00308              24.00   -12000.00
00309              22.00   -12000.00
00310              14.00   -12000.00
00311              16.00   -12000.00
00312              22.00   -12000.00
00313              26.00   -12000.00
00314              26.00   -12000.00
00315              24.00   -12000.00
00316              14.00   -12000.00
00317              16.00   -12000.00
00318              22.00   -12000.00
00319              22.00   -11800.00
00320              24.00   -11800.00
00321              18.00   -11600.00
00322              18.00   -11800.00
00323              22.00   -11600.00
00324              16.00   -11600.00
00325              16.00   -11600.00
00326              18.00   -11400.00
00327              26.00   -11400.00
00328              22.00   -11200.00
00329              20.00   -11400.00
00330              14.00   -11200.00
00331              14.00   -11000.00
00332              18.00   -11000.00
00333              20.00   -10800.00
00334              24.00   -10800.00
00335              22.00   -10800.00
00336              16.00   -10800.00
00337              12.00   -10800.00
00338               8.00   -10400.00
00339              18.00   -10200.00
00340              22.00   -10200.00
00341              22.00   -10200.00
00342              16.00   -10000.00
00343              10.00   -10000.00
00344              10.00   -10000.00
00345              18.00    -9600.00
00346              22.00    -9600.00
00347              22.00    -9400.00
00348              16.00    -9200.00
00349              10.00    -9200.00
00350              12.00    -9000.00
00351              14.00    -8800.00
00352              14.00    -8800.00
00353              16.00    -8600.00
00354              18.00    -8400.00
00355              16.00    -8200.00
00356              14.00    -8000.00
00357              12.00    -8000.00
00358              12.00    -7800.00
00359              14.00    -7400.00
00360              14.00    -7400.00
00361              14.00    -7400.00
00362              16.00    -7200.00
00363              12.00    -7000.00
00364               8.00    -7000.00
00365               8.00    -6800.00
00366              12.00    -6600.00
00367              16.00    -6400.00
00368              10.00    -6200.00
00369               8.00    -6000.00
00370               8.00    -5800.00
00371               4.00    -5600.00
00372               8.00    -5600.00
00373              14.00    -5400.00
00374              10.00    -5200.00
00375               8.00    -5000.00
00376               6.00    -4800.00
00377               4.00    -4600.00
00378               6.00    -4400.00
00379               6.00    -4200.00
00380               6.00    -4000.00
00381               2.00    -3600.00
00382               2.00    -3600.00
00383               0.00    -3200.00
00384               4.00    -3200.00
00385               6.00    -3000.00
00386               2.00    -2800.00
00387               0.00    -2800.00
00388               0.00    -2400.00
00389               6.00    -2200.00
00390               2.00    -2200.00
00391              -4.00    -2000.00
00392              -2.00    -1800.00
00393               2.00    -1600.00
00394               0.00    -1200.00
00395              -2.00    -1000.00
00396              -2.00     -800.00
00397              -2.00     -600.00
00398              -2.00     -600.00
00399              -4.00     -400.00
00400              -2.00     -200.00
00401              -2.00      200.00
00402               8.00      400.00
00403               6.00      400.00
00404              22.00      600.00
00405              16.00     1000.00
00406              -6.00     1000.00
00407             -16.00     1200.00
00408              -6.00     1600.00
00409              12.00     1600.00
00410              82.00     1800.00
00411             246.00     2200.00
00412             118.00     2400.00
00413            -254.00     2400.00
00414            -254.00     2600.00
00415              -8.00     2800.00
00416             246.00     3000.00
00417             246.00     3400.00
00418            -232.00     3400.00
00419            -254.00     3400.00
00420             240.00     4000.00
00421             246.00     4000.00
00422              46.00     4200.00
00423              -4.00     4400.00
00424            -254.00     4400.00
00425             170.00     4800.00
00426             180.00     5000.00
00427            -170.00     5400.00
00428             -94.00     5400.00
00429             -42.00     5600.00
00430             142.00     5800.00
00431              34.00     5800.00
00432             -50.00     6200.00
00433            -144.00     6200.00
00434             -18.00     6400.00
00435             156.00     6800.00
00436             -80.00     6600.00
00437             -26.00     7000.00
00438             -50.00     7000.00
00439             -12.00     7400.00
00440              50.00     7400.00
00441             -50.00     7600.00
00442             -48.00     7600.00
00443               6.00     8000.00
00444              26.00     8000.00
00445             -56.00     8200.00
00446             -20.00     8400.00
00447             -34.00     8600.00
00448              -2.00     8800.00
00449               8.00     9000.00
00450             -38.00     9000.00
00451             -48.00     9000.00
00452             -10.00     9400.00
00453               0.00     9600.00
00454             -26.00     9600.00
00455              -8.00     9800.00
00456             -58.00     9800.00
00457             -26.00    10000.00
00458               0.00    10000.00
00459             -16.00    10000.00
00460             -16.00    10400.00
00461             -32.00    10400.00
00462             -50.00    10400.00
00463             -26.00    10600.00
00464               6.00    10800.00
00465             -18.00    10800.00
00466             -22.00    10800.00
00467             -38.00    11200.00
00468             -44.00    11200.00
00469             -18.00    11200.00
00470             -10.00    11400.00
00471             -30.00    11400.00
00472             -18.00    11600.00
00473             -26.00    11800.00
00474             -34.00    11600.00
00475             -24.00    11800.00
00476             -32.00    12000.00
00477             -30.00    12000.00
00478             -10.00    12000.00
00479             -18.00    12200.00
00480             -32.00    12000.00
00481             -32.00    12200.00
00482             -34.00    12200.00
00483             -30.00    12200.00
00484             -10.00    12400.00
00485             -22.00    12200.00
00486             -26.00    12200.00
00487             -30.00    12400.00
00488             -38.00    12400.00
00489             -26.00    12600.00
00490             -22.00    12400.00
00491             -24.00    12600.00
00492             -24.00    12400.00
00493             -24.00    12600.00
00494             -34.00    12400.00
00495             -26.00    12600.00
00496             -26.00    12600.00
00497             -26.00    12800.00
00498             -22.00    12400.00
00499             -24.00    12600.00
00500             -28.00    12600.00
00501             -30.00    12400.00
00502             -30.00    12400.00
00503             -32.00    12600.00
00504             -24.00    12400.00
00505             -22.00    12400.00
00506             -22.00    12400.00
00507             -26.00    12200.00
00508             -38.00    12400.00
00509             -34.00    12200.00
00510             -22.00    12200.00
00511             -18.00    12200.00
00512             -24.00    12200.00
00513             -30.00    12200.00
00514             -32.00    12200.00
00515             -32.00    12000.00
00516             -28.00    12000.00
00517             -24.00    12000.00
00518             -18.00    11800.00
00519             -22.00    12000.00
00520             -32.00    11800.00
00521             -32.00    11600.00
00522             -30.00    11600.00
00523             -30.00    11400.00
00524             -24.00    11200.00
00525             -16.00    11200.00
00526             -22.00    11200.00
00527             -26.00    11200.00
00528             -32.00    11200.00
00529             -32.00    10800.00
00530             -24.00    10800.00
00531             -18.00    10800.00
00532             -18.00    10400.00
00533             -24.00    10600.00
00534             -32.00    10400.00
00535             -32.00    10000.00
00536             -24.00    10000.00
00537             -14.00    10000.00
00538             -14.00    10000.00
00539             -24.00     9800.00
00540             -30.00     9600.00
00541             -30.00     9600.00
00542             -20.00     9400.00
00543             -18.00     9200.00
00544             -22.00     9000.00
00545             -24.00     8800.00
00546             -24.00     8800.00
00547             -18.00     8600.00
00548             -18.00     8400.00
00549             -22.00     8200.00
00550             -22.00     8200.00
00551             -18.00     8000.00
00552             -16.00     8000.00
00553             -16.00     7600.00
00554             -16.00     7600.00
00555             -26.00     7400.00
00556             -20.00     7200.00
00557             -18.00     7000.00
00558             -16.00     6800.00
00559             -14.00     6800.00
00560             -16.00     6600.00
00561             -18.00     6400.00
00562             -16.00     6000.00
00563             -16.00     6000.00
00564             -14.00     5800.00
00565             -14.00     5600.00
00566             -14.00     5600.00
00567             -16.00     5200.00
00568             -14.00     5000.00
00569             -18.00     5000.00
00570             -14.00     4800.00
00571              -8.00     4600.00
00572              -8.00     4200.00
00573              -8.00     4200.00
00574             -16.00     4000.00
00575             -18.00     3800.00
00576             -14.00     3600.00
00577              -8.00     3400.00
00578              -4.00     3200.00
00579             -10.00     3000.00
00580             -14.00     2600.00
00581             -16.00     2600.00
00582             -14.00     2400.00
00583              -6.00     2000.00
00584              -4.00     2000.00
00585              -6.00     1800.00
00586              -8.00     1600.00
00587             -10.00     1400.00
00588             -10.00     1000.00
00589             -10.00     1000.00
00590              -6.00     1000.00
00591               0.00      400.00
00592              -2.00      400.00
00593              -2.00      200.00
00594              -2.00        0.00
00595               8.00     -200.00
00596              32.00     -400.00
00597              16.00     -600.00
00598             -18.00     -800.00
00599             -22.00     -800.00
00600               6.00    -1000.00
00601              22.00    -1200.00
00602              56.00    -1400.00
00603             224.00    -1600.00
00604             230.00    -2000.00
00605            -254.00    -2400.00
00606            -254.00    -2400.00
00607             -98.00    -2800.00
00608             234.00    -2800.00
00609             246.00    -2800.00
00610             246.00    -3200.00
00611            -254.00    -3200.00
00612            -254.00    -3200.00
00613             246.00    -4000.00
00614             128.00    -3400.00
00615              30.00    -4000.00
00616            -164.00    -4400.00
00617             -50.00    -4000.00
00618             208.00    -4800.00
00619             -18.00    -4800.00
00620             -74.00    -5200.00
00621            -106.00    -5200.00
00622              66.00    -5200.00
00623             192.00    -5800.00
00624             -54.00    -5400.00
00625             -78.00    -6200.00
00626             -56.00    -6000.00
00627              96.00    -6200.00
00628             102.00    -6600.00
00629             -46.00    -6400.00
00630             -36.00    -7000.00
00631             -14.00    -7000.00
00632              80.00    -7000.00
00633               8.00    -7200.00
00634             -24.00    -7200.00
00635              14.00    -7800.00
00636              14.00    -7600.00
00637              54.00    -8000.00
00638              -8.00    -8000.00
00639             -14.00    -8400.00
00640              30.00    -8600.00
00641              24.00    -8400.00
00642               2.00    -8800.00
00643               8.00    -8800.00
00644              10.00    -8800.00
00645              22.00    -9200.00
00646              26.00    -9200.00
00647               8.00    -9400.00
00648              -2.00    -9400.00
00649              22.00    -9600.00
00650              16.00    -9600.00
00651              18.00   -10000.00
00652              24.00   -10000.00
00653               6.00   -10000.00
00654              16.00   -10200.00
00655              14.00   -10200.00
00656              14.00   -10200.00
00657              32.00   -10400.00
00658              28.00   -10400.00
00659               8.00   -10800.00
00660               8.00   -10800.00
00661              14.00   -10800.00
00662              18.00   -11000.00
00663              30.00   -11200.00
00664              22.00   -11000.00
00665              14.00   -11200.00
00666              18.00   -11400.00
00667              16.00   -11600.00
00668              14.00   -11400.00
00669              24.00   -11600.00
00670              22.00   -11600.00
00671              24.00   -11800.00
00672              26.00   -11600.00
00673              10.00   -11800.00
00674              14.00   -11800.00
00675              22.00   -11800.00
00676              24.00   -11800.00
00677              24.00   -12000.00
00678              24.00   -12000.00
00679              14.00   -12000.00
00680              18.00   -12000.00
00681              24.00   -12000.00
00682              18.00   -12000.00
00683              22.00   -12200.00
00684              28.00   -12000.00
00685              24.00   -12200.00
00686              22.00   -12200.00
00687              14.00   -12000.00
00688              14.00   -12200.00
00689              26.00   -12000.00
00690              30.00   -12200.00
00691              24.00   -12000.00
00692              22.00   -12000.00
00693              16.00   -12000.00
00694              18.00   -12200.00
00695              22.00   -12200.00
00696              22.00   -12000.00
00697              22.00   -12000.00
00698              26.00   -12000.00
00699              22.00   -11800.00
00700              18.00   -11800.00
00701              16.00   -11800.00
00702              16.00   -11800.00
00703              26.00   -11800.00
00704              28.00   -11800.00
00705              22.00   -11600.00
00706              16.00   -11600.00
00707              14.00   -11800.00
00708              16.00   -11600.00
00709              22.00   -11600.00
00710              30.00   -11400.00
00711              18.00   -11400.00
00712              16.00   -11200.00
00713              14.00   -11200.00
00714              14.00   -11200.00
00715              22.00   -11000.00
00716              24.00   -11000.00
00717              18.00   -11000.00
00718              16.00   -10800.00
00719              14.00   -10800.00
00720              14.00   -10400.00
00721              18.00   -10400.00
00722              16.00   -10400.00
00723              14.00   -10200.00
00724              18.00   -10200.00
00725              18.00   -10000.00
00726              16.00   -10000.00
00727              12.00   -10000.00
00728              10.00    -9600.00
00729              14.00    -9600.00
00730              22.00    -9400.00
00731              20.00    -9400.00
00732              14.00    -9400.00
00733               8.00    -9200.00
00734              10.00    -8800.00
00735              22.00    -8800.00
00736              16.00    -8600.00
00737               8.00    -8600.00
00738              10.00    -8400.00
00739              16.00    -8200.00
00740              16.00    -8000.00
00741              10.00    -7800.00
00742               4.00    -7800.00
00743               8.00    -7400.00
00744              24.00    -7400.00
00745              24.00    -7200.00
00746               6.00    -7000.00
00747              -8.00    -7000.00
00748               0.00    -6800.00
00749              24.00    -6600.00
00750              30.00    -6400.00
00751              10.00    -6200.00
00752              -6.00    -6000.00
00753               0.00    -6000.00
00754              10.00    -5600.00
00755              16.00    -5600.00
00756              16.00    -5400.00
00757               8.00    -5200.00
00758               2.00    -5200.00
00759               4.00    -4800.00
00760               4.00    -4800.00
00761               8.00    -4400.00
00762              10.00    -4400.00
00763              10.00    -4000.00
00764               8.00    -3800.00
00765               0.00    -3600.00
00766              -2.00    -3600.00
00767               6.00    -3400.00
00768              10.00    -3200.00
00769               2.00    -3000.00
00770              -4.00    -2800.00
00771              -2.00    -2600.00
00772               8.00    -2400.00
00773              10.00    -2200.00
00774               2.00    -2000.00
00775              -8.00    -2000.00
00776              -6.00    -1600.00
00777               0.00    -1400.00
00778               6.00    -1200.00
00779               2.00    -1000.00
00780              -2.00     -800.00
00781              -8.00     -600.00
00782              -6.00     -400.00
00783               0.00        0.00
00784               0.00        0.00
00785               0.00      200.00
00786               0.00      400.00
00787               8.00      600.00
00788              32.00      800.00
00789              16.00      800.00
00790             -14.00     1200.00
00791             -18.00     1200.00
00792               0.00     1600.00
00793              32.00     1800.00
00794             208.00     2000.00
00795             246.00     2400.00
00796            -240.00     2400.00
00797            -254.00     2600.00
00798            -254.00     2800.00
00799             176.00     3000.00
00800             246.00     3200.00
00801             246.00     3600.00
00802            -254.00     3200.00
00803            -254.00     3800.00
00804             246.00     4000.00
00805              64.00     4000.00
00806             102.00     4400.00
00807            -248.00     4600.00
00808            -158.00     4400.00
00809             246.00     4800.00
00810             -54.00     5000.00
00811            -130.00     5400.00
00812             -78.00     5400.00
00813              50.00     5800.00
00814             114.00     5600.00
00815             -34.00     6000.00
00816             -78.00     6400.00
00817            -138.00     6200.00
00818             134.00     6800.00
00819              34.00     6600.00
00820             -90.00     6800.00
00821              -8.00     7200.00
00822             -58.00     7200.00
00823              50.00     7400.00
00824              -8.00     7400.00
00825             -62.00     7600.00
00826             -26.00     7800.00
00827              38.00     8200.00
00828             -18.00     8200.00
00829             -48.00     8400.00
00830             -18.00     8800.00
00831             -34.00     8800.00
00832              18.00     9000.00
00833             -16.00     9000.00
00834             -42.00     9000.00
00835             -32.00     9200.00
00836               6.00     9400.00
00837             -22.00     9600.00
00838              -6.00     9600.00
00839             -30.00     9800.00
00840             -56.00     9800.00
00841              -6.00    10000.00
00842             -14.00    10000.00
00843             -10.00    10400.00
00844             -16.00    10400.00
00845             -42.00    10400.00
00846             -54.00    10600.00
00847              -2.00    10600.00
00848               2.00    10800.00
00849             -18.00    10800.00
00850             -30.00    11200.00
00851             -48.00    11200.00
00852             -32.00    11200.00
00853              -8.00    11400.00
00854             -24.00    11400.00
00855             -26.00    11400.00
00856             -16.00    11800.00
00857             -34.00    11800.00
00858             -30.00    11800.00
00859             -26.00    11800.00
00860             -34.00    11800.00
00861             -16.00    12000.00
00862             -10.00    12000.00
00863             -32.00    12000.00
00864             -38.00    12000.00
00865             -36.00    12200.00
00866             -32.00    12200.00
00867             -10.00    12400.00
00868             -10.00    12200.00
00869             -34.00    12400.00
00870             -34.00    12400.00
00871             -32.00    12400.00
00872             -32.00    12400.00
00873             -16.00    12400.00
00874             -22.00    12400.00
00875             -32.00    12400.00
00876             -26.00    12600.00
00877             -28.00    12600.00
00878             -26.00    12400.00
00879             -24.00    12600.00
00880             -32.00    12800.00
00881             -30.00    12400.00
00882             -22.00    12400.00
00883             -22.00    12400.00
00884             -22.00    12600.00
00885             -32.00    12400.00
00886             -42.00    12400.00
00887             -30.00    12400.00
00888             -16.00    12400.00
00889             -14.00    12400.00
00890             -24.00    12400.00
00891             -36.00    12400.00
00892             -40.00    12200.00
00893             -26.00    12200.00
00894             -16.00    12400.00
00895             -22.00    12200.00
00896             -24.00    12000.00
00897             -30.00    12400.00
00898             -30.00    12000.00
00899             -32.00    12000.00
00900             -28.00    12000.00
00901             -26.00    11800.00
00902             -18.00    11800.00
00903             -22.00    11600.00
00904             -26.00    11600.00
00905             -34.00    11600.00
00906             -34.00    11600.00
00907             -26.00    11400.00
00908             -16.00    11200.00
00909             -22.00    11200.00
00910             -30.00    11200.00
00911             -32.00    11000.00
00912             -30.00    10800.00
00913             -26.00    10800.00
00914             -18.00    10800.00
00915             -24.00    10600.00
00916             -26.00    10400.00
00917             -24.00    10400.00
00918             -30.00    10200.00
00919             -32.00    10200.00
00920             -26.00    10000.00
00921             -18.00     9800.00
00922             -16.00     9800.00
00923             -24.00     9600.00
00924             -34.00     9600.00
00925             -26.00     9400.00
00926             -16.00     9200.00
00927             -18.00     9000.00
00928             -18.00     9000.00
00929             -26.00     9000.00
00930             -30.00     8800.00
00931             -24.00     8400.00
00932             -10.00     8400.00
00933              -8.00     8400.00
00934             -16.00     8000.00
00935             -26.00     8000.00
00936             -34.00     7800.00
00937             -24.00     7600.00
00938             -16.00     7400.00
00939             -10.00     7400.00
00940              -8.00     7200.00
00941             -16.00     6800.00
00942             -24.00     6800.00
00943             -26.00     6600.00
00944             -22.00     6400.00
00945             -12.00     6400.00
00946             -10.00     6000.00
00947             -16.00     5800.00
00948             -16.00     5800.00
00949             -10.00     5600.00
00950             -10.00     5400.00
00951             -14.00     5200.00
00952             -18.00     5000.00
00953             -18.00     4800.00
00954             -14.00     4800.00
00955              -2.00     4400.00
00956              -8.00     4200.00
00957             -14.00     4000.00
00958             -22.00     3800.00
00959             -16.00     3600.00
00960              -6.00     3400.00
00961               0.00     3400.00
00962              -8.00     3000.00
00963             -16.00     2800.00
00964             -16.00     2800.00
00965             -14.00     2400.00
00966             -10.00     2400.00
00967              -2.00     2200.00
00968               0.00     2000.00
00969              -2.00     1800.00
00970             -10.00     1600.00
00971             -18.00     1200.00
00972             -10.00     1000.00
00973              -6.00      800.00
00974               0.00      800.00
00975              -2.00      600.00
00976              -2.00      400.00
00977              -2.00      200.00
00978               0.00        0.00
00979              24.00        0.00
00980              32.00     -600.00
00981              -2.00     -600.00
00982             -26.00     -800.00
00983             -10.00     -800.00
00984              16.00    -1200.00
00985              30.00    -1200.00
00986             120.00    -1600.00
00987             246.00    -2000.00
00988             -10.00    -2400.00
00989            -254.00    -2400.00
00990            -254.00    -2600.00
00991             128.00    -2600.00
00992             246.00    -2800.00
00993             246.00    -2800.00
00994              -6.00    -3200.00
00995            -254.00    -3000.00
00996              82.00    -3600.00
00997             246.00    -3800.00
00998              48.00    -3600.00
00999             -48.00    -4400.00
01000            -180.00    -4000.00
01001             142.00    -4400.00
01002             114.00    -4800.00
01003             -80.00    -5000.00
01004             -82.00    -5200.00
01005             -66.00    -5200.00
01006             194.00    -5600.00
01007              70.00    -5600.00
01008             -90.00    -5600.00
01009             -72.00    -6200.00
01010               2.00    -5800.00
01011             144.00    -6400.00
01012              18.00    -6400.00
01013             -42.00    -6600.00
01014             -36.00    -7000.00
01015              36.00    -6800.00
01016              64.00    -7200.00
01017             -26.00    -7200.00
01018               6.00    -7600.00
01019               6.00    -7800.00
01020              38.00    -7800.00
01021              34.00    -8000.00
01022             -26.00    -8000.00
01023              14.00    -8400.00
01024              32.00    -8400.00
01025              16.00    -8600.00
01026               6.00    -8800.00
01027              14.00    -8800.00
01028              12.00    -9200.00
01029              22.00    -9200.00
01030              24.00    -9200.00
01031               0.00    -9600.00
01032              14.00    -9400.00
01033              24.00    -9600.00
01034              10.00    -9800.00
01035              22.00   -10000.00
01036              16.00   -10000.00
01037               6.00   -10200.00
01038              18.00   -10200.00
01039              10.00   -10400.00
01040              18.00   -10400.00
01041              34.00   -10600.00
01042              18.00   -10800.00
01043               6.00   -10800.00
01044              10.00   -10800.00
01045              10.00   -11000.00
01046              22.00   -11000.00
01047              32.00   -11200.00
01048              18.00   -11200.00
01049              14.00   -11200.00
01050              18.00   -11200.00
01051              10.00   -11400.00
01052              22.00   -11600.00
01053              24.00   -11600.00
01054              16.00   -11600.00
01055              24.00   -11600.00
01056              20.00   -11800.00
01057               8.00   -11800.00
01058              16.00   -11800.00
01059              22.00   -11800.00
01060              24.00   -12000.00
01061              30.00   -12000.00
01062              22.00   -12000.00
01063              12.00   -12000.00
01064              16.00   -12200.00
01065              14.00   -12000.00
01066              18.00   -12000.00
01067              30.00   -12000.00
01068              26.00   -12000.00
01069              18.00   -12000.00
01070              18.00   -12000.00
01071              10.00   -12200.00
01072              18.00   -12000.00
01073              26.00   -12000.00
01074              30.00   -12000.00
01075              24.00   -12200.00
01076              18.00   -12200.00
01077              14.00   -12000.00
01078              14.00   -12000.00
01079              24.00   -12000.00
01080              24.00   -12000.00
01081              30.00   -12000.00
01082              22.00   -12000.00
01083              14.00   -11800.00
01084              16.00   -12000.00
01085              18.00   -12000.00
01086              22.00   -11800.00
01087              26.00   -11600.00
01088              24.00   -11600.00
01089              16.00   -11800.00
01090              16.00   -11600.00
01091              16.00   -11600.00
01092              16.00   -11600.00
01093              20.00   -11400.00
01094              24.00   -11400.00
01095              24.00   -11400.00
01096              22.00   -11200.00
01097              10.00   -11200.00
01098              12.00   -11200.00
01099              16.00   -11000.00
01100              26.00   -11000.00
01101              22.00   -10800.00
01102              16.00   -10800.00
01103              10.00   -10800.00
01104              14.00   -10400.00
01105              18.00   -10600.00
01106              18.00   -10200.00
01107              14.00   -10200.00
01108              16.00   -10200.00
01109              16.00   -10000.00
01110              16.00   -10000.00
01111              14.00    -9800.00
01112              16.00    -9600.00
01113              18.00    -9600.00
01114              16.00    -9400.00
01115               8.00    -9200.00
01116              10.00    -9200.00
01117              18.00    -9000.00
01118              16.00    -8800.00
01119              14.00    -8800.00
01120               8.00    -8800.00
01121              12.00    -8400.00
01122              18.00    -8400.00
01123              14.00    -8000.00
01124               6.00    -8000.00
01125               8.00    -7800.00
01126              12.00    -7600.00
01127              16.00    -7400.00
01128              18.00    -7200.00
01129               8.00    -7200.00
01130               6.00    -7200.00
01131               6.00    -7000.00
01132               8.00    -6800.00
01133              16.00    -6600.00
01134              18.00    -6400.00
01135              10.00    -6200.00
01136               0.00    -6000.00
01137              -2.00    -6000.00
01138               4.00    -5600.00
01139              16.00    -5600.00
01140              18.00    -5200.00
01141               8.00    -5200.00
01142               0.00    -4800.00
01143               0.00    -4600.00
01144               6.00    -4600.00
01145              14.00    -4400.00
01146               8.00    -4200.00
01147               6.00    -4000.00
01148               4.00    -3800.00
01149               2.00    -3600.00
01150               4.00    -3600.00
01151               2.00    -3200.00
01152              -2.00    -3000.00
01153               4.00    -2800.00
01154               8.00    -2600.00
01155               8.00    -2400.00
01156               2.00    -2200.00
01157              -2.00    -2200.00
01158              -4.00    -2000.00
01159               0.00    -1600.00
01160               6.00    -1400.00
01161               4.00    -1400.00
01162               0.00    -1200.00
01163              -8.00     -800.00
01164              -6.00     -800.00
01165              -2.00     -400.00
01166               0.00     -200.00
01167              -2.00        0.00
01168              -2.00        0.00
01169               0.00      200.00
01170               6.00      400.00
01171              30.00      800.00
01172              26.00     1000.00
01173             -10.00     1000.00
01174             -26.00     1200.00
01175              -6.00     1400.00
01176              24.00     1600.00
01177              86.00     1800.00
01178             246.00     2200.00
01179             106.00     2400.00
01180            -254.00     2400.00
01181            -254.00     2600.00
01182             -10.00     2800.00
01183             246.00     2800.00
01184             246.00     3400.00
01185            -242.00     3400.00
01186            -254.00     3400.00
01187             242.00     4000.00
01188             246.00     4000.00
01189              48.00     4200.00
01190              -6.00     4400.00
01191            -254.00     4400.00
01192             174.00     4800.00
01193             174.00     5000.00
01194            -170.00     5400.00
01195             -94.00     5200.00
01196             -44.00     5600.00
01197             142.00     5800.00
01198              30.00     5800.00
01199             -54.00     6200.00
01200            -140.00     6000.00
01201             -12.00     6400.00
01202             158.00     6800.00
01203             -86.00     6400.00
01204             -32.00     7000.00
01205             -46.00     7000.00
01206              -6.00     7400.00
01207              48.00     7600.00
01208             -56.00     7600.00
01209             -50.00     8000.00
01210               6.00     8000.00
01211              28.00     8200.00
01212             -48.00     8200.00
01213             -16.00     8400.00
01214             -34.00     8600.00
01215              -8.00     8600.00
01216               8.00     8800.00
01217             -34.00     9000.00
01218             -46.00     9200.00
01219             -10.00     9200.00
01220               6.00     9600.00
01221             -24.00     9600.00
01222             -10.00     9800.00
01223             -62.00     9800.00
01224             -24.00    10000.00
01225               0.00    10000.00
01226             -12.00    10000.00
01227             -14.00    10400.00
01228             -32.00    10600.00
01229             -50.00    10600.00
01230             -26.00    10600.00
01231               6.00    10600.00
01232             -16.00    10800.00
01233             -22.00    10800.00
01234             -38.00    11200.00
01235             -42.00    11200.00
01236             -18.00    11400.00
01237             -14.00    11400.00
01238             -26.00    11600.00
01239             -22.00    11400.00
01240             -32.00    11600.00
01241             -32.00    11800.00
01242             -16.00    11800.00
01243             -30.00    11800.00
01244             -32.00    12000.00
01245             -24.00    11800.00
01246             -22.00    12000.00
01247             -24.00    12200.00
01248             -26.00    12200.00
01249             -34.00    12200.00
01250             -34.00    12400.00
01251             -22.00    12200.00
01252             -22.00    12400.00
01253             -24.00    12400.00
01254             -30.00    12400.00
01255             -40.00    12400.00
01256             -32.00    12600.00
01257             -24.00    12400.00
01258             -26.00    12400.00
01259             -16.00    12400.00
01260             -24.00    12800.00
01261             -34.00    12600.00
01262             -34.00    12600.00
01263             -30.00    12800.00
01264             -24.00    12600.00
01265             -18.00    12600.00
01266             -22.00    12600.00
01267             -32.00    12400.00
01268             -30.00    12600.00
01269             -32.00    12400.00
01270             -32.00    12600.00
01271             -22.00    12400.00
01272             -18.00    12400.00
01273             -24.00    12400.00
01274             -28.00    12400.00
01275             -38.00    12400.00
01276             -32.00    12200.00
01277             -18.00    12200.00
01278             -18.00    12200.00
01279             -24.00    12200.00
01280             -30.00    12000.00
01281             -32.00    12200.00
01282             -30.00    12000.00
01283             -22.00    12000.00
01284             -24.00    12000.00
01285             -24.00    11800.00
01286             -26.00    11800.00
01287             -26.00    11800.00
01288             -26.00    11600.00
01289             -26.00    11600.00
01290             -30.00    11600.00
01291             -24.00    11400.00
01292             -18.00    11200.00
01293             -22.00    11200.00
01294             -26.00    11200.00
01295             -32.00    11000.00
01296             -32.00    10800.00
01297             -24.00    10800.00
01298             -24.00    10600.00
01299             -24.00    10600.00
01300             -22.00    10400.00
01301             -26.00    10400.00
01302             -26.00    10400.00
01303             -30.00    10000.00
01304             -30.00    10000.00
01305             -22.00     9800.00
01306             -16.00     9800.00
01307             -22.00     9600.00
01308             -30.00     9400.00
01309             -28.00     9200.00
01310             -24.00     9200.00
01311             -16.00     9000.00
01312             -18.00     8800.00
01313             -20.00     8800.00
01314             -26.00     8600.00
01315             -28.00     8400.00
01316             -24.00     8200.00
01317             -18.00     8200.00
01318             -16.00     8000.00
01319             -16.00     7800.00
01320             -22.00     7600.00
01321             -22.00     7600.00
01322             -22.00     7400.00
01323             -18.00     7200.00
01324             -16.00     7000.00
01325             -10.00     6800.00
01326             -16.00     6600.00
01327             -18.00     6600.00
01328             -24.00     6400.00
01329             -18.00     6200.00
01330             -10.00     6000.00
01331             -10.00     5800.00
01332             -10.00     5600.00
01333             -14.00     5600.00
01334             -16.00     5200.00
01335             -16.00     5200.00
01336             -16.00     5000.00
01337             -16.00     4800.00
01338              -6.00     4400.00
01339              -6.00     4200.00
01340             -10.00     4000.00
01341             -16.00     4000.00
01342             -16.00     3600.00
01343              -8.00     3600.00
01344              -2.00     3400.00
01345              -4.00     3200.00
01346             -10.00     3000.00
01347             -14.00     2800.00
01348             -12.00     2600.00
01349              -8.00     2400.00
01350              -4.00     2200.00
01351              -6.00     2000.00
01352              -8.00     1800.00
01353             -10.00     1600.00
01354              -6.00     1400.00
01355              -2.00     1200.00
01356              -2.00     1000.00
01357              -6.00      800.00
01358              -6.00      400.00
01359              -2.00      400.00
01360               2.00      200.00
01361               2.00        0.00
01362               6.00        0.00
01363              24.00     -400.00
01364              12.00     -600.00
01365             -10.00     -600.00
01366             -10.00     -800.00
01367               4.00    -1000.00
01368              10.00    -1200.00
01369              50.00    -1400.00
01370             236.00    -1600.00
01371             238.00    -2200.00
01372            -254.00    -2400.00
01373            -254.00    -2600.00
01374             -98.00    -2800.00
01375             240.00    -2800.00
01376             246.00    -2800.00
01377             246.00    -3200.00
01378            -254.00    -3200.00
01379            -254.00    -3200.00
01380             246.00    -3800.00
01381             126.00    -3600.00
01382              16.00    -4000.00
01383            -174.00    -4400.00
01384             -36.00    -4000.00
01385             226.00    -4800.00
01386             -18.00    -4800.00
01387             -96.00    -5200.00
01388            -120.00    -5200.00
01389              80.00    -5200.00
01390             208.00    -5600.00
01391             -48.00    -5400.00
01392             -90.00    -6200.00
01393             -72.00    -6000.00
01394             102.00    -6200.00
01395             112.00    -6600.00
01396             -36.00    -6400.00
01397             -38.00    -6800.00
01398             -24.00    -6800.00
01399              80.00    -7000.00
01400              16.00    -7200.00
01401             -22.00    -7200.00
01402              14.00    -7600.00
01403              12.00    -7800.00
01404              54.00    -7800.00
01405              -2.00    -8000.00
01406             -16.00    -8400.00
01407              28.00    -8400.00
01408              22.00    -8400.00
01409               6.00    -8800.00
01410              10.00    -8800.00
01411              18.00    -9000.00
01412              22.00    -9200.00
01413              24.00    -9200.00
01414               8.00    -9400.00
01415               0.00    -9400.00
01416              24.00    -9600.00
01417              18.00    -9600.00
01418              16.00    -9800.00
01419              26.00   -10000.00
01420               8.00   -10200.00
01421              14.00   -10200.00
01422              14.00   -10200.00
01423              10.00   -10400.00
01424              32.00   -10600.00
01425              26.00   -10600.00
01426              10.00   -10800.00
01427               8.00   -10800.00
01428              14.00   -10800.00
01429              18.00   -11000.00
01430              26.00   -11000.00
01431              22.00   -11200.00
01432              14.00   -11200.00
01433              18.00   -11400.00
01434              14.00   -11200.00
01435              14.00   -11600.00
01436              24.00   -11600.00
01437              22.00   -11600.00
01438              22.00   -11600.00
01439              22.00   -11600.00
01440              10.00   -11800.00
01441              14.00   -11800.00
01442              20.00   -12000.00
01443              24.00   -11800.00
01444              24.00   -12000.00
01445              24.00   -12000.00
01446              16.00   -12000.00
01447              14.00   -12000.00
01448              18.00   -12200.00
01449              16.00   -12000.00
01450              26.00   -12000.00
01451              30.00   -12000.00
01452              22.00   -12200.00
01453              18.00   -12400.00
01454              14.00   -12200.00
01455              18.00   -12000.00
01456              22.00   -12000.00
01457              24.00   -12000.00
01458              24.00   -12000.00
01459              22.00   -12200.00
01460              18.00   -12000.00
01461              16.00   -12200.00
01462              18.00   -12000.00
01463              22.00   -12000.00
01464              24.00   -12000.00
01465              30.00   -12000.00
01466              22.00   -11800.00
01467              14.00   -12000.00
01468              16.00   -12000.00
01469              16.00   -11800.00
01470              26.00   -11800.00
01471              28.00   -11600.00
01472              22.00   -11800.00
01473              16.00   -11800.00
01474              16.00   -11600.00
01475              16.00   -11600.00
01476              22.00   -11600.00
01477              24.00   -11400.00
01478              22.00   -11400.00
01479              18.00   -11400.00
01480              22.00   -11200.00
01481              16.00   -11000.00
01482              18.00   -11200.00
01483              16.00   -10800.00
01484              18.00   -10800.00
01485              24.00   -10800.00
01486              22.00   -10800.00
01487              16.00   -10600.00
01488              12.00   -10400.00
01489              14.00   -10200.00
01490              16.00   -10200.00
01491              24.00   -10200.00
01492              22.00   -10000.00
01493              14.00   -10000.00
01494               8.00    -9800.00
01495              10.00    -9600.00
01496              16.00    -9600.00
01497              22.00    -9400.00
01498              18.00    -9400.00
01499              14.00    -9200.00
01500              10.00    -9200.00
01501               8.00    -9000.00
01502              14.00    -8800.00
01503              16.00    -8600.00
01504              16.00    -8600.00
01505              16.00    -8400.00
01506              14.00    -8400.00
01507               8.00    -8200.00
01508               8.00    -7800.00
01509              10.00    -7800.00
01510              18.00    -7400.00
01511              16.00    -7400.00
01512              10.00    -7200.00
01513               2.00    -7200.00
01514               6.00    -7000.00
01515              10.00    -6800.00
01516              14.00    -6800.00
01517              14.00    -6400.00
01518               8.00    -6200.00
01519               8.00    -6200.00
01520               8.00    -6000.00
01521              10.00    -5600.00
01522               8.00    -5600.00
01523               6.00    -5400.00
01524               8.00    -5200.00
01525               8.00    -5000.00
01526              10.00    -4800.00
01527               6.00    -4600.00
01528               2.00    -4600.00
01529               4.00    -4400.00
01530               8.00    -4000.00
01531              10.00    -3800.00
01532               8.00    -3800.00
01533               2.00    -3600.00
01534              -2.00    -3200.00
01535               0.00    -3200.00
01536               8.00    -3000.00
01537               8.00    -2800.00
01538               2.00    -2400.00
01539               6.00    -2400.00
01540               2.00    -2200.00
01541               0.00    -2000.00
01542              -2.00    -1800.00
01543               0.00    -1400.00
01544               6.00    -1400.00
01545               6.00    -1000.00
01546              -2.00     -800.00
01547              -8.00     -800.00
01548              -8.00     -600.00
01549               0.00     -400.00
01550               8.00        0.00
01551               6.00        0.00
01552              -2.00      200.00
01553              -8.00      400.00
01554              14.00      600.00
01555              40.00      800.00
01556              14.00      800.00
01557             -24.00     1200.00
01558             -26.00     1400.00
01559               8.00     1400.00
01560              42.00     1600.00
01561             208.00     2000.00
01562             246.00     2400.00
01563            -250.00     2400.00
01564            -254.00     2600.00
01565            -254.00     2600.00
01566             182.00     2800.00
01567             246.00     3200.00
01568             246.00     3400.00
01569            -254.00     3200.00
01570            -254.00     3600.00
01571             246.00     4000.00
01572              48.00     4000.00
01573              98.00     4400.00
01574            -242.00     4400.00
01575            -140.00     4400.00
01576             246.00     4800.00
01577             -72.00     5200.00
01578            -144.00     5400.00
01579             -78.00     5400.00
01580              64.00     5800.00
01581             120.00     5600.00
01582             -42.00     6000.00
01583             -88.00     6000.00
01584            -138.00     6200.00
01585             142.00     6800.00
01586              38.00     6600.00
01587             -98.00     6800.00
01588             -14.00     7000.00
01589             -62.00     7200.00
01590              56.00     7400.00
01591              -6.00     7600.00
01592             -70.00     7800.00
01593             -32.00     7600.00
01594              38.00     8000.00
01595             -14.00     8200.00
01596             -42.00     8200.00
01597             -22.00     8800.00
01598             -42.00     8400.00
01599              16.00     8800.00
01600             -14.00     9000.00
01601             -42.00     9000.00
01602             -34.00     9200.00
01603              10.00     9400.00
01604             -18.00     9600.00
01605             -10.00     9600.00
01606             -32.00     9800.00
01607             -54.00     9800.00
01608               2.00    10000.00
01609             -10.00    10200.00
01610             -14.00    10400.00
01611             -22.00    10400.00
01612             -40.00    10600.00
01613             -48.00    10400.00
01614              -2.00    10800.00
01615              -2.00    10800.00
01616             -16.00    10800.00
01617             -26.00    11200.00
01618             -48.00    11200.00
01619             -34.00    11200.00
01620             -14.00    11200.00
01621             -16.00    11200.00
01622             -22.00    11400.00
01623             -18.00    11800.00
01624             -36.00    11600.00
01625             -26.00    11800.00
01626             -30.00    11800.00
01627             -34.00    11800.00
01628             -16.00    11800.00
01629             -10.00    12000.00
01630             -32.00    12000.00
01631             -40.00    12000.00
01632             -34.00    12000.00
01633             -24.00    12200.00
01634             -14.00    12200.00
01635             -22.00    12200.00
01636             -32.00    12400.00
01637             -26.00    12400.00
01638             -32.00    12400.00
01639             -34.00    12400.00
01640             -26.00    12400.00
01641             -26.00    12400.00
01642             -24.00    12400.00
01643             -24.00    12400.00
01644             -30.00    12600.00
01645             -34.00    12600.00
01646             -30.00    12400.00
01647             -26.00    12400.00
01648             -24.00    12600.00
01649             -22.00    12600.00
01650             -32.00    12600.00
01651             -28.00    12400.00
01652             -26.00    12400.00
01653             -32.00    12400.00
01654             -30.00    12600.00
01655             -24.00    12400.00
01656             -22.00    12400.00
01657             -26.00    12400.00
01658             -34.00    12200.00
01659             -38.00    12400.00
01660             -26.00    12400.00
01661             -18.00    12400.00
01662             -22.00    12200.00
01663             -26.00    12200.00
01664             -32.00    12200.00
01665             -30.00    12000.00
01666             -24.00    12000.00
01667             -26.00    12000.00
01668             -26.00    11800.00
01669             -26.00    11800.00
01670             -24.00    11800.00
01671             -24.00    11800.00
01672             -26.00    11600.00
01673             -32.00    11600.00
01674             -26.00    11400.00
01675             -20.00    11200.00
01676             -18.00    11200.00
01677             -24.00    11000.00
01678             -30.00    11200.00
01679             -30.00    11000.00
01680             -24.00    10800.00
01681             -20.00    10600.00
01682             -22.00    10600.00
01683             -24.00    10600.00
01684             -26.00    10400.00
01685             -26.00    10200.00
01686             -26.00    10000.00
01687             -24.00    10000.00
01688             -18.00     9800.00
01689             -18.00     9800.00
01690             -22.00     9600.00
01691             -24.00     9600.00
01692             -26.00     9400.00
01693             -24.00     9200.00
01694             -22.00     9000.00
01695             -16.00     9000.00
01696             -18.00     8800.00
01697             -22.00     8800.00
01698             -26.00     8400.00
01699             -24.00     8400.00
01700             -24.00     8200.00
01701             -16.00     8000.00
01702             -16.00     8000.00
01703             -16.00     7600.00
01704             -20.00     7600.00
01705             -22.00     7600.00
01706             -24.00     7200.00
01707             -20.00     7200.00
01708             -16.00     7000.00
01709             -12.00     6800.00
01710             -18.00     6600.00
01711             -18.00     6400.00
01712             -20.00     6200.00
01713             -16.00     6200.00
01714             -10.00     6000.00
01715             -12.00     5800.00
01716             -14.00     5600.00
01717             -16.00     5400.00
01718             -16.00     5200.00
01719             -16.00     5200.00
01720             -18.00     4800.00
01721             -10.00     4600.00
01722              -8.00     4400.00
01723              -8.00     4200.00
01724             -10.00     4200.00
01725             -14.00     4000.00
01726             -16.00     3600.00
01727             -10.00     3400.00
01728              -8.00     3400.00
01729              -6.00     3200.00
01730              -6.00     2800.00
01731             -10.00     2600.00
01732             -14.00     2400.00
01733              -8.00     2400.00
01734              -2.00     2000.00
01735              -2.00     2000.00
01736              -4.00     1800.00
01737              -8.00     1600.00
01738             -10.00     1600.00
01739              -4.00     1200.00
01740              -2.00     1000.00
01741              -2.00      800.00
01742               0.00      800.00
01743               0.00      400.00
01744               0.00      200.00
01745               2.00        0.00
01746              22.00     -200.00
01747              30.00     -400.00
01748               0.00     -600.00
01749             -24.00     -800.00
01750              -4.00     -800.00
01751              16.00    -1200.00
01752              32.00    -1400.00
01753             122.00    -1400.00
01754             246.00    -1800.00
01755             -16.00    -2400.00
01756            -254.00    -2400.00
01757            -254.00    -2400.00
01758             136.00    -2800.00
01759             246.00    -2600.00
01760             246.00    -2800.00
01761             -18.00    -3400.00
01762            -254.00    -3200.00
01763              94.00    -3600.00
01764             246.00    -4000.00
01765              42.00    -3800.00
01766             -56.00    -4400.00
01767            -182.00    -4000.00
01768             146.00    -4400.00
01769             114.00    -4800.00
01770             -82.00    -4800.00
01771             -88.00    -5200.00
01772             -64.00    -5200.00
01773             194.00    -5600.00
01774              64.00    -5600.00
01775             -90.00    -6000.00
01776             -74.00    -6200.00
01777               2.00    -6000.00
01778             142.00    -6400.00
01779               8.00    -6400.00
01780             -42.00    -6400.00
01781             -36.00    -7000.00
01782              38.00    -6800.00
01783              62.00    -7200.00
01784             -32.00    -7200.00
01785               6.00    -7600.00
01786               8.00    -7600.00
01787              38.00    -7800.00
01788              32.00    -8000.00
01789             -26.00    -8000.00
01790              14.00    -8400.00
01791              32.00    -8400.00
01792              14.00    -8800.00
01793               2.00    -8800.00
01794              10.00    -9000.00
01795              18.00    -8800.00
01796              26.00    -9200.00
01797              22.00    -9200.00
01798               0.00    -9400.00
01799              14.00    -9600.00
01800              24.00    -9600.00
01801              14.00    -9600.00
01802              30.00    -9600.00
01803              16.00   -10000.00
01804               6.00   -10200.00
01805              16.00   -10200.00
01806              14.00   -10200.00
01807              24.00   -10400.00
01808              34.00   -10600.00
01809              18.00   -10600.00
01810               6.00   -10800.00
01811              10.00   -10800.00
01812              14.00   -11000.00
01813              26.00   -11000.00
01814              30.00   -11000.00
01815              16.00   -11200.00
01816              14.00   -11200.00
01817              20.00   -11200.00
01818              10.00   -11400.00
01819              20.00   -11600.00
01820              24.00   -11600.00
01821              20.00   -11600.00
01822              24.00   -11800.00
01823              16.00   -11800.00
01824               8.00   -11800.00
01825              18.00   -12000.00
01826              20.00   -11800.00
01827              22.00   -12000.00
01828              26.00   -12000.00
01829              22.00   -12000.00
01830              14.00   -12000.00
01831              18.00   -12000.00
01832              16.00   -12000.00
01833              18.00   -12200.00
01834              26.00   -12200.00
01835              24.00   -12000.00
01836              18.00   -12200.00
01837              18.00   -12200.00
01838              10.00   -12200.00
01839              20.00   -12200.00
01840              26.00   -12000.00
01841              24.00   -12200.00
01842              22.00   -12200.00
01843              22.00   -12000.00
01844              16.00   -12000.00
01845              14.00   -12200.00
01846              18.00   -12000.00
01847              22.00   -12000.00
01848              26.00   -12200.00
01849              26.00   -12000.00
01850              22.00   -12000.00
01851              14.00   -12000.00
01852              10.00   -11800.00
01853              16.00   -11800.00
01854              32.00   -11800.00
01855              32.00   -11600.00
01856              22.00   -11800.00
01857              10.00   -11800.00
01858               8.00   -11600.00
01859              16.00   -11600.00
01860              30.00   -11600.00
01861              32.00   -11400.00
01862              22.00   -11400.00
01863              18.00   -11200.00
01864              14.00   -11200.00
01865              22.00   -11000.00
01866              24.00   -11000.00
01867              22.00   -11000.00
01868              20.00   -10800.00
01869              18.00   -10800.00
01870              16.00   -10800.00
01871              16.00   -10400.00
01872              16.00   -10400.00
01873              22.00   -10200.00
01874              18.00   -10200.00
01875              22.00   -10000.00
01876              20.00   -10000.00
01877              14.00   -10000.00
01878               8.00    -9600.00
01879              10.00    -9600.00
01880              22.00    -9400.00
01881              22.00    -9400.00
01882              18.00    -9200.00
01883              16.00    -9200.00
01884              14.00    -9000.00
01885               4.00    -8800.00
01886              10.00    -8800.00
01887              22.00    -8600.00
01888              22.00    -8600.00
01889              14.00    -8400.00
01890              10.00    -8000.00
01891              10.00    -8000.00
01892               6.00    -7800.00
01893               0.00    -7800.00
01894              10.00    -7400.00
01895              26.00    -7200.00
01896              30.00    -7200.00
01897              10.00    -7200.00
01898              -8.00    -6800.00
01899             -10.00    -6800.00
01900               8.00    -6600.00
01901              26.00    -6200.00
01902              30.00    -6200.00
01903              12.00    -6000.00
01904             -14.00    -6000.00
01905             -16.00    -5600.00
01906               8.00    -5400.00
01907              38.00    -5200.00
01908              34.00    -5200.00
01909               2.00    -4800.00
01910             -22.00    -4800.00
01911             -14.00    -4600.00
01912               8.00    -4400.00
01913              24.00    -4200.00
01914              16.00    -4000.00
01915               0.00    -3800.00
01916              -4.00    -3600.00
01917               2.00    -3400.00
01918               8.00    -3200.00
01919               2.00    -3000.00
01920               0.00    -2800.00
01921               0.00    -2600.00
01922               2.00    -2400.00
01923               6.00    -2200.00
01924               2.00    -2000.00
01925               2.00    -2000.00
01926               2.00    -1600.00
01927               2.00    -1400.00
01928              -2.00    -1400.00
01929              -2.00    -1000.00
01930              -2.00     -800.00
01931               0.00     -800.00
01932               2.00     -400.00
01933               2.00     -400.00
01934               0.00        0.00
01935              -4.00        0.00
01936               0.00      400.00
01937               8.00      400.00
01938              34.00      600.00
01939              22.00      800.00
01940             -16.00     1200.00
01941             -28.00     1200.00
01942               0.00     1600.00
01943              28.00     1600.00
01944              90.00     1800.00
01945             246.00     2200.00
01946              92.00     2400.00
01947            -254.00     2400.00
01948            -254.00     2600.00
01949               2.00     2800.00
01950             246.00     3000.00
01951             246.00     3600.00
01952            -254.00     3400.00
01953            -254.00     3200.00
01954             246.00     4000.00
01955             246.00     4000.00
01956              50.00     4200.00
01957             -10.00     4600.00
01958            -254.00     4400.00
01959             168.00     4800.00
01960             162.00     5000.00
01961            -162.00     5400.00
01962             -76.00     5400.00
01963             -36.00     5600.00
01964             120.00     5800.00
01965              14.00     5600.00
01966             -46.00     6200.00
01967            -132.00     6000.00
01968              -6.00     6400.00
01969             150.00     6800.00
01970             -94.00     6600.00
01971             -34.00     7000.00
01972             -48.00     7200.00
01973               0.00     7200.00
01974              54.00     7600.00
01975             -62.00     7600.00
01976             -58.00     7600.00
01977              10.00     8000.00
01978              30.00     8200.00
01979             -54.00     8200.00
01980             -22.00     8400.00
01981             -40.00     8600.00
01982              -8.00     8800.00
01983              10.00     9000.00
01984             -34.00     9000.00
01985             -44.00     9200.00
01986              -8.00     9400.00
01987               0.00     9400.00
01988             -26.00     9600.00
01989              -8.00     9600.00
01990             -58.00     9800.00
01991             -22.00    10000.00
01992               0.00    10000.00
01993             -16.00    10200.00
01994             -16.00    10400.00
01995             -30.00    10400.00
01996             -54.00    10600.00
01997             -26.00    10600.00
01998               8.00    10800.00
01999              -8.00    10800.00
02000             -16.00    10800.00
02001             -42.00    11200.00
02002             -52.00    11200.00
02003             -22.00    11200.00
02004              -8.00    11400.00
02005             -16.00    11400.00
02006             -14.00    11600.00
02007             -32.00    11600.00
02008             -38.00    11800.00
02009             -22.00    12000.00
02010             -32.00    11800.00
02011             -26.00    12000.00
02012             -16.00    12000.00
02013             -22.00    12000.00
02014             -32.00    12200.00
02015             -30.00    12200.00
02016             -38.00    12200.00
02017             -32.00    12200.00
02018             -16.00    12200.00
02019             -18.00    12200.00
02020             -18.00    12400.00
02021             -26.00    12400.00
02022             -42.00    12400.00
02023             -38.00    12400.00
02024             -24.00    12400.00
02025             -22.00    12400.00
02026             -16.00    12400.00
02027             -26.00    12400.00
02028             -38.00    12400.00
02029             -32.00    12600.00
02030             -26.00    12600.00
02031             -26.00    12400.00
02032             -22.00    12400.00
02033             -26.00    12400.00
02034             -34.00    12600.00
02035             -30.00    12600.00
02036             -30.00    12400.00
02037             -26.00    12400.00
02038             -22.00    12400.00
02039             -26.00    12400.00
02040             -30.00    12400.00
02041             -32.00    12400.00
02042             -32.00    12400.00
02043             -26.00    12400.00
02044             -18.00    12200.00
02045             -24.00    12200.00
02046             -26.00    12200.00
02047             -30.00    12200.00
02048             -32.00    12200.00
02049             -26.00    12000.00
02050             -26.00    12000.00
02051             -24.00    11800.00
02052             -24.00    11800.00
02053             -26.00    11800.00
02054             -30.00    11800.00
02055             -26.00    11600.00
02056             -28.00    11400.00
02057             -24.00    11400.00
02058             -22.00    11200.00
02059             -22.00    11200.00
02060             -24.00    11200.00
02061             -26.00    11200.00
02062             -28.00    11000.00
02063             -26.00    10800.00
02064             -20.00    10800.00
02065             -18.00    10600.00
02066             -18.00    10400.00
02067             -24.00    10400.00
02068             -28.00    10400.00
02069             -28.00    10200.00
02070             -24.00    10000.00
02071             -18.00     9800.00
02072             -16.00     9800.00
02073             -14.00     9800.00
02074             -26.00     9600.00
02075             -32.00     9400.00
02076             -30.00     9200.00
02077             -22.00     9000.00
02078             -14.00     9000.00
02079             -14.00     9000.00
02080             -18.00     8800.00
02081             -24.00     8400.00
02082             -30.00     8400.00
02083             -26.00     8200.00
02084             -22.00     8200.00
02085             -22.00     8000.00
02086             -16.00     8000.00
02087             -14.00     7600.00
02088             -14.00     7600.00
02089             -22.00     7400.00
02090             -16.00     7200.00
02091             -16.00     7000.00
02092             -14.00     6800.00
02093             -22.00     6800.00
02094             -30.00     6400.00
02095             -32.00     6400.00
02096             -24.00     6200.00
02097             -10.00     6000.00
02098              -2.00     5800.00
02099              -2.00     5600.00
02100             -10.00     5400.00
02101             -14.00     5200.00
02102             -14.00     5000.00
02103             -22.00     5000.00
02104             -26.00     4600.00
02105             -26.00     4400.00
02106             -22.00     4200.00
02107              -8.00     4000.00
02108               0.00     4000.00
02109               0.00     3600.00
02110              -6.00     3400.00
02111             -12.00     3400.00
02112             -16.00     3200.00
02113             -14.00     3000.00
02114             -16.00     2800.00
02115             -14.00     2800.00
02116             -10.00     2400.00
02117              -8.00     2200.00
02118              -2.00     2000.00
02119               0.00     1800.00
02120              -2.00     1600.00
02121              -8.00     1400.00
02122             -10.00     1000.00
02123             -10.00     1000.00
02124              -8.00      800.00
02125              -2.00      600.00
02126              -2.00      400.00
02127               0.00      400.00
02128               0.00      200.00
02129               8.00     -400.00
02130              34.00     -400.00
02131              16.00     -400.00
02132             -16.00     -800.00
02133             -16.00     -800.00
02134               8.00    -1000.00
02135              20.00    -1200.00
02136              54.00    -1400.00
02137             224.00    -1600.00
02138             224.00    -2000.00
02139            -254.00    -2400.00
02140            -254.00    -2600.00
02141             -88.00    -2600.00
02142             232.00    -2600.00
02143             246.00    -2600.00
02144             246.00    -3200.00
02145            -254.00    -3200.00
02146            -254.00    -3200.00
02147             246.00    -4000.00
02148             120.00    -3600.00
02149              24.00    -4000.00
02150            -170.00    -4400.00
02151             -40.00    -4000.00
02152             208.00    -4800.00
02153             -26.00    -4800.00
02154             -78.00    -5200.00
02155            -106.00    -5000.00
02156              80.00    -5400.00
02157             190.00    -5600.00
02158             -58.00    -5600.00
02159             -86.00    -6200.00
02160             -62.00    -6000.00
02161             102.00    -6200.00
02162             102.00    -6400.00
02163             -42.00    -6400.00
02164             -34.00    -7000.00
02165             -18.00    -6800.00
02166              78.00    -7200.00
02167               4.00    -7200.00
02168             -24.00    -7200.00
02169              10.00    -7800.00
02170              14.00    -7600.00
02171              54.00    -8000.00
02172              -4.00    -8000.00
02173             -12.00    -8000.00
02174              32.00    -8600.00
02175              20.00    -8400.00
02176               2.00    -8800.00
02177               4.00    -8600.00
02178              14.00    -8800.00
02179              24.00    -9200.00
02180              28.00    -9200.00
02181               8.00    -9400.00
02182               2.00    -9600.00
02183              22.00    -9600.00
02184              18.00    -9600.00
02185              18.00   -10000.00
02186              24.00   -10000.00
02187               8.00   -10000.00
02188              16.00   -10200.00
02189              16.00   -10200.00
02190              14.00   -10200.00
02191              32.00   -10400.00
02192              30.00   -10600.00
02193              14.00   -10800.00
02194               8.00   -10800.00
02195              14.00   -10800.00
02196              18.00   -11000.00
02197              34.00   -11000.00
02198              24.00   -11200.00
02199              14.00   -11200.00
02200              22.00   -11200.00
02201              16.00   -11200.00
02202              16.00   -11400.00
02203              26.00   -11600.00
02204              22.00   -11600.00
02205              24.00   -11600.00
02206              24.00   -11600.00
02207              10.00   -11800.00
02208              14.00   -11800.00
02209              22.00   -12000.00
02210              24.00   -11800.00
02211              26.00   -12000.00
02212              24.00   -12000.00
02213              16.00   -12000.00
02214              16.00   -12000.00
02215              16.00   -12000.00
02216              16.00   -12000.00
02217              26.00   -12200.00
02218              30.00   -12000.00
02219              22.00   -12000.00
02220              20.00   -12000.00
02221              14.00   -12000.00
02222              14.00   -12000.00
02223              24.00   -12400.00
02224              26.00   -12000.00
02225              24.00   -12000.00
02226              22.00   -12200.00
02227              16.00   -12000.00
02228              14.00   -12000.00
02229              18.00   -12000.00
02230              24.00   -12000.00
02231              24.00   -12000.00
02232              24.00   -12000.00
02233              16.00   -12000.00
02234              16.00   -12000.00
02235              18.00   -12000.00
02236              22.00   -11800.00
02237              24.00   -11800.00
02238              26.00   -11800.00
02239              18.00   -11600.00
02240              16.00   -11800.00
02241              16.00   -11600.00
02242              16.00   -11600.00
02243              22.00   -11600.00
02244              24.00   -11600.00
02245              24.00   -11200.00
02246              22.00   -11200.00
02247              18.00   -11200.00
02248              14.00   -11200.00
02249              18.00   -11200.00
02250              22.00   -10800.00
02251              22.00   -10800.00
02252              22.00   -10800.00
02253              18.00   -10800.00
02254              14.00   -10800.00
02255              16.00   -10400.00
02256              16.00   -10400.00
02257              20.00   -10200.00
02258              22.00   -10200.00
02259              20.00   -10200.00
02260              16.00   -10000.00
02261              14.00    -9800.00
02262              14.00    -9600.00
02263              16.00    -9600.00
02264              22.00    -9400.00
02265              22.00    -9200.00
02266              16.00    -9200.00
02267              12.00    -9000.00
02268              10.00    -9000.00
02269              16.00    -8800.00
02270              18.00    -8800.00
02271              18.00    -8600.00
02272              14.00    -8200.00
02273              10.00    -8400.00
02274               8.00    -8000.00
02275              10.00    -8000.00
02276              16.00    -7800.00
02277              10.00    -7600.00
02278               8.00    -7400.00
02279              12.00    -7200.00
02280              14.00    -7000.00
02281              10.00    -7000.00
02282               6.00    -6800.00
02283               6.00    -6800.00
02284              14.00    -6600.00
02285              18.00    -6200.00
02286              10.00    -6200.00
02287              -2.00    -6000.00
02288              -2.00    -5600.00
02289              10.00    -5600.00
02290              18.00    -5400.00
02291              10.00    -5200.00
02292               0.00    -5200.00
02293               4.00    -4800.00
02294               8.00    -4800.00
02295              10.00    -4600.00
02296               4.00    -4400.00
02297               0.00    -4200.00
02298               0.00    -4000.00
02299               4.00    -3800.00
02300               6.00    -3600.00
02301               6.00    -3400.00
02302               0.00    -3200.00
02303              -2.00    -3000.00
02304               2.00    -2800.00
02305               8.00    -2600.00
02306               2.00    -2400.00
02307               2.00    -2200.00
02308               0.00    -2200.00
02309              -2.00    -2000.00
02310              -2.00    -1600.00
02311               2.00    -1400.00
02312               6.00    -1000.00
02313               6.00    -1000.00
02314               0.00     -800.00
02315              -8.00     -600.00
02316              -8.00     -400.00
02317              -2.00     -200.00
02318               6.00        0.00
02319               8.00        0.00
02320               0.00      400.00
02321               6.00      600.00
02322              32.00      800.00
02323              14.00      800.00
02324             -16.00     1200.00
02325             -16.00     1200.00
02326               6.00     1400.00
02327              34.00     1600.00
02328             208.00     2000.00
02329             246.00     2400.00
02330            -250.00     2200.00
02331            -254.00     2600.00
02332            -254.00     2800.00
02333             180.00     2800.00
02334             246.00     3200.00
02335             246.00     3600.00
02336            -254.00     3200.00
02337            -254.00     3600.00
02338             246.00     4000.00
02339              48.00     4000.00
02340              98.00     4400.00
02341            -248.00     4400.00
02342            -138.00     4600.00
02343             246.00     4800.00
02344             -72.00     5000.00
02345            -142.00     5200.00
02346             -80.00     5600.00
02347              64.00     5800.00
02348             116.00     5600.00
02349             -40.00     6000.00
02350             -88.00     6200.00
02351            -138.00     6000.00
02352             138.00     6600.00
02353              32.00     6600.00
02354             -90.00     6800.00
02355             -10.00     7200.00
02356             -64.00     7200.00
02357              54.00     7400.00
02358              -8.00     7400.00
02359             -66.00     7800.00
02360             -26.00     7800.00
02361              38.00     8000.00
02362             -22.00     8200.00
02363             -48.00     8200.00
02364             -18.00     8400.00
02365             -34.00     8800.00
02366              18.00     8800.00
02367             -16.00     9000.00
02368             -48.00     9000.00
02369             -32.00     9200.00
02370              10.00     9400.00
02371             -16.00     9600.00
02372             -10.00     9600.00
02373             -34.00     9800.00
02374             -54.00    10000.00
02375               2.00    10000.00
02376             -10.00    10000.00
02377             -14.00    10400.00
02378             -22.00    10400.00
02379             -42.00    10400.00
02380             -42.00    10600.00
02381               0.00    10600.00
02382              -2.00    10800.00
02383             -18.00    10800.00
02384             -24.00    10800.00
02385             -44.00    11200.00
02386             -30.00    11200.00
02387              -8.00    11400.00
02388             -22.00    11400.00
02389             -26.00    11600.00
02390             -18.00    11400.00
02391             -26.00    11800.00
02392             -22.00    11800.00
02393             -26.00    11800.00
02394             -40.00    11800.00
02395             -18.00    12000.00
02396             -12.00    12000.00
02397             -22.00    12000.00
02398             -28.00    12200.00
02399             -34.00    12000.00
02400             -36.00    12200.00
02401             -18.00    12400.00
02402             -14.00    12400.00
02403             -22.00    12400.00
02404             -26.00    12200.00
02405             -34.00    12400.00
02406             -38.00    12600.00
02407             -24.00    12400.00
02408             -24.00    12400.00
02409             -24.00    12400.00
02410             -18.00    12600.00
02411             -32.00    12400.00
02412             -36.00    12400.00
02413             -30.00    12600.00
02414             -30.00    12400.00
02415             -22.00    12600.00
02416             -18.00    12600.00
02417             -26.00    12600.00
02418             -32.00    12600.00
02419             -34.00    12600.00
02420             -34.00    12600.00
02421             -24.00    12400.00
02422             -20.00    12400.00
02423             -24.00    12400.00
02424             -26.00    12400.00
02425             -32.00    12400.00
02426             -38.00    12400.00
02427             -32.00    12200.00
02428             -24.00    12200.00
02429             -16.00    12200.00
02430             -22.00    12200.00
02431             -30.00    12200.00
02432             -36.00    12000.00
02433             -32.00    12000.00
02434             -24.00    12000.00
02435             -22.00    11800.00
02436             -24.00    12000.00
02437             -26.00    11800.00
02438             -30.00    11800.00
02439             -30.00    11600.00
02440             -30.00    11600.00
02441             -24.00    11400.00
02442             -18.00    11400.00
02443             -22.00    11200.00
02444             -26.00    11200.00
02445             -26.00    11200.00
02446             -32.00    10800.00
02447             -26.00    10800.00
02448             -20.00    10800.00
02449             -22.00    10600.00
02450             -22.00    10600.00
02451             -26.00    10400.00
02452             -30.00    10200.00
02453             -26.00    10400.00
02454             -24.00    10000.00
02455             -22.00     9800.00
02456             -18.00     9600.00
02457             -24.00     9600.00
02458             -24.00     9600.00
02459             -24.00     9400.00
02460             -22.00     9200.00
02461             -22.00     9200.00
02462             -18.00     9000.00
02463             -16.00     9000.00
02464             -20.00     8600.00
02465             -26.00     8600.00
02466             -24.00     8400.00
02467             -24.00     8200.00
02468             -18.00     8200.00
02469             -14.00     8000.00
02470             -16.00     7800.00
02471             -22.00     7600.00
02472             -24.00     7400.00
02473             -22.00     7200.00
02474             -18.00     7000.00
02475             -14.00     6800.00
02476             -14.00     6800.00
02477             -16.00     6600.00
02478             -22.00     6400.00
02479             -22.00     6400.00
02480             -18.00     6000.00
02481             -14.00     6000.00
02482             -12.00     5800.00
02483             -12.00     5600.00
02484             -18.00     5400.00
02485             -22.00     5200.00
02486             -20.00     5000.00
02487             -14.00     4800.00
02488             -10.00     4800.00
02489              -8.00     4400.00
02490             -10.00     4200.00
02491             -14.00     4000.00
02492             -14.00     3800.00
02493             -16.00     3600.00
02494             -14.00     3400.00
02495              -6.00     3200.00
02496             -10.00     3000.00
02497             -10.00     2800.00
02498             -10.00     2600.00
02499             -10.00     2400.00
02500             -10.00     2000.00
02501             -10.00     2000.00
02502              -8.00     2000.00
02503              -4.00     1800.00
02504              -6.00     1400.00
02505             -10.00     1200.00
02506             -10.00     1000.00
02507              -8.00      800.00
02508              -2.00      800.00
02509               0.00      400.00
02510               0.00      400.00
02511               0.00        0.00
02512               0.00        0.00
02513              24.00     -400.00
02514              30.00     -400.00
02515              -2.00     -600.00
02516             -24.00     -800.00
02517              -6.00    -1000.00
02518              22.00    -1200.00
02519              34.00    -1400.00
02520             122.00    -1400.00
02521             246.00    -1800.00
02522             -20.00    -2400.00
02523            -254.00    -2400.00
02524            -254.00    -2600.00
02525             140.00    -2600.00
02526             246.00    -2800.00
02527             246.00    -3000.00
02528             -18.00    -3200.00
02529            -254.00    -3200.00
02530             102.00    -3800.00
02531             246.00    -3800.00
02532              40.00    -3600.00
02533             -58.00    -4400.00
02534            -176.00    -4200.00
02535             150.00    -4600.00
02536             112.00    -4800.00
02537             -86.00    -4800.00
02538             -90.00    -5200.00
02539             -62.00    -5000.00
02540             202.00    -5600.00
02541              66.00    -5600.00
02542             -94.00    -6000.00
02543             -74.00    -6200.00
02544               6.00    -5800.00
02545             144.00    -6800.00
02546              10.00    -6400.00
02547             -46.00    -6800.00
02548             -38.00    -7000.00
02549              38.00    -6800.00
02550              66.00    -7200.00
02551             -26.00    -7200.00
02552               2.00    -7600.00
02553               6.00    -7600.00
02554              34.00    -7800.00
02555              32.00    -8000.00
02556             -26.00    -8200.00
02557              14.00    -8400.00
02558              32.00    -8400.00
02559              10.00    -8400.00
02560               2.00    -8800.00
02561              14.00    -8800.00
02562              18.00    -9000.00
02563              24.00    -9200.00
02564              22.00    -9400.00
02565               0.00    -9400.00
02566              14.00    -9600.00
02567              24.00    -9600.00
02568              14.00    -9800.00
02569              22.00   -10000.00
02570              16.00   -10000.00
02571               8.00   -10000.00
02572              18.00   -10200.00
02573              10.00   -10200.00
02574              22.00   -10400.00
02575              38.00   -10600.00
02576              22.00   -10600.00
02577               6.00   -10800.00
02578               8.00   -10800.00
02579              14.00   -10800.00
02580              26.00   -11000.00
02581              32.00   -11000.00
02582              20.00   -11200.00
02583              14.00   -11200.00
02584              18.00   -11200.00
02585              14.00   -11400.00
02586              22.00   -11400.00
02587              26.00   -11600.00
02588              22.00   -11600.00
02589              24.00   -11800.00
02590              16.00   -11600.00
02591               8.00   -11800.00
02592              18.00   -11800.00
02593              24.00   -11800.00
02594              24.00   -11800.00
02595              26.00   -12000.00
02596              24.00   -12000.00
02597              14.00   -11800.00
02598              16.00   -12000.00
02599              16.00   -12200.00
02600              18.00   -12000.00
02601              30.00   -12000.00
02602              24.00   -12000.00
02603              22.00   -12200.00
02604              18.00   -12000.00
02605              14.00   -12000.00
02606              16.00   -12200.00
02607              28.00   -12000.00
02608              28.00   -12000.00
02609              24.00   -12000.00
02610              16.00   -12200.00
02611              10.00   -12200.00
02612              14.00   -12000.00
02613              18.00   -12000.00
02614              30.00   -12000.00
02615              30.00   -12000.00
02616              22.00   -12000.00
02617               8.00   -12000.00
02618              14.00   -12000.00
02619              14.00   -11800.00
02620              24.00   -12000.00
02621              34.00   -11800.00
02622              24.00   -11600.00
02623               8.00   -11800.00
02624               8.00   -11600.00
02625              18.00   -11600.00
02626              26.00   -11400.00
02627              24.00   -11600.00
02628              18.00   -11400.00
02629              14.00   -11200.00
02630              22.00   -11400.00
02631              26.00   -11200.00
02632              18.00   -11200.00
02633               4.00   -10800.00
02634              10.00   -11000.00
02635              32.00   -10800.00
02636              38.00   -10800.00
02637              16.00   -10800.00
02638              -2.00   -10600.00
02639               6.00   -10400.00
02640              24.00   -10200.00
02641              34.00   -10200.00
02642              26.00   -10000.00
02643              12.00   -10000.00
02644               6.00   -10000.00
02645               8.00    -9600.00
02646              18.00    -9600.00
02647              22.00    -9400.00
02648              22.00    -9200.00
02649              18.00    -9200.00
02650              16.00    -9200.00
02651              10.00    -9000.00
02652               2.00    -8800.00
02653              16.00    -8800.00
02654              24.00    -8600.00
02655              22.00    -8400.00
02656              14.00    -8200.00
02657               2.00    -8200.00
02658               8.00    -8000.00
02659              18.00    -7800.00
02660              20.00    -7800.00
02661              16.00    -7400.00
02662              10.00    -7200.00
02663               6.00    -7200.00
02664               8.00    -7000.00
02665              10.00    -7000.00
02666              14.00    -6800.00
02667              10.00    -6600.00
02668              10.00    -6600.00
02669               8.00    -6200.00
02670               8.00    -6000.00
02671              10.00    -5800.00
02672               8.00    -5600.00
02673               6.00    -5600.00
02674               6.00    -5200.00
02675               6.00    -5200.00
02676              12.00    -4800.00
02677               6.00    -4800.00
02678               2.00    -4600.00
02679               2.00    -4400.00
02680               6.00    -4000.00
02681               8.00    -4000.00
02682               6.00    -4000.00
02683               0.00    -3600.00
02684               0.00    -3400.00
02685               0.00    -3200.00
02686               4.00    -3000.00
02687               6.00    -2800.00
02688               2.00    -2600.00
02689              -2.00    -2400.00
02690               0.00    -2200.00
02691               0.00    -2200.00
02692               0.00    -2000.00
02693               0.00    -1600.00
02694               2.00    -1600.00
02695               2.00    -1200.00
02696               0.00    -1000.00
02697              -2.00     -800.00
02698              -6.00     -600.00
02699              -6.00     -600.00
02700               0.00     -200.00
02701               2.00        0.00
02702               2.00      200.00
02703               0.00      400.00
02704               2.00      400.00
02705              26.00      800.00
02706              26.00     1000.00
02707               0.00     1200.00
02708             -22.00     1200.00
02709              -8.00     1600.00
02710              16.00     1600.00
02711              86.00     1800.00
02712             246.00     2400.00
02713             110.00     2600.00
02714            -254.00     2400.00
02715            -254.00     2800.00
02716              -6.00     2800.00
02717             246.00     3000.00
02718             246.00     3400.00
02719            -254.00     3400.00
02720            -254.00     3400.00
02721             246.00     4000.00
02722             246.00     4000.00
02723              46.00     4200.00
02724              -6.00     4400.00
02725            -254.00     4400.00
02726             182.00     4600.00
02727             160.00     5000.00
02728            -176.00     5400.00
02729             -90.00     5200.00
02730             -34.00     5600.00
02731             144.00     5600.00
02732              24.00     5600.00
02733             -58.00     6200.00
02734            -146.00     6000.00
02735              -8.00     6400.00
02736             158.00     6800.00
02737             -86.00     6800.00
02738             -32.00     7200.00
02739             -54.00     7000.00
02740              -8.00     7200.00
02741              48.00     7600.00
02742             -54.00     7600.00
02743             -52.00     7600.00
02744               8.00     8000.00
02745              24.00     8200.00
02746             -56.00     8000.00
02747             -20.00     8400.00
02748             -40.00     8400.00
02749              -8.00     8800.00
02750              14.00     9000.00
02751             -34.00     9000.00
02752             -46.00     9000.00
02753             -10.00     9200.00
02754              -2.00     9600.00
02755             -26.00     9600.00
02756             -10.00     9800.00
02757             -58.00     9800.00
02758             -18.00    10000.00
02759               0.00    10000.00
02760             -18.00    10000.00
02761             -24.00    10400.00
02762             -32.00    10400.00
02763             -46.00    10400.00
02764             -18.00    10600.00
02765               8.00    10800.00
02766             -16.00    10800.00
02767             -24.00    10800.00
02768             -42.00    11200.00
02769             -42.00    11000.00
02770             -16.00    11200.00
02771              -6.00    11400.00
02772             -24.00    11400.00
02773             -22.00    11800.00
02774             -32.00    11600.00
02775             -32.00    11800.00
02776             -18.00    11800.00
02777             -32.00    11800.00
02778             -26.00    11800.00
02779             -10.00    12000.00
02780             -22.00    12000.00
02781             -32.00    12000.00
02782             -32.00    12200.00
02783             -34.00    12200.00
02784             -26.00    12400.00
02785             -12.00    12400.00
02786             -24.00    12400.00
02787             -26.00    12400.00
02788             -26.00    12400.00
02789             -32.00    12400.00
02790             -28.00    12400.00
02791             -26.00    12400.00
02792             -30.00    12400.00
02793             -16.00    12400.00
02794             -16.00    12600.00
02795             -30.00    12400.00
02796             -40.00    12600.00
02797             -42.00    12400.00
02798             -34.00    12600.00
02799              -8.00    12600.00
02800               0.00    12400.00
02801             -26.00    12400.00
02802             -50.00    12400.00
02803             -50.00    12400.00
02804             -32.00    12400.00
02805             -10.00    12400.00
02806             -14.00    12400.00
02807             -24.00    12400.00
02808             -30.00    12400.00
02809             -34.00    12400.00
02810             -38.00    12200.00
02811             -32.00    12200.00
02812             -24.00    12200.00
02813             -16.00    12200.00
02814             -24.00    12200.00
02815             -34.00    12000.00
02816             -34.00    12000.00
02817             -26.00    12000.00
02818             -28.00    11800.00
02819             -22.00    11800.00
02820             -24.00    11800.00
02821             -26.00    11800.00
02822             -32.00    11600.00
02823             -34.00    11600.00
02824             -30.00    11600.00
02825             -18.00    11400.00
02826             -16.00    11400.00
02827             -22.00    11200.00
02828             -26.00    11200.00
02829             -32.00    11200.00
02830             -32.00    10800.00
02831             -24.00    10800.00
02832             -18.00    10800.00
02833             -20.00    10400.00
02834             -26.00    10400.00
02835             -26.00    10400.00
02836             -24.00    10200.00
02837             -24.00    10000.00
02838             -24.00    10000.00
02839             -22.00     9800.00
02840             -16.00     9800.00
02841             -18.00     9600.00
02842             -30.00     9400.00
02843             -30.00     9200.00
02844             -24.00     9200.00
02845             -16.00     9000.00
02846             -14.00     9000.00
02847             -16.00     8800.00
02848             -24.00     8400.00
02849             -24.00     8400.00
02850             -24.00     8400.00
02851             -18.00     8200.00
02852             -16.00     8000.00
02853             -16.00     7800.00
02854             -18.00     7800.00
02855             -16.00     7600.00
02856             -20.00     7200.00
02857             -18.00     7200.00
02858             -22.00     7200.00
02859             -16.00     6800.00
02860             -14.00     6600.00
02861             -16.00     6400.00
02862             -24.00     6200.00
02863             -22.00     6400.00
02864             -16.00     6000.00
02865             -10.00     5800.00
02866              -8.00     5600.00
02867             -14.00     5400.00
02868             -22.00     5200.00
02869             -22.00     5000.00
02870             -16.00     4800.00
02871             -16.00     4800.00
02872              -8.00     4400.00
02873             -10.00     4200.00
02874             -10.00     4200.00
02875             -16.00     4000.00
02876             -18.00     3800.00
02877             -14.00     3400.00
02878              -6.00     3400.00
02879              -6.00     3200.00
02880              -8.00     3000.00
02881             -14.00     2800.00
02882             -18.00     2600.00
02883             -14.00     2400.00
02884              -6.00     2200.00
02885               0.00     2000.00
02886              -2.00     1800.00
02887              -6.00     1600.00
02888             -10.00     1200.00
02889              -8.00     1200.00
02890              -8.00     1000.00
02891              -2.00      800.00
02892               0.00      800.00
02893              -2.00      400.00
02894              -2.00      200.00
02895              -2.00        0.00
02896               8.00     -400.00
02897              34.00     -200.00
02898              16.00     -600.00
02899             -16.00     -800.00
02900             -16.00     -800.00
02901               8.00    -1200.00
02902              22.00    -1200.00
02903              56.00    -1400.00
02904             230.00    -1600.00
02905             224.00    -2200.00
02906            -254.00    -2400.00
02907            -254.00    -2600.00
02908             -82.00    -2600.00
02909             234.00    -2800.00
02910             246.00    -2800.00
02911             246.00    -3200.00
02912            -254.00    -3200.00
02913            -254.00    -3200.00
02914             246.00    -3800.00
02915             118.00    -3600.00
02916              24.00    -4000.00
02917            -166.00    -4400.00
02918             -34.00    -4000.00
02919             214.00    -4800.00
02920             -30.00    -4800.00
02921             -80.00    -5200.00
02922            -106.00    -5200.00
02923              80.00    -5200.00
02924             192.00    -5600.00
02925             -56.00    -5200.00
02926             -82.00    -6200.00
02927             -58.00    -6000.00
02928             104.00    -6200.00
02929              98.00    -6400.00
02930             -42.00    -6400.00
02931             -34.00    -7000.00
02932             -18.00    -7000.00
02933              80.00    -7200.00
02934               6.00    -7400.00
02935             -22.00    -7200.00
02936              16.00    -7600.00
02937              14.00    -7800.00
02938              50.00    -8000.00
02939             -10.00    -8000.00
02940             -16.00    -8400.00
02941              32.00    -8400.00
02942              26.00    -8400.00
02943               4.00    -8800.00
02944               6.00    -8800.00
02945              14.00    -9000.00
02946              22.00    -9200.00
02947              30.00    -9200.00
02948               8.00    -9400.00
02949               0.00    -9600.00
02950              22.00    -9600.00
02951              16.00    -9600.00
02952              18.00    -9800.00
02953              26.00   -10000.00
02954               6.00   -10000.00
02955              14.00   -10200.00
02956              12.00   -10200.00
02957              14.00   -10400.00
02958              34.00   -10400.00
02959              30.00   -10600.00
02960               8.00   -10800.00
02961               6.00   -10800.00
02962              14.00   -11000.00
02963              22.00   -11000.00
02964              32.00   -11200.00
02965              26.00   -11000.00
02966              14.00   -11200.00
02967              16.00   -11200.00
02968              16.00   -11400.00
02969              16.00   -11400.00
02970              26.00   -11600.00
02971              22.00   -11600.00
02972              24.00   -11600.00
02973              22.00   -11800.00
02974              10.00   -11800.00
02975              14.00   -11800.00
02976              24.00   -11800.00
02977              24.00   -12000.00
02978              26.00   -11800.00
02979              24.00   -12000.00
02980              16.00   -12000.00
02981              16.00   -12000.00
02982              18.00   -12000.00
02983              16.00   -12000.00
02984              28.00   -12000.00
02985              28.00   -12000.00
02986              24.00   -12000.00
02987              16.00   -12000.00
02988              10.00   -12400.00
02989              16.00   -12000.00
02990              26.00   -12200.00
02991              30.00   -12000.00
02992              22.00   -12000.00
02993              16.00   -12000.00
02994              16.00   -12000.00
02995              16.00   -12000.00
02996              22.00   -12000.00
02997              22.00   -12000.00
02998              24.00   -12000.00
02999              26.00   -12000.00
03000              18.00   -12000.00
03001              14.00   -12000.00
03002              16.00   -11800.00
03003              20.00   -12000.00
03004              22.00   -11800.00
03005              22.00   -11800.00
03006              22.00   -11800.00
03007              16.00   -11800.00
03008              16.00   -11600.00
03009              18.00   -11600.00
03010              18.00   -11600.00
03011              24.00   -11400.00
03012              22.00   -11400.00
03013              22.00   -11200.00
03014              14.00   -11200.00
03015              14.00   -11200.00
03016              16.00   -11000.00
03017              22.00   -11000.00
03018              22.00   -10800.00
03019              24.00   -10800.00
03020              18.00   -10800.00
03021              14.00   -10600.00
03022              10.00   -10600.00
03023              10.00   -10400.00
03024              16.00   -10200.00
03025              22.00   -10200.00
03026              24.00   -10000.00
03027              22.00    -9800.00
03028              14.00    -9800.00
03029               6.00    -9600.00
03030               8.00    -9600.00
03031              18.00    -9600.00
03032              24.00    -9200.00
03033              22.00    -9200.00
03034              12.00    -9000.00
03035               6.00    -8800.00
03036              12.00    -8800.00
03037              18.00    -8800.00
03038              20.00    -8400.00
03039              14.00    -8400.00
03040              10.00    -8200.00
03041              10.00    -8000.00
03042              12.00    -7800.00
03043              20.00    -7800.00
03044              16.00    -7400.00
03045              10.00    -7400.00
03046               6.00    -7200.00
03047              10.00    -7200.00
03048              14.00    -7000.00
03049              16.00    -6800.00
03050              14.00    -6800.00
03051               6.00    -6400.00
03052               2.00    -6400.00
03053               8.00    -6200.00
03054              16.00    -5800.00
03055              16.00    -5600.00
03056               0.00    -5600.00
03057               0.00    -5400.00
03058               6.00    -5200.00
03059              14.00    -5000.00
03060              12.00    -4800.00
03061               6.00    -4600.00
03062              -2.00    -4400.00
03063               2.00    -4400.00
03064               6.00    -4000.00
03065               8.00    -3800.00
03066               6.00    -3600.00
03067               0.00    -3400.00
03068               0.00    -3400.00
03069               0.00    -3200.00
03070               0.00    -2800.00
03071               6.00    -2800.00
03072               8.00    -2600.00
03073               6.00    -2400.00
03074              -2.00    -2200.00
03075              -6.00    -2000.00
03076              -2.00    -1800.00
03077               4.00    -1600.00
03078               4.00    -1400.00
03079               0.00    -1200.00
03080              -6.00    -1000.00
03081              -2.00     -800.00
03082              -2.00     -600.00
03083              -2.00     -400.00
03084               0.00     -200.00
03085               0.00        0.00
03086               0.00      200.00
03087               2.00      400.00
03088              16.00      800.00
03089              34.00      800.00
03090               8.00     1000.00
03091             -24.00     1200.00
03092             -16.00     1200.00
03093              16.00     1600.00
03094              40.00     1800.00
03095             214.00     2000.00
03096             246.00     2600.00
03097            -254.00     2400.00
03098            -254.00     2600.00
03099            -254.00     2800.00
03100             184.00     2800.00
03101             246.00     3200.00
03102             246.00     3600.00
03103            -254.00     3200.00
03104            -250.00     3600.00
03105             246.00     4000.00
03106              44.00     4000.00
03107             104.00     4400.00
03108            -242.00     4600.00
03109            -134.00     4400.00
03110             246.00     4800.00
03111             -74.00     5000.00
03112            -138.00     5400.00
03113             -80.00     5600.00
03114              62.00     5600.00
03115             122.00     5600.00
03116             -30.00     6000.00
03117             -86.00     6200.00
03118            -146.00     6000.00
03119             134.00     6600.00
03120              36.00     6600.00
03121             -82.00     6800.00
03122             -10.00     7000.00
03123             -70.00     7200.00
03124              48.00     7400.00
03125              -6.00     7400.00
03126             -64.00     7600.00
03127             -24.00     7800.00
03128              38.00     8000.00
03129             -26.00     8200.00
03130             -48.00     8200.00
03131             -20.00     8600.00
03132             -34.00     8600.00
03133              18.00     8800.00
03134             -22.00     9000.00
03135             -48.00     9000.00
03136             -34.00     9200.00
03137              14.00     9400.00
03138             -20.00     9400.00
03139             -10.00     9600.00
03140             -40.00     9800.00
03141             -54.00     9800.00
03142               0.00    10000.00
03143             -12.00    10200.00
03144             -16.00    10000.00
03145             -26.00    10400.00
03146             -40.00    10400.00
03147             -48.00    10600.00
03148              -4.00    10800.00
03149              -2.00    10800.00
03150             -18.00    10800.00
03151             -30.00    11200.00
03152             -50.00    11200.00
03153             -32.00    11200.00
03154             -10.00    11400.00
03155             -18.00    11400.00
03156             -28.00    11400.00
03157             -22.00    11800.00
03158             -32.00    11600.00
03159             -24.00    11800.00
03160             -26.00    11600.00
03161             -38.00    12000.00
03162             -18.00    12000.00
03163             -10.00    12000.00
03164             -22.00    12000.00
03165             -28.00    12200.00
03166             -36.00    12200.00
03167             -42.00    12200.00
03168             -22.00    12400.00
03169              -8.00    12200.00
03170             -16.00    12200.00
03171             -26.00    12400.00
03172             -42.00    12400.00
03173             -40.00    12600.00
03174             -18.00    12400.00
03175             -22.00    12600.00
03176             -24.00    12600.00
03177             -24.00    12400.00
03178             -30.00    12800.00
03179             -32.00    12800.00
03180             -26.00    12600.00
03181             -26.00    12600.00
03182             -26.00    12600.00
03183             -18.00    12600.00
03184             -26.00    12400.00
03185             -26.00    12600.00
03186             -32.00    12600.00
03187             -34.00    12400.00
03188             -26.00    12400.00
03189             -20.00    12400.00
03190             -24.00    12400.00
03191             -26.00    12400.00
03192             -34.00    12400.00
03193             -36.00    12400.00
03194             -24.00    12400.00
03195             -20.00    12200.00
03196             -24.00    12200.00
03197             -26.00    12200.00
03198             -30.00    12000.00
03199             -32.00    12000.00
03200             -30.00    12000.00
03201             -26.00    11800.00
03202             -24.00    11800.00
03203             -22.00    11800.00
03204             -28.00    11600.00
03205             -28.00    11800.00
03206             -30.00    11600.00
03207             -32.00    11600.00
03208             -24.00    11200.00
03209             -24.00    11200.00
03210             -22.00    11200.00
03211             -24.00    11000.00
03212             -26.00    11000.00
03213             -32.00    11000.00
03214             -30.00    10600.00
03215             -22.00    10800.00
03216             -16.00    10600.00
03217             -18.00    10600.00
03218             -26.00    10400.00
03219             -30.00    10400.00
03220             -26.00    10000.00
03221             -24.00    10000.00
03222             -22.00    10000.00
03223             -16.00     9800.00
03224             -20.00     9600.00
03225             -26.00     9600.00
03226             -26.00     9400.00
03227             -24.00     9200.00
03228             -18.00     9200.00
03229             -16.00     8800.00
03230             -20.00     8800.00
03231             -24.00     8600.00
03232             -24.00     8400.00
03233             -22.00     8400.00
03234             -12.00     8200.00
03235             -10.00     8000.00
03236             -22.00     8000.00
03237             -28.00     7800.00
03238             -26.00     7600.00
03239              -8.00     7400.00
03240              -6.00     7400.00
03241             -18.00     7200.00
03242             -32.00     6800.00
03243             -22.00     6800.00
03244              -8.00     6600.00
03245              -6.00     6400.00
03246             -16.00     6400.00
03247             -20.00     6000.00
03248             -18.00     5800.00
03249             -10.00     5600.00
03250             -10.00     5400.00
03251             -22.00     5400.00
03252             -22.00     5200.00
03253             -10.00     4800.00
03254              -2.00     4800.00
03255             -10.00     4400.00
03256             -26.00     4400.00
03257             -24.00     4200.00
03258              -2.00     4000.00
03259               0.00     3800.00
03260             -10.00     3600.00
03261             -24.00     3600.00
03262             -22.00     3400.00
03263              -6.00     3200.00
03264               2.00     2800.00
03265              -8.00     2800.00
03266             -18.00     2400.00
03267             -18.00     2400.00
03268             -10.00     2000.00
03269               0.00     1800.00
03270              -2.00     1600.00
03271             -10.00     1600.00
03272             -10.00     1200.00
03273              -8.00     1200.00
03274              -8.00     1000.00
03275              -6.00      800.00
03276              -2.00      600.00
03277              -2.00      400.00
03278               2.00        0.00
03279               2.00        0.00
03280              22.00     -400.00
03281              30.00     -400.00
03282              -6.00     -600.00
03283             -24.00     -800.00
03284              -8.00    -1000.00
03285              18.00    -1200.00
03286              32.00    -1400.00
03287             128.00    -1400.00
03288             246.00    -2000.00
03289             -24.00    -2400.00
03290            -254.00    -2400.00
03291            -254.00    -2400.00
03292             142.00    -2800.00
03293             246.00    -2600.00
03294             246.00    -2800.00
03295             -26.00    -3400.00
03296            -254.00    -3200.00
03297             102.00    -3600.00
03298             246.00    -3800.00
03299              40.00    -3800.00
03300             -56.00    -4400.00
03301            -174.00    -4000.00
03302             154.00    -4600.00
03303             110.00    -4800.00
03304             -86.00    -4800.00
03305             -88.00    -5200.00
03306             -58.00    -4800.00
03307             204.00    -5600.00
03308              64.00    -5400.00
03309             -96.00    -5800.00
03310             -74.00    -6200.00
03311               8.00    -6000.00
03312             146.00    -6600.00
03313              14.00    -6400.00
03314             -42.00    -6400.00
03315             -38.00    -7000.00
03316              38.00    -7000.00
03317              64.00    -7200.00
03318             -30.00    -7200.00
03319               6.00    -7400.00
03320               8.00    -7800.00
03321              38.00    -7800.00
03322              30.00    -8000.00
03323             -28.00    -8000.00
03324              14.00    -8400.00
03325              32.00    -8400.00
03326              10.00    -8600.00
03327               2.00    -8600.00
03328              12.00    -8800.00
03329              16.00    -9200.00
03330              24.00    -9200.00
03331              18.00    -9200.00
03332              -4.00    -9400.00
03333              14.00    -9400.00
03334              24.00    -9600.00
03335              14.00    -9600.00
03336              26.00   -10000.00
03337              16.00   -10000.00
03338               6.00   -10000.00
03339              16.00   -10200.00
03340              10.00   -10200.00
03341              22.00   -10400.00
03342              38.00   -10600.00
03343              18.00   -10600.00
03344               4.00   -10800.00
03345              10.00   -10800.00
03346              16.00   -11000.00
03347              26.00   -11000.00
03348              32.00   -11000.00
03349              18.00   -11200.00
03350              14.00   -11400.00
03351              16.00   -11200.00
03352              10.00   -11600.00
03353              22.00   -11600.00
03354              24.00   -11600.00
03355              22.00   -11600.00
03356              26.00   -11600.00
03357              16.00   -11800.00
03358               8.00   -11800.00
03359              18.00   -11800.00
03360              20.00   -11800.00
03361              24.00   -12000.00
03362              30.00   -11800.00
03363              24.00   -12000.00
03364              16.00   -12000.00
03365              16.00   -12000.00
03366              14.00   -12000.00
03367              20.00   -12000.00
03368              30.00   -12000.00
03369              26.00   -12200.00
03370              24.00   -12000.00
03371              18.00   -12000.00
03372              10.00   -12000.00
03373              18.00   -12200.00
03374              28.00   -12000.00
03375              28.00   -12000.00
03376              22.00   -12000.00
03377              18.00   -12200.00
03378              14.00   -12000.00
03379              16.00   -12000.00
03380              22.00   -12000.00
03381              22.00   -12000.00
03382              26.00   -12000.00
03383              22.00   -12000.00
03384              14.00   -12000.00
03385              14.00   -12000.00
03386              18.00   -12000.00
03387              24.00   -11800.00
03388              28.00   -11800.00
03389              20.00   -11800.00
03390              14.00   -11600.00
03391              14.00   -11600.00
03392              16.00   -11600.00
03393              18.00   -11600.00
03394              22.00   -11400.00
03395              22.00   -11400.00
03396              22.00   -11400.00
03397              16.00   -11200.00
03398              10.00   -11200.00
03399              16.00   -11200.00
03400              18.00   -11000.00
03401              24.00   -11000.00
03402              22.00   -10800.00
03403              18.00   -10800.00
03404              14.00   -10800.00
03405              16.00   -10600.00
03406              16.00   -10400.00
03407              18.00   -10400.00
03408              18.00   -10200.00
03409              22.00   -10200.00
03410              16.00   -10000.00
03411              14.00   -10000.00
03412              14.00    -9600.00
03413              14.00    -9600.00
03414              16.00    -9600.00
03415              22.00    -9400.00
03416              18.00    -9200.00
03417              16.00    -9200.00
03418               8.00    -8800.00
03419               8.00    -8800.00
03420              16.00    -8800.00
03421              18.00    -8600.00
03422              18.00    -8400.00
03423              14.00    -8400.00
03424              14.00    -8000.00
03425               8.00    -8000.00
03426              14.00    -7800.00
03427              14.00    -7800.00
03428              16.00    -7200.00
03429              14.00    -7400.00
03430              10.00    -7200.00
03431              10.00    -7000.00
03432               8.00    -6800.00
03433              12.00    -6800.00
03434              14.00    -6600.00
03435              14.00    -6400.00
03436               8.00    -6200.00
03437               8.00    -6000.00
03438               8.00    -6000.00
03439              10.00    -5600.00
03440               8.00    -5600.00
03441               8.00    -5200.00
03442               8.00    -5200.00
03443               8.00    -4800.00
03444              10.00    -4800.00
03445               8.00    -4600.00
03446               6.00    -4400.00
03447               6.00    -4200.00
03448               4.00    -4000.00
03449               6.00    -3800.00
03450               6.00    -3600.00
03451               6.00    -3400.00
03452               0.00    -3200.00
03453               0.00    -3000.00
03454               0.00    -2800.00
03455               6.00    -2600.00
03456               6.00    -2400.00
03457               4.00    -2200.00
03458              -2.00    -2200.00
03459              -6.00    -1800.00
03460               0.00    -1600.00
03461               2.00    -1400.00
03462               2.00    -1200.00
03463              -2.00    -1000.00
03464              -6.00     -800.00
03465              -6.00     -800.00
03466              -2.00     -600.00
03467               0.00     -400.00
03468               0.00        0.00
03469               0.00      200.00
03470               0.00      200.00
03471               4.00      400.00
03472              26.00      800.00
03473              22.00      800.00
03474              -8.00     1200.00
03475             -24.00     1200.00
03476              -2.00     1200.00
03477              20.00     1800.00
03478              90.00     1800.00
03479             246.00     2400.00
03480             102.00     2400.00
03481            -254.00     2600.00
03482            -254.00     2600.00
03483               2.00     2800.00
03484             246.00     3000.00
03485             246.00     3400.00
03486            -254.00     3400.00
03487            -254.00     3400.00
03488             246.00     4000.00
03489             246.00     4000.00
03490              42.00     4200.00
03491             -16.00     4600.00
03492            -254.00     4400.00
03493             190.00     4800.00
03494             166.00     4800.00
03495            -174.00     5200.00
03496             -94.00     5400.00
03497             -38.00     5600.00
03498             144.00     5600.00
03499              32.00     5800.00
03500             -50.00     6200.00
03501            -150.00     6200.00
03502             -10.00     6400.00
03503             158.00     6800.00
03504             -80.00     6600.00
03505             -26.00     7000.00
03506             -54.00     7200.00
03507              -8.00     7200.00
03508              50.00     7400.00
03509             -50.00     7800.00
03510             -52.00     8000.00
03511               6.00     8000.00
03512              24.00     8200.00
03513             -52.00     8200.00
03514             -18.00     8400.00
03515             -40.00     8400.00
03516             -10.00     8600.00
03517               8.00     9000.00
03518             -34.00     9000.00
03519             -46.00     9000.00
03520             -10.00     9200.00
03521              -6.00     9400.00
03522             -26.00     9600.00
03523              -2.00     9800.00
03524             -62.00     9800.00
03525             -26.00    10000.00
03526              -4.00    10000.00
03527             -14.00    10000.00
03528             -10.00    10400.00
03529             -30.00    10400.00
03530             -58.00    10400.00
03531             -30.00    10400.00
03532              10.00    10800.00
03533             -10.00    10800.00
03534             -20.00    11000.00
03535             -50.00    11200.00
03536             -54.00    11200.00
03537             -10.00    11200.00
03538               0.00    11400.00
03539             -24.00    11400.00
03540             -26.00    11400.00
03541             -34.00    11800.00
03542             -32.00    11800.00
03543             -16.00    11800.00
03544             -30.00    12000.00
03545             -32.00    11800.00
03546             -16.00    12000.00
03547             -24.00    12000.00
03548             -30.00    12000.00
03549             -26.00    12200.00
03550             -34.00    12200.00
03551             -26.00    12200.00
03552             -16.00    12200.00
03553             -26.00    12200.00
03554             -26.00    12400.00
03555             -24.00    12400.00
03556             -32.00    12400.00
03557             -26.00    12400.00
03558             -26.00    12600.00
03559             -26.00    12400.00
03560             -16.00    12400.00
03561             -20.00    12600.00
03562             -36.00    12400.00
03563             -34.00    12600.00
03564             -30.00    12400.00
03565             -24.00    12400.00
03566             -16.00    12600.00
03567             -26.00    12600.00
03568             -32.00    12400.00
03569             -28.00    12400.00
03570             -26.00    12400.00
03571             -26.00    12400.00
03572             -24.00    12400.00
03573             -28.00    12400.00
03574             -24.00    12400.00
03575             -24.00    12400.00
03576             -32.00    12400.00
03577             -34.00    12400.00
03578             -30.00    12400.00
03579             -24.00    12200.00
03580             -18.00    12000.00
03581             -24.00    12200.00
03582             -32.00    12000.00
03583             -34.00    12000.00
03584             -30.00    12000.00
03585             -22.00    12000.00
03586             -18.00    12000.00
03587             -24.00    11600.00
03588             -32.00    11800.00
03589             -30.00    11800.00
03590             -30.00    11400.00
03591             -24.00    11400.00
03592             -22.00    11200.00
03593             -24.00    11200.00
03594             -24.00    11200.00
03595             -26.00    11200.00
03596             -28.00    11200.00
03597             -30.00    10800.00
03598             -24.00    10800.00
03599             -24.00    10600.00
03600             -22.00    10400.00
03601             -24.00    10600.00
03602             -26.00    10400.00
03603             -26.00    10200.00
03604             -26.00    10000.00
03605             -24.00    10000.00
03606             -16.00     9800.00
03607             -18.00     9800.00
03608             -24.00     9600.00
03609             -24.00     9600.00
03610             -26.00     9400.00
03611             -24.00     9200.00
03612             -16.00     9000.00
03613             -16.00     9000.00
03614             -18.00     8800.00
03615             -24.00     8800.00
03616             -26.00     8400.00
03617             -24.00     8400.00
03618             -16.00     8000.00
03619             -16.00     8000.00
03620             -16.00     7600.00
03621             -18.00     7600.00
03622             -20.00     7600.00
03623             -22.00     7400.00
03624             -18.00     7200.00
03625             -18.00     7200.00
03626             -14.00     6800.00
03627             -12.00     6600.00
03628             -16.00     6600.00
03629             -18.00     6400.00
03630             -16.00     6200.00
03631             -16.00     6000.00
03632             -10.00     5800.00
03633             -10.00     5600.00
03634             -14.00     5600.00
03635             -16.00     5200.00
03636             -16.00     5000.00
03637             -16.00     5000.00
03638             -12.00     4600.00
03639              -8.00     4400.00
03640             -10.00     4200.00
03641             -14.00     4000.00
03642             -14.00     4000.00
03643             -16.00     3800.00
03644             -14.00     3600.00
03645             -10.00     3200.00
03646              -8.00     3200.00
03647              -8.00     2800.00
03648             -10.00     2800.00
03649             -14.00     2600.00
03650             -10.00     2400.00
03651              -6.00     2200.00
03652              -6.00     2000.00
03653              -6.00     1800.00
03654             -10.00     1600.00
03655             -10.00     1400.00
03656              -6.00     1200.00
03657              -8.00     1000.00
03658              -8.00      800.00
03659              -2.00      800.00
03660               0.00      400.00
03661               0.00      200.00
03662              -2.00        0.00
03663               6.00     -200.00
03664              32.00     -400.00
03665              16.00     -600.00
03666             -16.00     -600.00
03667             -18.00    -1000.00
03668               8.00    -1200.00
03669              22.00    -1200.00
03670              62.00    -1400.00
03671             230.00    -1800.00
03672             218.00    -2200.00
03673            -254.00    -2400.00
03674            -254.00    -2600.00
03675             -80.00    -2600.00
03676             238.00    -2600.00
03677             246.00    -2800.00
03678             246.00    -3200.00
03679            -254.00    -3200.00
03680            -254.00    -3200.00
03681             246.00    -4000.00
03682             118.00    -3600.00
03683              22.00    -4000.00
03684            -170.00    -4400.00
03685             -32.00    -4200.00
03686             212.00    -4800.00
03687             -26.00    -4600.00
03688             -80.00    -5200.00
03689            -110.00    -5200.00
03690              80.00    -5400.00
03691             190.00    -5600.00
03692             -56.00    -5600.00
03693             -78.00    -6200.00
03694             -58.00    -6000.00
03695             102.00    -6200.00
03696              98.00    -6400.00
03697             -42.00    -6400.00
03698             -34.00    -7000.00
03699             -16.00    -6800.00
03700              82.00    -7000.00
03701               8.00    -7200.00
03702             -18.00    -7200.00
03703              14.00    -7600.00
03704              12.00    -7600.00
03705              52.00    -8000.00
03706              -8.00    -8000.00
03707             -14.00    -8400.00
03708              30.00    -8400.00
03709              22.00    -8400.00
03710               6.00    -8800.00
03711               6.00    -8800.00
03712              14.00    -9000.00
03713              20.00    -9200.00
03714              26.00    -9200.00
03715               6.00    -9400.00
03716              -2.00    -9600.00
03717              22.00    -9600.00
03718              16.00    -9600.00
03719              18.00    -9800.00
03720              22.00   -10000.00
03721               6.00   -10000.00
03722              14.00   -10200.00
03723              14.00   -10200.00
03724              10.00   -10400.00
03725              34.00   -10400.00
03726              28.00   -10600.00
03727               8.00   -10800.00
03728               2.00   -10800.00
03729              10.00   -11000.00
03730              18.00   -11000.00
03731              30.00   -11200.00
03732              24.00   -11000.00
03733              12.00   -11200.00
03734              18.00   -11200.00
03735              14.00   -11400.00
03736              14.00   -11600.00
03737              24.00   -11600.00
03738              24.00   -11600.00
03739              26.00   -11600.00
03740              22.00   -11800.00
03741              10.00   -11600.00
03742              10.00   -11800.00
03743              26.00   -12000.00
03744              30.00   -12000.00
03745              24.00   -12000.00
03746              16.00   -11800.00
03747              10.00   -12000.00
03748              26.00   -12000.00
03749              26.00   -12000.00
03750              14.00   -12000.00
03751              24.00   -12000.00
03752              26.00   -12000.00
03753              22.00   -12200.00
03754              22.00   -12200.00
03755              16.00   -12200.00
03756              10.00   -12000.00
03757              24.00   -12000.00
03758              34.00   -12000.00
03759              32.00   -12000.00
03760              16.00   -12000.00
03761               0.00   -12000.00
03762              10.00   -12000.00
03763              32.00   -12200.00
03764              40.00   -12000.00
03765              30.00   -12000.00
03766              16.00   -11800.00
03767               8.00   -12000.00
03768              14.00   -12000.00
03769              24.00   -11800.00
03770              30.00   -11800.00
03771              30.00   -11800.00
03772              18.00   -11800.00
03773               4.00   -11800.00
03774              12.00   -11600.00
03775              36.00   -11600.00
03776              42.00   -11600.00
03777              22.00   -11600.00
03778               0.00   -11600.00
03779              -2.00   -11200.00
03780              24.00   -11400.00
03781              40.00   -11200.00
03782              26.00   -11200.00
03783              10.00   -11200.00
03784               6.00   -11000.00
03785              16.00   -11000.00
03786              26.00   -10800.00
03787              22.00   -10400.00
03788              10.00   -10600.00
03789              10.00   -10400.00
03790              16.00   -10400.00
03791              20.00   -10200.00
03792              18.00   -10200.00
03793              18.00   -10000.00
03794              18.00    -9800.00
03795              16.00    -9800.00
03796              14.00    -9600.00
03797              10.00    -9600.00
03798              14.00    -9400.00
03799              16.00    -9400.00
03800              22.00    -9200.00
03801              18.00    -9200.00
03802              10.00    -9000.00
03803               8.00    -8800.00
03804               8.00    -8600.00
03805              20.00    -8600.00
03806              24.00    -8400.00
03807              14.00    -8000.00
03808               0.00    -8200.00
03809               6.00    -7800.00
03810              16.00    -7800.00
03811              26.00    -7400.00
03812              18.00    -7400.00
03813               2.00    -7200.00
03814               0.00    -7000.00
03815              10.00    -7000.00
03816              16.00    -6800.00
03817              16.00    -6800.00
03818              10.00    -6400.00
03819               8.00    -6200.00
03820              14.00    -6200.00
03821              10.00    -6000.00
03822               2.00    -5600.00
03823               8.00    -5600.00
03824              14.00    -5400.00
03825              14.00    -5200.00
03826               6.00    -5200.00
03827              -2.00    -4800.00
03828               6.00    -4600.00
03829              16.00    -4400.00
03830              16.00    -4400.00
03831               6.00    -4000.00
03832              -2.00    -3800.00
03833              -2.00    -3600.00
03834               8.00    -3600.00
03835              16.00    -3200.00
03836               6.00    -3200.00
03837              -6.00    -3000.00
03838              -2.00    -2800.00
03839               4.00    -2600.00
03840               6.00    -2400.00
03841               2.00    -2200.00
03842              -2.00    -2000.00
03843               0.00    -2000.00
03844               2.00    -1600.00
03845               0.00    -1400.00
03846              -2.00    -1000.00
03847              -6.00    -1200.00
03848              -2.00     -800.00
03849               2.00     -600.00
03850              -2.00     -400.00
03851              -2.00     -200.00
03852               0.00        0.00
03853               0.00      200.00
03854              -2.00      400.00
03855              14.00      800.00
03856              34.00      800.00
03857              10.00     1000.00
03858             -16.00     1200.00
03859             -18.00     1200.00
03860               0.00     1600.00
03861              24.00     1600.00
03862             214.00     2000.00
03863             246.00     2400.00
03864            -250.00     2400.00
03865            -254.00     2600.00
03866            -254.00     2800.00
03867             176.00     2800.00
03868             246.00     3200.00
03869             246.00     3600.00
03870            -254.00     3200.00
03871            -254.00     3800.00
03872             246.00     4000.00
03873              50.00     4000.00
03874             116.00     4400.00
03875            -242.00     4400.00
03876            -138.00     4400.00
03877             246.00     4800.00
03878             -74.00     5000.00
03879            -138.00     5400.00
03880             -72.00     5600.00
03881              70.00     5800.00
03882             112.00     5600.00
03883             -48.00     6000.00
03884             -86.00     6400.00
03885            -130.00     6200.00
03886             144.00     6800.00
03887              30.00     6600.00
03888             -92.00     6800.00
03889             -14.00     7000.00
03890             -62.00     7200.00
03891              54.00     7400.00
03892              -6.00     7600.00
03893             -64.00     7600.00
03894             -26.00     7800.00
03895              34.00     8200.00
03896             -24.00     8200.00
03897             -48.00     8400.00
03898             -18.00     8600.00
03899             -32.00     8400.00
03900              22.00     8800.00
03901             -16.00     9000.00
03902             -48.00     9000.00
03903             -42.00     9200.00
03904               2.00     9200.00
03905             -16.00     9400.00
03906               0.00     9600.00
03907             -28.00     9800.00
03908             -58.00     9600.00
03909             -10.00    10000.00
03910             -16.00    10000.00
03911              -8.00    10200.00
03912             -16.00    10400.00
03913             -40.00    10400.00
03914             -50.00    10400.00
03915              -6.00    10800.00
03916              -8.00    10600.00
03917             -16.00    10800.00
03918             -26.00    11200.00
03919             -50.00    11000.00
03920             -32.00    11200.00
03921              -6.00    11400.00
03922             -16.00    11400.00
03923             -26.00    11400.00
03924             -26.00    11600.00
03925             -38.00    11800.00
03926             -22.00    11800.00
03927             -22.00    11800.00
03928             -34.00    12000.00
03929             -24.00    11800.00
03930             -18.00    12000.00
03931             -26.00    12200.00
03932             -24.00    12000.00
03933             -30.00    12200.00
03934             -36.00    12400.00
03935             -22.00    12200.00
03936             -16.00    12200.00
03937             -24.00    12200.00
03938             -30.00    12400.00
03939             -34.00    12400.00
03940             -36.00    12400.00
03941             -22.00    12400.00
03942             -22.00    12400.00
03943             -22.00    12400.00
03944             -22.00    12600.00
03945             -32.00    12600.00
03946             -32.00    12400.00
03947             -26.00    12400.00
03948             -26.00    12400.00
03949             -22.00    12800.00
03950             -22.00    12600.00
03951             -24.00    12600.00
03952             -28.00    12400.00
03953             -32.00    12600.00
03954             -34.00    12400.00
03955             -26.00    12400.00
03956             -18.00    12400.00
03957             -18.00    12400.00
03958             -26.00    12400.00
03959             -34.00    12400.00
03960             -38.00    12200.00
03961             -26.00    12400.00
03962             -20.00    12200.00
03963             -18.00    12200.00
03964             -22.00    12200.00
03965             -32.00    12200.00
03966             -32.00    12000.00
03967             -32.00    12200.00
03968             -26.00    12000.00
03969             -22.00    11800.00
03970             -22.00    11800.00
03971             -26.00    11800.00
03972             -30.00    11600.00
03973             -32.00    11800.00
03974             -30.00    11600.00
03975             -24.00    11400.00
03976             -24.00    11400.00
03977             -22.00    11200.00
03978             -26.00    11200.00
03979             -28.00    11200.00
03980             -30.00    10800.00
03981             -26.00    10800.00
03982             -22.00    10600.00
03983             -20.00    10400.00
03984             -24.00    10400.00
03985             -28.00    10400.00
03986             -30.00    10200.00
03987             -24.00    10200.00
03988             -24.00    10000.00
03989             -24.00    10000.00
03990             -24.00     9800.00
03991             -24.00     9600.00
03992             -24.00     9600.00
03993             -24.00     9200.00
03994             -24.00     9400.00
03995             -18.00     9000.00
03996             -18.00     9000.00
03997             -18.00     9000.00
03998             -24.00     8600.00
03999             -26.00     8400.00
04000             -24.00     8200.00
04001             -16.00     8200.00
04002             -14.00     8000.00
04003             -18.00     8000.00
04004             -24.00     7800.00
04005             -22.00     7600.00
04006             -18.00     7400.00
04007             -16.00     7400.00
04008             -18.00     7000.00
04009             -22.00     7000.00
04010             -16.00     6800.00
04011             -10.00     6600.00
04012             -14.00     6400.00
04013             -20.00     6200.00
04014             -22.00     6200.00
04015             -16.00     5800.00
04016             -10.00     5600.00
04017              -8.00     5600.00
04018             -16.00     5200.00
04019             -16.00     5400.00
04020             -22.00     5000.00
04021             -16.00     4800.00
04022              -6.00     4400.00
04023              -6.00     4400.00
04024             -10.00     4200.00
04025             -16.00     4000.00
04026             -16.00     3600.00
04027             -14.00     3600.00
04028              -8.00     3400.00
04029              -8.00     3200.00
04030              -6.00     3000.00
04031             -10.00     3000.00
04032             -10.00     2600.00
04033             -14.00     2400.00
04034             -10.00     2200.00
04035             -10.00     2000.00
04036              -2.00     1800.00
04037              -4.00     1600.00
04038              -8.00     1600.00
04039             -10.00     1200.00
04040             -10.00     1000.00
04041              -8.00      800.00
04042              -4.00      800.00
04043               0.00      600.00
04044               0.00      400.00
04045              -2.00      200.00
04046               0.00        0.00
04047              22.00     -200.00
04048              30.00     -400.00
04049              -2.00     -600.00
04050             -26.00     -800.00
04051              -8.00    -1000.00
04052              22.00    -1200.00
04053              32.00    -1400.00
04054             126.00    -1400.00
04055             246.00    -2000.00
04056             -26.00    -2400.00
04057            -254.00    -2600.00
04058            -254.00    -2800.00
04059             144.00    -2800.00
04060             246.00    -2600.00
04061             246.00    -2800.00
04062             -30.00    -3400.00
04063            -254.00    -3200.00
04064             104.00    -3600.00
04065             246.00    -3800.00
04066              40.00    -3600.00
04067             -58.00    -4200.00
04068            -176.00    -4200.00
04069             150.00    -4600.00
04070             110.00    -4800.00
04071             -86.00    -4800.00
04072             -88.00    -5200.00
04073             -58.00    -5000.00
04074             202.00    -5600.00
04075              64.00    -5400.00
04076             -94.00    -5800.00
04077             -74.00    -6200.00
04078               8.00    -5800.00
04079             144.00    -6400.00
04080              10.00    -6200.00
04081             -42.00    -6600.00
04082             -34.00    -7000.00
04083              42.00    -7000.00
04084              64.00    -7400.00
04085             -28.00    -7200.00
04086               8.00    -7600.00
04087               8.00    -7600.00
04088              38.00    -7800.00
04089              32.00    -8000.00
04090             -26.00    -8000.00
04091              14.00    -8400.00
04092              32.00    -8400.00
04093              12.00    -8600.00
04094               6.00    -8800.00
04095              14.00    -8800.00
04096              16.00    -9200.00
04097              26.00    -9200.00
04098              22.00    -9400.00
04099              -2.00    -9400.00
04100              14.00    -9600.00
04101              24.00    -9600.00
04102              14.00    -9600.00
04103              26.00   -10000.00
04104              14.00   -10000.00
04105               6.00   -10200.00
04106              16.00   -10200.00
04107               8.00   -10200.00
04108              24.00   -10400.00
04109              34.00   -10400.00
04110              18.00   -10800.00
04111               6.00   -10800.00
04112              10.00   -11000.00
04113              14.00   -10800.00
04114              26.00   -11000.00
04115              30.00   -11000.00
04116              16.00   -11200.00
04117              16.00   -11200.00
04118              18.00   -11200.00
04119              10.00   -11400.00
04120              22.00   -11600.00
04121              22.00   -11600.00
04122              22.00   -11600.00
04123              24.00   -11800.00
04124              18.00   -11800.00
04125               8.00   -12000.00
04126              18.00   -11800.00
04127              22.00   -11800.00
04128              24.00   -12000.00
04129              26.00   -12000.00
04130              22.00   -12000.00
04131              14.00   -12000.00
04132              20.00   -12000.00
04133              16.00   -12000.00
04134              22.00   -12000.00
04135              28.00   -12000.00
04136              24.00   -12000.00
04137              22.00   -12000.00
04138              18.00   -12000.00
04139              12.00   -12200.00
04140              18.00   -12200.00
04141              26.00   -12000.00
04142              30.00   -12000.00
04143              22.00   -12000.00
04144              18.00   -12000.00
04145              14.00   -12000.00
04146              16.00   -12000.00
04147              22.00   -12000.00
04148              26.00   -12000.00
04149              30.00   -12000.00
04150              24.00   -12000.00
04151              16.00   -12000.00
04152              16.00   -12000.00
04153              18.00   -12000.00
04154              22.00   -11600.00
04155              30.00   -11800.00
04156              26.00   -11600.00
04157              18.00   -11600.00
04158              16.00   -11600.00
04159              16.00   -11600.00
04160              16.00   -11600.00
04161              24.00   -11600.00
04162              24.00   -11400.00
04163              22.00   -11200.00
04164              20.00   -11400.00
04165              12.00   -11200.00
04166              14.00   -11200.00
04167              22.00   -11000.00
04168              22.00   -11000.00
04169              22.00   -10800.00
04170              22.00   -10800.00
04171              16.00   -10800.00
04172              14.00   -10400.00
04173              24.00   -10400.00
04174              14.00   -10400.00
04175               8.00   -10200.00
04176               6.00   -10000.00
04177              18.00   -10200.00
04178              34.00    -9800.00
04179             -26.00    -9800.00
04180              38.00    -9600.00
04181              46.00    -9200.00
04182              58.00    -9400.00
04183              10.00    -9200.00
04184             -38.00    -9400.00
04185             -26.00    -9000.00
04186               8.00    -8800.00
04187               6.00    -8600.00
04188              30.00    -8600.00
04189              48.00    -8600.00
04190              38.00    -8200.00
04191              20.00    -8200.00
04192             -18.00    -8000.00
04193              -6.00    -7800.00
04194              18.00    -7600.00
04195              18.00    -7600.00
04196               6.00    -7400.00
04197               0.00    -7200.00
04198              10.00    -7000.00
04199              16.00    -6800.00
04200              16.00    -6800.00
04201              12.00    -6600.00
04202              16.00    -6400.00
04203              16.00    -6200.00
04204               8.00    -6000.00
04205              -6.00    -6000.00
04206               0.00    -5600.00
04207               0.00    -5600.00
04208              18.00    -5200.00
04209               8.00    -5200.00
04210               2.00    -4800.00
04211              16.00    -4800.00
04212              20.00    -4600.00
04213              16.00    -4400.00
04214              -8.00    -4200.00
04215              -8.00    -4000.00
04216              -2.00    -3800.00
04217               8.00    -3600.00
04218               4.00    -3400.00
04219               8.00    -3200.00
04220              14.00    -3000.00
04221               2.00    -2800.00
04222               2.00    -2600.00
04223               0.00    -2400.00
04224               0.00    -2400.00
04225              -2.00    -2000.00
04226              -2.00    -2000.00
04227               0.00    -1600.00
04228               8.00    -1600.00
04229               2.00    -1400.00
04230               0.00    -1000.00
04231              -2.00     -800.00
04232             -10.00     -600.00
04233              -8.00     -400.00
04234              -2.00     -400.00
04235               8.00        0.00
04236               8.00        0.00
04237               0.00      400.00
04238              -6.00      400.00
04239              22.00      800.00
04240              22.00      800.00
04241              -2.00     1000.00
04242             -18.00     1200.00
04243              -6.00     1600.00
04244              16.00     1600.00
04245              88.00     1800.00
04246             246.00     2200.00
04247              94.00     2400.00
04248            -254.00     2400.00
04249            -254.00     2600.00
04250               6.00     2800.00
04251             246.00     3200.00
04252             246.00     3400.00
04253            -254.00     3400.00
04254            -254.00     3400.00
04255             246.00     4000.00
04256             246.00     4000.00
04257              46.00     4000.00
04258             -14.00     4800.00
04259            -254.00     4400.00
04260             186.00     4600.00
04261             160.00     5000.00
04262            -172.00     5400.00
04263             -90.00     5400.00
04264             -34.00     5400.00
04265             144.00     5800.00
04266              24.00     5600.00
04267             -54.00     6400.00
04268            -144.00     6000.00
04269              -4.00     6400.00
04270             154.00     6800.00
04271             -88.00     6600.00
04272             -26.00     7200.00
04273             -48.00     7000.00
04274              -2.00     7200.00
04275              48.00     7400.00
04276             -58.00     7600.00
04277             -54.00     7800.00
04278              12.00     7800.00
04279              30.00     8000.00
04280             -52.00     8200.00
04281             -24.00     8400.00
04282             -40.00     8600.00
04283              -2.00     8800.00
04284              16.00     9000.00
04285             -34.00     9000.00
04286             -50.00     9200.00
04287             -14.00     9200.00
04288               2.00     9600.00
04289             -16.00     9600.00
04290              -8.00     9800.00
04291             -62.00     9800.00
04292             -24.00    10000.00
04293               0.00    10000.00
04294             -14.00    10200.00
04295             -14.00    10200.00
04296             -30.00    10400.00
04297             -54.00    10600.00
04298             -26.00    10600.00
04299               2.00    10600.00
04300             -16.00    10800.00
04301             -16.00    10800.00
04302             -36.00    11000.00
04303             -46.00    11000.00
04304             -22.00    11200.00
04305             -10.00    11200.00
04306             -26.00    11400.00
04307             -18.00    11400.00
04308             -26.00    11600.00
04309             -32.00    11800.00
04310             -26.00    11600.00
04311             -34.00    11800.00
04312             -30.00    11800.00
04313             -10.00    12000.00
04314             -18.00    12000.00
04315             -32.00    12000.00
04316             -34.00    12200.00
04317             -34.00    12200.00
04318             -30.00    12200.00
04319             -16.00    12200.00
04320             -24.00    12400.00
04321             -24.00    12400.00
04322             -28.00    12400.00
04323             -34.00    12400.00
04324             -30.00    12400.00
04325             -24.00    12400.00
04326             -26.00    12400.00
04327             -22.00    12400.00
04328             -26.00    12600.00
04329             -34.00    12800.00
04330             -30.00    12600.00
04331             -26.00    12600.00
04332             -26.00    12400.00
04333             -22.00    12800.00
04334             -24.00    12600.00
04335             -26.00    12600.00
04336             -26.00    12400.00
04337             -32.00    12400.00
04338             -32.00    12400.00
04339             -22.00    12400.00
04340             -22.00    12400.00
04341             -22.00    12400.00
04342             -26.00    12400.00
04343             -34.00    12400.00
04344             -32.00    12400.00
04345             -24.00    12200.00
04346             -22.00    12400.00
04347             -22.00    12200.00
04348             -24.00    12200.00
04349             -32.00    12000.00
04350             -32.00    12000.00
04351             -28.00    12000.00
04352             -24.00    12000.00
04353             -18.00    11800.00
04354             -24.00    11800.00
04355             -30.00    11800.00
04356             -32.00    11600.00
04357             -28.00    11600.00
04358             -26.00    11600.00
04359             -22.00    11400.00
04360             -22.00    11200.00
04361             -22.00    11200.00
04362             -28.00    11200.00
04363             -32.00    11000.00
04364             -30.00    10800.00
04365             -24.00    10600.00
04366             -18.00    10600.00
04367             -22.00    10600.00
04368             -26.00    10400.00
04369             -30.00    10400.00
04370             -30.00    10200.00
04371             -30.00    10000.00
04372             -24.00     9800.00
04373             -18.00     9800.00
04374             -20.00     9600.00
04375             -24.00     9600.00
04376             -26.00     9400.00
04377             -26.00     9200.00
04378             -26.00     9200.00
04379             -22.00     9000.00
04380             -18.00     9000.00
04381             -16.00     8800.00
04382             -24.00     8600.00
04383             -28.00     8400.00
04384             -26.00     8200.00
04385             -22.00     8200.00
04386             -14.00     8000.00
04387             -14.00     8000.00
04388             -24.00     7800.00
04389             -22.00     7600.00
04390             -22.00     7400.00
04391             -22.00     7200.00
04392             -18.00     7000.00
04393             -12.00     6800.00
04394             -14.00     6600.00
04395             -16.00     6400.00
04396             -20.00     6400.00
04397             -16.00     6200.00
04398             -16.00     6000.00
04399             -12.00     6000.00
04400             -10.00     5600.00
04401             -12.00     5600.00
04402             -16.00     5200.00
04403             -18.00     5000.00
04404             -18.00     4800.00
04405             -10.00     4800.00
04406             -10.00     4400.00
04407              -8.00     4400.00
04408             -10.00     4000.00
04409             -14.00     4000.00
04410             -10.00     3600.00
04411             -14.00     3600.00
04412             -10.00     3200.00
04413              -8.00     3200.00
04414              -8.00     3000.00
04415              -8.00     2800.00
04416             -10.00     2400.00
04417             -10.00     2400.00
04418             -10.00     2200.00
04419              -6.00     2000.00
04420               0.00     1800.00
04421              -2.00     1600.00
04422             -10.00     1200.00
04423             -10.00     1200.00
04424             -10.00     1000.00
04425              -6.00     1000.00
04426              -4.00      600.00
04427               0.00      400.00
04428               0.00      400.00
04429               0.00        0.00
04430               8.00     -200.00
04431              32.00     -400.00
04432              14.00     -600.00
04433             -22.00     -800.00
04434             -18.00     -800.00
04435              10.00    -1200.00
04436              24.00    -1200.00
04437              56.00    -1400.00
04438             228.00    -1600.00
04439             216.00    -2200.00
04440            -254.00    -2400.00
04441            -254.00    -2600.00
04442             -78.00    -2800.00
04443             234.00    -2800.00
04444             246.00    -2800.00
04445             246.00    -3200.00
04446            -254.00    -3200.00
04447            -254.00    -3400.00
04448             246.00    -4000.00
04449             114.00    -3600.00
04450              22.00    -4200.00
04451            -170.00    -4400.00
04452             -32.00    -4000.00
04453             208.00    -4800.00
04454             -30.00    -4800.00
04455             -78.00    -5200.00
04456            -106.00    -5000.00
04457              82.00    -5400.00
04458             190.00    -5600.00
04459             -62.00    -5400.00
04460             -82.00    -6200.00
04461             -56.00    -6000.00
04462             104.00    -6400.00
04463              98.00    -6400.00
04464             -44.00    -6400.00
04465             -38.00    -7000.00
04466             -16.00    -7000.00
04467              82.00    -7200.00
04468               8.00    -7400.00
04469             -18.00    -7400.00
04470              16.00    -7600.00
04471              12.00    -7600.00
04472              50.00    -8000.00
04473              -8.00    -8000.00
04474             -14.00    -8400.00
04475              32.00    -8400.00
04476              22.00    -8600.00
04477               8.00    -8800.00
04478              10.00    -8800.00
04479              12.00    -9000.00
04480              18.00    -9200.00
04481              30.00    -9200.00
04482              12.00    -9400.00
04483               2.00    -9400.00
04484              22.00    -9600.00
04485              16.00    -9800.00
04486              18.00   -10000.00
04487              28.00    -9800.00
04488               8.00   -10200.00
04489              14.00   -10200.00
04490              14.00   -10200.00
04491              12.00   -10200.00
04492              32.00   -10400.00
04493              30.00   -10400.00
04494               8.00   -10800.00
04495               6.00   -11000.00
04496              10.00   -10800.00
04497              16.00   -11000.00
04498              32.00   -11000.00
04499              26.00   -11200.00
04500              12.00   -11200.00
04501              18.00   -11200.00
04502              14.00   -11200.00
04503              14.00   -11400.00
04504              24.00   -11600.00
04505              22.00   -11600.00
04506              18.00   -11600.00
04507              24.00   -11600.00
04508              10.00   -11800.00
04509              14.00   -11800.00
04510              22.00   -11800.00
04511              20.00   -11800.00
04512              24.00   -11800.00
04513              22.00   -12000.00
04514              16.00   -12000.00
04515              16.00   -12000.00
04516              18.00   -12000.00
04517              16.00   -12000.00
04518              26.00   -12000.00
04519              26.00   -12000.00
04520              22.00   -12000.00
04521              22.00   -12200.00
04522              16.00   -12000.00
04523              16.00   -12200.00
04524              26.00   -12000.00
04525              26.00   -12000.00
04526              22.00   -12200.00
04527              20.00   -12000.00
04528              20.00   -12000.00
04529              16.00   -12000.00
04530              22.00   -12000.00
04531              22.00   -12000.00
04532              24.00   -12000.00
04533              26.00   -12000.00
04534              18.00   -12000.00
04535              16.00   -12000.00
04536              16.00   -12000.00
04537              14.00   -11800.00
04538              24.00   -11600.00
04539              32.00   -11800.00
04540              24.00   -11600.00
04541              14.00   -11800.00
04542              10.00   -11600.00
04543              16.00   -11600.00
04544              26.00   -11400.00
04545              28.00   -11400.00
04546              22.00   -11200.00
04547              16.00   -11200.00
04548              18.00   -11200.00
04549              22.00   -11200.00
04550              18.00   -11000.00
04551              10.00   -11000.00
04552              16.00   -10800.00
04553              34.00   -10800.00
04554              30.00   -10800.00
04555               8.00   -10600.00
04556              -2.00   -10600.00
04557              12.00   -10400.00
04558              26.00   -10200.00
04559              34.00   -10000.00
04560              22.00   -10000.00
04561               6.00   -10000.00
04562               2.00    -9800.00
04563               8.00    -9600.00
04564              16.00    -9600.00
04565              24.00    -9200.00
04566              20.00    -9200.00
04567              16.00    -9200.00
04568              12.00    -9200.00
04569               2.00    -9000.00
04570               4.00    -8800.00
04571              18.00    -8600.00
04572              26.00    -8600.00
04573              24.00    -8400.00
04574               8.00    -8400.00
04575              -2.00    -8000.00
04576               2.00    -7800.00
04577              16.00    -7800.00
04578              22.00    -7400.00
04579              16.00    -7400.00
04580               6.00    -7200.00
04581               2.00    -7000.00
04582              10.00    -7000.00
04583              18.00    -7000.00
04584              16.00    -6400.00
04585               8.00    -6400.00
04586               4.00    -6200.00
04587               6.00    -6200.00
04588              14.00    -6000.00
04589              10.00    -5600.00
04590               6.00    -5600.00
04591               0.00    -5400.00
04592               6.00    -5200.00
04593              12.00    -5000.00
04594              16.00    -4800.00
04595               8.00    -4800.00
04596              -6.00    -4400.00
04597              -2.00    -4200.00
04598               8.00    -4000.00
04599              14.00    -3800.00
04600               8.00    -3600.00
04601              -2.00    -3600.00
04602              -4.00    -3200.00
04603               2.00    -3000.00
04604              10.00    -3000.00
04605               8.00    -2800.00
04606               0.00    -2400.00
04607               0.00    -2400.00
04608               0.00    -2200.00
04609               0.00    -2200.00
04610               2.00    -2000.00
04611               0.00    -1600.00
04612               0.00    -1400.00
04613               2.00    -1000.00
04614               0.00    -1000.00
04615              -2.00     -800.00
04616              -4.00     -600.00
04617               0.00     -400.00
04618               2.00        0.00
04619               0.00        0.00
04620               0.00      200.00
04621              -2.00      400.00
04622              14.00      400.00
04623              34.00      800.00
04624              10.00     1000.00
04625             -22.00     1000.00
04626             -22.00     1200.00
04627               8.00     1600.00
04628              38.00     1800.00
04629             214.00     2000.00
04630             246.00     2400.00
04631            -254.00     2400.00
04632            -254.00     2600.00
04633            -248.00     2800.00
04634             190.00     2800.00
04635             246.00     3400.00
04636             246.00     3600.00
04637            -254.00     3200.00
04638            -242.00     3600.00
04639             246.00     4000.00
04640              50.00     4000.00
04641             102.00     4400.00
04642            -254.00     4400.00
04643            -136.00     4400.00
04644             246.00     4800.00
04645             -74.00     5200.00
04646            -134.00     5400.00
04647             -74.00     5600.00
04648              64.00     5800.00
04649             116.00     5600.00
04650             -38.00     6000.00
04651             -86.00     6200.00
04652            -136.00     6200.00
04653             142.00     6600.00
04654              32.00     6600.00
04655             -86.00     6800.00
04656             -10.00     7200.00
04657             -64.00     7000.00
04658              50.00     7400.00
04659              -6.00     7400.00
04660             -58.00     8000.00
04661             -24.00     7600.00
04662              32.00     8200.00
04663             -22.00     8200.00
04664             -40.00     8200.00
04665             -16.00     8400.00
04666             -34.00     8600.00
04667              14.00     9000.00
04668             -26.00     9000.00
04669             -46.00     9000.00
04670             -22.00     9200.00
04671              26.00     9400.00
04672             -16.00     9600.00
04673             -22.00     9600.00
04674             -48.00     9800.00
04675             -58.00     9800.00
04676               2.00    10000.00
04677               0.00    10200.00
04678               6.00    10200.00
04679             -16.00    10400.00
04680             -56.00    10400.00
04681             -64.00    10400.00
04682              -2.00    10800.00
04683              14.00    10800.00
04684              -6.00    10800.00
04685             -34.00    11200.00
04686             -62.00    11000.00
04687             -34.00    11200.00
04688               6.00    11400.00
04689              -8.00    11400.00
04690             -26.00    11400.00
04691             -36.00    11400.00
04692             -42.00    11800.00
04693             -22.00    11800.00
04694             -10.00    12000.00
04695             -30.00    12000.00
04696             -26.00    11800.00
04697             -24.00    12000.00
04698             -32.00    12200.00
04699             -24.00    12000.00
04700             -18.00    12200.00
04701             -26.00    12200.00
04702             -32.00    12200.00
04703             -30.00    12200.00
04704             -32.00    12200.00
04705             -22.00    12400.00
04706             -24.00    12400.00
04707             -30.00    12400.00
04708             -24.00    12400.00
04709             -32.00    12400.00
04710             -34.00    12400.00
04711             -24.00    12400.00
04712             -24.00    12600.00
04713             -26.00    12400.00
04714             -32.00    12800.00
04715             -38.00    12400.00
04716             -32.00    12400.00
04717             -16.00    12400.00
04718             -22.00    12400.00
04719             -32.00    12600.00
04720             -32.00    12400.00
04721             -32.00    12400.00
04722             -32.00    12400.00
04723             -26.00    12400.00
04724             -22.00    12400.00
04725             -18.00    12400.00
04726             -30.00    12400.00
04727             -38.00    12400.00
04728             -32.00    12200.00
04729             -20.00    12200.00
04730             -16.00    12200.00
04731             -22.00    12000.00
04732             -26.00    12200.00
04733             -34.00    12000.00
04734             -34.00    12000.00
04735             -26.00    12000.00
04736             -18.00    11800.00
04737             -16.00    11800.00
04738             -24.00    11800.00
04739             -32.00    11600.00
04740             -32.00    11800.00
04741             -26.00    11400.00
04742             -20.00    11400.00
04743             -22.00    11400.00
04744             -24.00    11200.00
04745             -26.00    11200.00
04746             -26.00    11200.00
04747             -26.00    10800.00
04748             -24.00    10800.00
04749             -24.00    10800.00
04750             -20.00    10600.00
04751             -22.00    10400.00
04752             -24.00    10400.00
04753             -26.00    10400.00
04754             -30.00    10000.00
04755             -26.00    10000.00
04756             -22.00     9800.00
04757             -18.00     9600.00
04758             -18.00     9600.00
04759             -24.00     9600.00
04760             -30.00     9600.00
04761             -24.00     9200.00
04762             -16.00     9200.00
04763             -18.00     9000.00
04764             -22.00     8800.00
04765             -26.00     8600.00
04766             -24.00     8400.00
04767             -22.00     8400.00
04768             -22.00     8200.00
04769             -18.00     8000.00
04770             -16.00     7800.00
04771             -16.00     7600.00
04772             -18.00     7600.00
04773             -26.00     7600.00
04774             -24.00     7200.00
04775             -18.00     7200.00
04776             -16.00     6800.00
04777             -10.00     6800.00
04778             -14.00     6600.00
04779             -22.00     6400.00
04780             -22.00     6200.00
04781             -18.00     6000.00
04782             -14.00     5800.00
04783             -10.00     5800.00
04784             -14.00     5600.00
04785             -20.00     5400.00
04786             -20.00     5200.00
04787             -18.00     5000.00
04788             -14.00     4800.00
04789              -6.00     4600.00
04790             -10.00     4400.00
04791             -14.00     4200.00
04792             -10.00     4000.00
04793             -14.00     3800.00
04794             -10.00     3600.00
04795             -10.00     3400.00
04796             -10.00     3200.00
04797              -6.00     3200.00
04798              -8.00     2800.00
04799             -10.00     2600.00
04800             -10.00     2400.00
04801             -10.00     2400.00
04802              -8.00     2200.00
04803              -2.00     1800.00
04804              -2.00     1800.00
04805              -8.00     1600.00
04806             -10.00     1400.00
04807              -6.00     1200.00
04808              -6.00     1000.00
04809              -6.00      600.00
04810              -2.00      400.00
04811               2.00      200.00
04812               2.00      200.00
04813               2.00        0.00
04814              22.00     -200.00
04815              26.00     -400.00
04816              -2.00     -600.00
04817             -24.00     -800.00
04818              -8.00    -1000.00
04819              16.00    -1200.00
04820              32.00    -1400.00
04821             126.00    -1400.00
04822             246.00    -2000.00
04823             -30.00    -2400.00
04824            -254.00    -2400.00
04825            -254.00    -2600.00
04826             144.00    -2600.00
04827             246.00    -2600.00
04828             246.00    -2800.00
04829             -32.00    -3600.00
04830            -254.00    -3200.00
04831             108.00    -3800.00
04832             246.00    -3800.00
04833              46.00    -3600.00
04834             -58.00    -4400.00
04835            -178.00    -4000.00
04836             150.00    -4600.00
04837             110.00    -4800.00
04838             -82.00    -4800.00
04839             -88.00    -5200.00
04840             -62.00    -5200.00
04841             200.00    -5600.00
04842              64.00    -5600.00
04843             -92.00    -5800.00
04844             -72.00    -6200.00
04845               8.00    -5800.00
04846             144.00    -6600.00
04847               8.00    -6400.00
04848             -42.00    -6800.00
04849             -36.00    -7000.00
04850              40.00    -6800.00
04851              64.00    -7200.00
04852             -30.00    -7200.00
04853               8.00    -7600.00
04854               8.00    -7600.00
04855              38.00    -7800.00
04856              32.00    -8000.00
04857             -26.00    -8400.00
04858              16.00    -8200.00
04859              30.00    -8400.00
04860              10.00    -8600.00
04861               6.00    -8800.00
04862              14.00    -8800.00
04863              18.00    -9200.00
04864              24.00    -9200.00
04865              16.00    -9200.00
04866               0.00    -9400.00
04867              16.00    -9400.00
04868              24.00    -9600.00
04869              14.00    -9600.00
04870              26.00   -10000.00
04871              16.00   -10000.00
04872               8.00   -10000.00
04873              14.00   -10200.00
04874              14.00   -10200.00
04875              28.00   -10400.00
04876              36.00   -10400.00
04877              16.00   -10800.00
04878               2.00   -10800.00
04879              10.00   -11000.00
04880              18.00   -11000.00
04881              30.00   -11200.00
04882              30.00   -11200.00
04883              14.00   -11200.00
04884              12.00   -11200.00
04885              20.00   -11200.00
04886              14.00   -11400.00
04887              18.00   -11400.00
04888              22.00   -11600.00
04889              22.00   -11600.00
04890              26.00   -11800.00
04891              16.00   -11600.00
04892              10.00   -11800.00
04893              16.00   -12000.00
04894              18.00   -11800.00
04895              24.00   -12000.00
04896              30.00   -11800.00
04897              22.00   -12000.00
04898              14.00   -12000.00
04899              14.00   -12000.00
04900              16.00   -12000.00
04901              22.00   -12000.00
04902              30.00   -12000.00
04903              22.00   -12000.00
04904              16.00   -12200.00
04905              16.00   -12000.00
04906              14.00   -12000.00
04907              20.00   -12000.00
04908              28.00   -12000.00
04909              22.00   -12200.00
04910              18.00   -12200.00
04911              18.00   -12000.00
04912              22.00   -12000.00
04913              18.00   -12000.00
04914              18.00   -12000.00
04915              14.00   -12000.00
04916              22.00   -12000.00
04917              26.00   -12000.00
04918              24.00   -12000.00
04919              22.00   -12000.00
04920              16.00   -12000.00
04921              16.00   -12000.00
04922              18.00   -11800.00
04923              26.00   -11800.00
04924              24.00   -11800.00
04925              22.00   -11600.00
04926              14.00   -11600.00
04927              16.00   -11600.00
04928              22.00   -11400.00
04929              26.00   -11200.00
04930              20.00   -11200.00
04931              16.00   -11200.00
04932              16.00   -11200.00
04933              18.00   -11200.00
04934              18.00   -11000.00
04935              22.00   -11000.00
04936              24.00   -10800.00
04937              18.00   -10800.00
04938              14.00   -10600.00
04939              14.00   -10400.00
04940              18.00   -10400.00
04941              30.00   -10200.00
04942              26.00   -10200.00
04943              14.00   -10200.00
04944               6.00   -10000.00
04945               8.00    -9800.00
04946              18.00    -9600.00
04947              24.00    -9600.00
04948              18.00    -9600.00
04949              10.00    -9400.00
04950               8.00    -9200.00
04951              10.00    -9200.00
04952              18.00    -9000.00
04953              16.00    -8800.00
04954              12.00    -8800.00
04955              14.00    -8600.00
04956              10.00    -8400.00
04957              14.00    -8400.00
04958              14.00    -8000.00
04959               8.00    -8000.00
04960               6.00    -7800.00
04961              12.00    -7800.00
04962              14.00    -7400.00
04963              16.00    -7200.00
04964              10.00    -7200.00
04965               6.00    -7200.00
04966               6.00    -6800.00
04967              10.00    -6800.00
04968              14.00    -6600.00
04969              10.00    -6400.00
04970               8.00    -6400.00
04971               6.00    -6000.00
04972              10.00    -6000.00
04973               6.00    -5600.00
04974               6.00    -5400.00
04975               8.00    -5200.00
04976               8.00    -5000.00
04977              10.00    -4800.00
04978               8.00    -4800.00
04979               6.00    -4600.00
04980               2.00    -4400.00
04981               6.00    -4000.00
04982               8.00    -4000.00
04983               8.00    -3800.00
04984               6.00    -3800.00
04985               0.00    -3400.00
04986               2.00    -3200.00
04987               2.00    -3000.00
04988               6.00    -2800.00
04989               6.00    -2800.00
04990               2.00    -2400.00
04991               2.00    -2200.00
04992              -2.00    -2000.00
04993               0.00    -2000.00
04994               0.00    -1600.00
04995               6.00    -1600.00
04996               2.00    -1400.00
04997               0.00    -1000.00
04998               0.00     -800.00
04999               0.00     -800.00
05000              -4.00     -400.00
