Unit:(mV)
                     CH1         CH2
Frequency              ? 300.131 kHz
00001              22.80    -5600.00
00002               9.60    -7200.00
00003             -25.00    -8000.00
00004              -5.20    -8000.00
00005              25.00    -9600.00
00006             -22.60    -9600.00
00007             -25.00    -8800.00
00008              25.00    -9600.00
00009              13.60   -10400.00
00010             -25.00   -10400.00
00011              25.00   -12000.00
00012              -5.20   -11200.00
00013             -25.00   -12800.00
00014              25.00   -13600.00
00015             -19.80   -13600.00
00016              22.00   -14400.00
00017             -17.80   -14400.00
00018              -7.60   -16000.00
00019              25.00   -16000.00
00020             -25.00   -16000.00
00021              -6.00   -17600.00
00022              25.00   -17600.00
00023             -13.00   -18400.00
00024             -22.20   -19200.00
00025              25.00   -18400.00
00026              -5.00   -20000.00
00027             -19.00   -20800.00
00028              25.00   -20800.00
00029              -7.20   -21600.00
00030              -5.00   -22400.00
00031              11.00   -22400.00
00032              -7.00   -23200.00
00033               1.00   -23200.00
00034               7.40   -23200.00
00035              -3.00   -24000.00
00036               3.40   -24800.00
00037               7.60   -25600.00
00038              -9.80   -25600.00
00039               8.20   -25600.00
00040               3.40   -26400.00
00041              -6.20   -26400.00
00042               8.60   -27200.00
00043               2.20   -27200.00
00044              -2.60   -27200.00
00045               4.20   -27200.00
00046               3.40   -28800.00
00047              -1.40   -28800.00
00048               4.60   -28800.00
00049               2.80   -29600.00
00050              -1.20   -29600.00
00051               4.20   -30400.00
00052               1.40   -30400.00
00053               0.40   -29600.00
00054               4.60   -30400.00
00055               1.20   -31200.00
00056               1.00   -31200.00
00057               3.60   -32000.00
00058               0.40   -32000.00
00059               2.00   -32000.00
00060               3.00   -32000.00
00061               1.80   -32000.00
00062               2.80   -32800.00
00063               2.00   -32800.00
00064               1.80   -32800.00
00065               1.40   -32800.00
00066               2.20   -32800.00
00067               2.20   -33600.00
00068               1.40   -32800.00
00069               2.80   -33600.00
00070               2.00   -32800.00
00071               2.00   -32800.00
00072               2.00   -33600.00
00073               1.80   -32800.00
00074               2.80   -33600.00
00075               1.40   -33600.00
00076               2.20   -33600.00
00077               2.60   -32800.00
00078               1.00   -32800.00
00079               2.00   -32800.00
00080               2.20   -32800.00
00081               2.00   -33600.00
00082               1.40   -32800.00
00083               1.20   -32800.00
00084               2.60   -32800.00
00085               2.00   -32800.00
00086               0.40   -32800.00
00087               2.00   -32000.00
00088               3.00   -32000.00
00089               1.80   -32000.00
00090               0.60   -32000.00
00091               1.80   -32000.00
00092               2.60   -32000.00
00093               1.00   -31200.00
00094               1.00   -31200.00
00095               4.20   -31200.00
00096               0.60   -30400.00
00097               1.00   -29600.00
00098               3.80   -29600.00
00099              -0.20   -29600.00
00100              -0.40   -29600.00
00101               3.80   -28800.00
00102               1.20   -28800.00
00103               0.40   -28800.00
00104               3.60   -28000.00
00105               1.00   -27200.00
00106               0.40   -27200.00
00107               2.80   -27200.00
00108               0.40   -26400.00
00109               1.40   -26400.00
00110               2.00   -25600.00
00111               0.60   -25600.00
00112               1.00   -25600.00
00113               1.80   -24000.00
00114               1.20   -24000.00
00115               1.40   -24000.00
00116               1.40   -23200.00
00117               0.40   -23200.00
00118               1.00   -23200.00
00119               1.20   -21600.00
00120               0.60   -21600.00
00121               2.20   -20800.00
00122               1.40   -20000.00
00123               0.40   -20000.00
00124               1.40   -19200.00
00125               1.00   -19200.00
00126               0.20   -18400.00
00127               0.60   -17600.00
00128               1.20   -17600.00
00129               1.00   -16800.00
00130               0.40   -16000.00
00131               1.20   -15200.00
00132               0.20   -16000.00
00133              -0.20   -14400.00
00134               1.00   -14400.00
00135               0.60   -13600.00
00136              -0.20   -12800.00
00137               0.40   -12800.00
00138               0.80   -12000.00
00139               0.60   -11200.00
00140              -0.20   -10400.00
00141               0.20   -10400.00
00142               0.20    -9600.00
00143              -0.20    -8800.00
00144              -0.20    -8000.00
00145               0.00    -8000.00
00146              -0.20    -7200.00
00147              -0.20    -6400.00
00148              -0.20    -5600.00
00149               0.20    -5600.00
00150               0.20    -4000.00
00151              -0.40    -4000.00
00152              -0.40    -3200.00
00153              -0.40    -2400.00
00154              -0.40    -1600.00
00155              -0.20    -1600.00
00156              -0.20        0.00
00157              -0.60        0.00
00158              -0.40        0.00
00159               0.20      800.00
00160               1.40     1600.00
00161               1.60     2400.00
00162              -2.60     2400.00
00163              -0.40     3200.00
00164               1.00     3200.00
00165              -1.40     4800.00
00166               3.40     4800.00
00167              24.20     7200.00
00168              15.00     7200.00
00169             -25.00     8000.00
00170              -5.40     8000.00
00171              25.00     8800.00
00172             -25.00     8000.00
00173             -10.80     9600.00
00174              25.00    11200.00
00175             -25.00    10400.00
00176              12.20    11200.00
00177              25.00    12000.00
00178             -25.00    12800.00
00179              25.00    12800.00
00180             -25.00    12800.00
00181               1.80    14400.00
00182              25.00    14400.00
00183             -25.00    15200.00
00184              25.00    16000.00
00185              25.00    16000.00
00186             -25.00    16800.00
00187              25.00    17600.00
00188              17.20    18400.00
00189             -25.00    18400.00
00190               3.80    19200.00
00191              25.00    20000.00
00192             -25.00    20000.00
00193              13.80    20800.00
00194              14.60    21600.00
00195             -22.80    21600.00
00196              20.80    23200.00
00197             -15.00    22400.00
00198              -3.80    24000.00
00199               8.80    24000.00
00200             -10.60    24000.00
00201              -5.60    24800.00
00202              15.00    24800.00
00203             -15.80    25600.00
00204              -5.80    25600.00
00205              15.40    25600.00
00206             -17.20    27200.00
00207               2.20    27200.00
00208               6.60    27200.00
00209              -9.40    28000.00
00210              -2.60    28000.00
00211               1.20    28800.00
00212              -6.60    28800.00
00213              -3.40    28800.00
00214               2.00    29600.00
00215              -4.40    30400.00
00216              -2.00    30400.00
00217               0.20    30400.00
00218              -5.40    31200.00
00219              -1.40    31200.00
00220              -1.00    31200.00
00221              -6.20    31200.00
00222              -0.20    32000.00
00223              -2.80    32800.00
00224              -3.80    32800.00
00225              -0.20    32800.00
00226              -2.80    32000.00
00227              -2.20    32800.00
00228              -1.80    33600.00
00229              -3.00    33600.00
00230              -4.60    33600.00
00231              -3.00    33600.00
00232              -1.20    33600.00
00233              -3.00    33600.00
00234              -1.20    33600.00
00235              -2.00    33600.00
00236              -3.80    33600.00
00237              -1.20    33600.00
00238              -4.40    33600.00
00239              -3.40    33600.00
00240              -2.00    34400.00
00241              -3.20    33600.00
00242              -0.60    33600.00
00243              -2.80    34400.00
00244              -2.60    33600.00
00245              -2.00    33600.00
00246              -2.80    33600.00
00247              -2.60    33600.00
00248              -3.60    33600.00
00249              -2.20    33600.00
00250              -2.00    33600.00
00251              -2.20    33600.00
00252              -2.00    33600.00
00253              -2.80    33600.00
00254              -2.00    32800.00
00255              -2.80    32000.00
00256              -3.00    32800.00
00257              -2.20    32800.00
00258              -2.80    32000.00
00259              -1.80    32000.00
00260              -1.80    32000.00
00261              -2.40    32000.00
00262              -2.00    31200.00
00263              -2.20    32000.00
00264              -2.40    30400.00
00265              -2.20    31200.00
00266              -2.60    30400.00
00267              -2.20    29600.00
00268              -2.40    30400.00
00269              -2.00    29600.00
00270              -2.20    28800.00
00271              -2.40    28800.00
00272              -2.00    28000.00
00273              -2.60    28000.00
00274              -2.00    27200.00
00275              -2.00    27200.00
00276              -2.60    27200.00
00277              -1.80    26400.00
00278              -2.00    25600.00
00279              -1.80    25600.00
00280              -2.20    24800.00
00281              -2.80    24800.00
00282              -2.20    24000.00
00283              -2.00    24000.00
00284              -1.80    24000.00
00285              -2.00    22400.00
00286              -1.80    22400.00
00287              -1.40    22400.00
00288              -2.20    21600.00
00289              -2.00    21600.00
00290              -2.20    19200.00
00291              -1.80    20000.00
00292              -1.00    19200.00
00293              -2.00    18400.00
00294              -1.80    17600.00
00295              -1.80    17600.00
00296              -1.40    17600.00
00297              -1.00    16800.00
00298              -1.80    16000.00
00299              -1.40    15200.00
00300              -1.20    15200.00
00301              -1.40    15200.00
00302              -1.40    13600.00
00303              -1.80    12800.00
00304              -0.60    12800.00
00305              -1.20    12000.00
00306              -1.00    11200.00
00307              -1.20    11200.00
00308              -1.80    11200.00
00309              -0.60     9600.00
00310              -0.40     9600.00
00311              -1.20     8000.00
00312              -0.20     8000.00
00313              -1.00     8000.00
00314              -1.00     6400.00
00315              -0.40     6400.00
00316              -1.00     4800.00
00317              -0.60     5600.00
00318              -0.40     4000.00
00319              -0.60     3200.00
00320               0.00     3200.00
00321              -0.60     2400.00
00322              -1.20     1600.00
00323               0.60     1600.00
00324               0.40        0.00
00325              -0.60        0.00
00326               1.40     -800.00
00327               5.00     -800.00
00328              -1.80    -1600.00
00329              -0.40    -1600.00
00330               3.00    -3200.00
00331               0.40    -3200.00
00332              -0.80    -4000.00
00333               5.40    -4000.00
00334              19.00    -5600.00
00335              18.60    -7200.00
00336             -25.00    -8000.00
00337             -16.80    -8000.00
00338              25.00    -8800.00
00339             -10.40    -9600.00
00340             -25.00    -8800.00
00341              25.00    -9600.00
00342              25.00   -10400.00
00343             -25.00   -10400.00
00344              25.00   -12000.00
00345              21.00   -12000.00
00346             -25.00   -12000.00
00347              25.00   -13600.00
00348             -17.20   -13600.00
00349              15.20   -14400.00
00350              -2.20   -14400.00
00351             -23.20   -16000.00
00352              25.00   -16000.00
00353             -18.20   -16800.00
00354             -18.20   -17600.00
00355              25.00   -17600.00
00356              -2.40   -17600.00
00357             -25.00   -18400.00
00358              22.60   -19200.00
00359               8.40   -19200.00
00360             -25.00   -20800.00
00361              25.00   -20800.00
00362               0.60   -21600.00
00363              -9.40   -21600.00
00364              12.20   -22400.00
00365              -5.60   -22400.00
00366              -0.20   -23200.00
00367               7.20   -24000.00
00368              -2.20   -24000.00
00369               1.40   -24000.00
00370              11.20   -25600.00
00371              -9.80   -25600.00
00372               4.60   -25600.00
00373               7.80   -26400.00
00374              -8.60   -26400.00
00375               6.80   -26400.00
00376               4.80   -27200.00
00377              -2.80   -27200.00
00378               2.60   -28000.00
00379               4.60   -28800.00
00380              -1.40   -28800.00
00381               2.80   -28800.00
00382               3.60   -28800.00
00383              -0.80   -29600.00
00384               3.40   -29600.00
00385               2.20   -29600.00
00386              -0.20   -30400.00
00387               4.40   -30400.00
00388               1.80   -30400.00
00389               0.60   -30400.00
00390               4.20   -31200.00
00391               0.60   -32000.00
00392               1.00   -32000.00
00393               3.60   -32000.00
00394               1.40   -32000.00
00395               2.80   -32000.00
00396               2.60   -32000.00
00397               1.40   -32800.00
00398               1.20   -32800.00
00399               2.20   -32800.00
00400               2.20   -33600.00
00401               1.40   -32800.00
00402               2.80   -32800.00
00403               1.80   -32800.00
00404               2.00   -33600.00
00405               2.00   -32800.00
00406               1.20   -33600.00
00407               3.00   -33600.00
00408               1.40   -33600.00
00409               1.80   -32800.00
00410               2.80   -33600.00
00411               1.00   -32800.00
00412               2.00   -32800.00
00413               2.20   -32800.00
00414               1.60   -32800.00
00415               1.80   -32800.00
00416               2.00   -32800.00
00417               2.20   -33600.00
00418               1.20   -32000.00
00419               2.00   -32800.00
00420               2.00   -32000.00
00421               1.80   -32800.00
00422               2.20   -32800.00
00423               1.40   -32000.00
00424               2.00   -32000.00
00425               1.80   -32000.00
00426               1.20   -31200.00
00427               1.80   -31200.00
00428               1.80   -30400.00
00429               2.00   -30400.00
00430               2.60   -30400.00
00431               1.60   -29600.00
00432               1.40   -29600.00
00433               1.80   -29600.00
00434               1.40   -28800.00
00435               1.80   -28800.00
00436               1.80   -28800.00
00437               1.40   -28000.00
00438               1.00   -27200.00
00439               1.40   -27200.00
00440               1.80   -26400.00
00441               1.20   -26400.00
00442               1.60   -26400.00
00443               1.40   -25600.00
00444               1.40   -25600.00
00445               1.40   -24800.00
00446               1.40   -24000.00
00447               1.20   -24000.00
00448               1.20   -24000.00
00449               1.20   -23200.00
00450               1.20   -23200.00
00451               1.00   -22400.00
00452               1.20   -22400.00
00453               1.00   -21600.00
00454               1.00   -20800.00
00455               1.20   -20800.00
00456               0.40   -20000.00
00457               1.00   -19200.00
00458               1.40   -18400.00
00459               0.80   -18400.00
00460               1.00   -17600.00
00461               0.60   -16800.00
00462               1.00   -17600.00
00463               0.60   -16800.00
00464               0.60   -16000.00
00465               0.40   -15200.00
00466               0.60   -15200.00
00467               1.00   -14400.00
00468               0.20   -13600.00
00469               0.20   -12800.00
00470               0.40   -12800.00
00471               0.20   -11200.00
00472               0.40   -11200.00
00473               0.20   -10400.00
00474               0.00   -10400.00
00475               0.40    -9600.00
00476               0.00    -9600.00
00477              -0.40    -8800.00
00478               0.20    -7200.00
00479               0.20    -7200.00
00480              -0.40    -6400.00
00481               0.20    -5600.00
00482              -0.60    -4800.00
00483              -0.40    -4800.00
00484              -0.20    -4000.00
00485              -0.60    -3200.00
00486              -0.40    -3200.00
00487              -0.20    -1600.00
00488              -0.60    -1600.00
00489              -0.40    -1600.00
00490              -0.40        0.00
00491              -0.60      800.00
00492               0.20      800.00
00493               1.00     1600.00
00494               2.60     2400.00
00495              -2.80     2400.00
00496              -0.40     3200.00
00497               1.00     3200.00
00498              -1.20     4000.00
00499               1.40     5600.00
00500              18.40     6400.00
00501              25.00     7200.00
00502             -25.00     8000.00
00503             -20.20     8000.00
00504              25.00     8800.00
00505             -18.80     8800.00
00506             -25.00     9600.00
00507              25.00    10400.00
00508             -25.00    10400.00
00509             -23.40    12000.00
00510              25.00    12000.00
00511             -25.00    12000.00
00512              25.00    13600.00
00513              -4.40    12800.00
00514             -25.00    14400.00
00515              25.00    14400.00
00516             -25.00    15200.00
00517              22.80    16000.00
00518              25.00    16800.00
00519             -25.00    17600.00
00520              25.00    17600.00
00521              25.00    18400.00
00522             -25.00    18400.00
00523              -9.00    19200.00
00524              25.00    19200.00
00525             -25.00    20800.00
00526              -0.60    21600.00
00527              25.00    21600.00
00528             -25.00    22400.00
00529              16.00    22400.00
00530              -8.60    23200.00
00531             -11.80    23200.00
00532              10.60    24000.00
00533              -7.40    24000.00
00534              -7.60    24800.00
00535              15.00    25600.00
00536              -9.20    25600.00
00537             -12.40    25600.00
00538              16.40    27200.00
00539             -15.80    26400.00
00540              -2.80    27200.00
00541              10.20    27200.00
00542             -10.00    28000.00
00543              -3.40    28000.00
00544               4.20    28800.00
00545              -6.60    28800.00
00546              -5.20    28800.00
00547               3.40    29600.00
00548              -5.20    30400.00
00549              -3.40    30400.00
00550               1.20    30400.00
00551              -5.20    31200.00
00552              -1.80    31200.00
00553               0.60    31200.00
00554              -7.00    32000.00
00555               0.40    32000.00
00556              -1.60    32000.00
00557              -5.40    32800.00
00558               0.40    32800.00
00559              -3.80    32800.00
00560              -3.40    33600.00
00561               0.20    33600.00
00562              -3.20    33600.00
00563              -4.20    33600.00
00564              -2.20    33600.00
00565              -2.20    33600.00
00566              -3.00    33600.00
00567              -1.80    33600.00
00568              -1.80    34400.00
00569              -3.40    34400.00
00570              -1.20    33600.00
00571              -3.60    33600.00
00572              -3.00    34400.00
00573              -1.40    33600.00
00574              -3.80    34400.00
00575              -0.80    33600.00
00576              -2.80    34400.00
00577              -3.60    34400.00
00578              -1.40    33600.00
00579              -2.40    33600.00
00580              -2.60    34400.00
00581              -3.00    33600.00
00582              -2.60    33600.00
00583              -2.20    33600.00
00584              -2.60    33600.00
00585              -2.00    32800.00
00586              -2.80    33600.00
00587              -1.80    33600.00
00588              -2.60    32800.00
00589              -2.60    32800.00
00590              -2.20    32800.00
00591              -3.40    32000.00
00592              -2.00    32000.00
00593              -2.00    32800.00
00594              -2.80    31200.00
00595              -2.00    31200.00
00596              -2.20    31200.00
00597              -2.40    31200.00
00598              -2.00    30400.00
00599              -2.40    30400.00
00600              -2.80    30400.00
00601              -2.20    30400.00
00602              -2.00    28800.00
00603              -2.20    28800.00
00604              -2.20    28800.00
00605              -2.20    28000.00
00606              -2.40    28000.00
00607              -2.00    27200.00
00608              -2.60    27200.00
00609              -2.60    27200.00
00610              -2.00    26400.00
00611              -2.00    25600.00
00612              -2.00    25600.00
00613              -2.00    24800.00
00614              -2.20    24800.00
00615              -1.80    24800.00
00616              -2.00    24000.00
00617              -2.20    23200.00
00618              -1.80    23200.00
00619              -2.00    22400.00
00620              -1.40    21600.00
00621              -1.80    21600.00
00622              -2.00    21600.00
00623              -1.80    20800.00
00624              -1.80    20000.00
00625              -1.20    19200.00
00626              -2.00    19200.00
00627              -1.80    18400.00
00628              -1.60    17600.00
00629              -1.40    17600.00
00630              -1.00    16000.00
00631              -1.20    16000.00
00632              -1.40    15200.00
00633              -1.20    15200.00
00634              -1.20    14400.00
00635              -1.20    14400.00
00636              -1.80    13600.00
00637              -1.00    12800.00
00638              -1.00    12000.00
00639              -1.20    11200.00
00640              -0.60    11200.00
00641              -1.80    10400.00
00642              -0.60     9600.00
00643              -0.40     8800.00
00644              -1.80     8800.00
00645              -0.40     8000.00
00646              -0.60     8000.00
00647              -0.60     6400.00
00648              -0.60     7200.00
00649              -0.60     5600.00
00650              -0.60     4800.00
00651              -0.60     4000.00
00652              -0.60     4000.00
00653              -0.40     2400.00
00654              -0.60     1600.00
00655              -1.00     1600.00
00656              -0.20     1600.00
00657               0.40        0.00
00658               0.20        0.00
00659               1.00     -800.00
00660               4.20     -800.00
00661              -0.40    -1600.00
00662              -1.20    -2400.00
00663               2.00    -3200.00
00664               1.00    -3200.00
00665              -0.60    -3200.00
00666               3.60    -4800.00
00667              14.80    -5600.00
00668              25.00    -7200.00
00669             -25.00    -8000.00
00670             -25.00    -8000.00
00671              25.00    -8000.00
00672               2.20    -8800.00
00673             -25.00    -9600.00
00674              25.00    -9600.00
00675              25.00   -10400.00
00676             -25.00   -10400.00
00677              25.00   -11200.00
00678              25.00   -11200.00
00679             -25.00   -12000.00
00680              25.00   -13600.00
00681              -4.40   -13600.00
00682               3.80   -14400.00
00683               9.80   -14400.00
00684             -25.00   -15200.00
00685              25.00   -16000.00
00686              -4.40   -16800.00
00687             -25.00   -16800.00
00688              25.00   -17600.00
00689               7.80   -17600.00
00690             -25.00   -19200.00
00691              13.80   -18400.00
00692              20.20   -20000.00
00693             -25.00   -20000.00
00694              19.40   -20800.00
00695              10.60   -21600.00
00696             -15.00   -21600.00
00697              11.60   -22400.00
00698              -1.40   -22400.00
00699              -4.20   -23200.00
00700               6.60   -24000.00
00701               1.40   -24000.00
00702              -2.00   -24000.00
00703              11.00   -25600.00
00704              -6.00   -25600.00
00705               0.60   -25600.00
00706               9.20   -25600.00
00707              -7.60   -26400.00
00708               5.20   -26400.00
00709               5.80   -27200.00
00710              -2.20   -28000.00
00711               1.80   -28000.00
00712               5.20   -27200.00
00713              -1.20   -28800.00
00714               2.00   -28800.00
00715               4.40   -29600.00
00716              -1.00   -29600.00
00717               2.60   -29600.00
00718               2.80   -29600.00
00719              -0.40   -30400.00
00720               3.60   -31200.00
00721               3.40   -31200.00
00722              -0.20   -31200.00
00723               3.80   -32000.00
00724               1.20   -32000.00
00725               0.80   -32000.00
00726               3.00   -32000.00
00727               1.80   -32000.00
00728               2.60   -32800.00
00729               2.20   -32800.00
00730               1.40   -32800.00
00731               1.40   -32800.00
00732               2.00   -32000.00
00733               2.00   -32800.00
00734               1.40   -33600.00
00735               2.60   -32800.00
00736               1.80   -33600.00
00737               1.80   -33600.00
00738               2.80   -32800.00
00739               1.00   -33600.00
00740               2.40   -33600.00
00741               2.40   -32800.00
00742               1.40   -33600.00
00743               2.40   -33600.00
00744               1.20   -32800.00
00745               2.00   -32800.00
00746               2.20   -33600.00
00747               1.80   -32800.00
00748               1.80   -32800.00
00749               2.00   -32800.00
00750               2.60   -32800.00
00751               1.20   -32800.00
00752               1.80   -32800.00
00753               2.00   -32800.00
00754               1.80   -32000.00
00755               2.20   -32000.00
00756               1.40   -32000.00
00757               1.80   -32000.00
00758               2.20   -32000.00
00759               1.20   -31200.00
00760               1.80   -31200.00
00761               2.20   -30400.00
00762               1.20   -30400.00
00763               2.00   -29600.00
00764               1.60   -29600.00
00765               1.40   -29600.00
00766               2.00   -29600.00
00767               2.00   -28800.00
00768               1.80   -28800.00
00769               1.40   -28800.00
00770               1.80   -28000.00
00771               1.00   -28000.00
00772               1.80   -27200.00
00773               2.20   -27200.00
00774               1.00   -27200.00
00775               1.80   -26400.00
00776               1.40   -25600.00
00777               1.00   -25600.00
00778               1.80   -25600.00
00779               1.80   -24000.00
00780               1.20   -24000.00
00781               1.40   -24000.00
00782               1.40   -23200.00
00783               1.20   -23200.00
00784               1.00   -22400.00
00785               1.20   -22400.00
00786               1.00   -21600.00
00787               1.20   -20800.00
00788               1.00   -20800.00
00789               0.60   -20000.00
00790               1.00   -20000.00
00791               0.80   -18400.00
00792               1.00   -18400.00
00793               0.40   -17600.00
00794               0.60   -17600.00
00795               1.00   -16800.00
00796               0.20   -16000.00
00797               0.40   -16000.00
00798               0.60   -15200.00
00799               0.60   -14400.00
00800               0.40   -14400.00
00801               0.40   -14400.00
00802               0.40   -12800.00
00803               0.20   -12800.00
00804               0.20   -12000.00
00805               0.40   -11200.00
00806               0.20   -10400.00
00807               0.00   -10400.00
00808               0.40   -10400.00
00809               0.00    -9600.00
00810              -0.40    -8000.00
00811              -0.20    -8000.00
00812              -0.20    -7200.00
00813              -0.20    -7200.00
00814              -0.40    -6400.00
00815               0.20    -4800.00
00816              -0.20    -4800.00
00817              -0.60    -4000.00
00818              -0.20    -3200.00
00819               0.00    -3200.00
00820              -0.40    -1600.00
00821              -0.40    -1600.00
00822              -0.60     -800.00
00823              -0.60        0.00
00824              -0.40        0.00
00825              -0.20      800.00
00826               0.60     1600.00
00827               3.40     1600.00
00828              -2.00     2400.00
00829              -1.00     3200.00
00830               1.20     3200.00
00831              -0.40     4000.00
00832               0.20     4800.00
00833              13.40     5600.00
00834              25.00     7200.00
00835             -25.00     8000.00
00836             -25.00     8000.00
00837              25.00     8800.00
00838              -4.60     8800.00
00839             -25.00     8800.00
00840              25.00    11200.00
00841               0.20    10400.00
00842             -25.00    11200.00
00843              25.00    12000.00
00844             -25.00    12000.00
00845               5.20    12800.00
00846              23.40    12800.00
00847             -25.00    14400.00
00848              25.00    14400.00
00849             -25.00    15200.00
00850             -14.60    16000.00
00851              25.00    16000.00
00852             -25.00    16000.00
00853               8.20    17600.00
00854              25.00    17600.00
00855             -25.00    18400.00
00856             -22.20    19200.00
00857              25.00    20000.00
00858             -20.60    20000.00
00859             -17.00    20800.00
00860              25.00    21600.00
00861             -25.00    22400.00
00862               9.20    22400.00
00863               0.20    23200.00
00864             -18.00    22400.00
00865              11.20    24000.00
00866              -3.00    24000.00
00867             -11.80    24000.00
00868              11.80    24800.00
00869              -1.00    25600.00
00870             -19.80    25600.00
00871              16.40    25600.00
00872              -8.60    27200.00
00873             -10.40    27200.00
00874              11.00    27200.00
00875              -6.60    28000.00
00876              -6.00    28000.00
00877               3.00    28800.00
00878              -3.60    28800.00
00879              -5.60    28800.00
00880               2.80    29600.00
00881              -4.20    30400.00
00882              -4.60    30400.00
00883               1.00    30400.00
00884              -5.00    31200.00
00885              -3.00    31200.00
00886               2.00    32000.00
00887              -6.00    31200.00
00888              -1.00    32000.00
00889              -0.40    32000.00
00890              -6.20    32800.00
00891              -0.40    32800.00
00892              -2.60    32800.00
00893              -4.00    32800.00
00894              -0.40    33600.00
00895              -2.20    33600.00
00896              -3.80    33600.00
00897              -2.20    33600.00
00898              -2.20    33600.00
00899              -2.80    33600.00
00900              -2.20    33600.00
00901              -1.80    33600.00
00902              -3.80    33600.00
00903              -1.00    33600.00
00904              -3.40    34400.00
00905              -2.60    34400.00
00906              -1.20    33600.00
00907              -4.20    33600.00
00908              -1.00    33600.00
00909              -1.60    33600.00
00910              -4.40    33600.00
00911              -1.40    34400.00
00912              -2.00    33600.00
00913              -3.00    33600.00
00914              -2.00    34400.00
00915              -2.40    34400.00
00916              -3.00    33600.00
00917              -2.00    33600.00
00918              -2.20    32800.00
00919              -3.40    33600.00
00920              -2.00    33600.00
00921              -2.20    32800.00
00922              -3.00    32000.00
00923              -1.40    33600.00
00924              -3.20    32000.00
00925              -2.60    32000.00
00926              -1.40    32000.00
00927              -3.00    31200.00
00928              -2.20    31200.00
00929              -2.00    31200.00
00930              -2.60    31200.00
00931              -2.20    30400.00
00932              -2.60    30400.00
00933              -2.80    30400.00
00934              -2.60    29600.00
00935              -2.00    29600.00
00936              -2.40    28800.00
00937              -2.20    28800.00
00938              -2.00    28000.00
00939              -2.40    28000.00
00940              -1.80    27200.00
00941              -2.00    27200.00
00942              -2.80    27200.00
00943              -1.80    26400.00
00944              -2.20    25600.00
00945              -2.20    25600.00
00946              -1.80    25600.00
00947              -2.60    24800.00
00948              -2.00    24000.00
00949              -1.40    24000.00
00950              -2.00    24000.00
00951              -1.40    23200.00
00952              -2.00    22400.00
00953              -1.20    22400.00
00954              -1.60    21600.00
00955              -1.80    20800.00
00956              -1.80    20800.00
00957              -1.80    20000.00
00958              -1.40    19200.00
00959              -1.40    19200.00
00960              -1.80    18400.00
00961              -1.40    17600.00
00962              -1.40    17600.00
00963              -1.20    16800.00
00964              -1.80    16000.00
00965              -1.00    16000.00
00966              -1.20    15200.00
00967              -1.40    14400.00
00968              -1.00    14400.00
00969              -1.40    13600.00
00970              -1.40    12800.00
00971              -0.60    12000.00
00972              -1.00    11200.00
00973              -1.20    11200.00
00974              -1.20    10400.00
00975              -0.60     9600.00
00976              -1.00     9600.00
00977              -1.40     8800.00
00978              -0.60     8000.00
00979              -1.00     7200.00
00980              -0.60     7200.00
00981              -0.40     6400.00
00982              -0.60     5600.00
00983              -0.60     4800.00
00984              -0.60     4800.00
00985              -0.60     3200.00
00986              -0.40     3200.00
00987              -0.60     2400.00
00988              -1.20     1600.00
00989              -0.40      800.00
00990              -0.20      800.00
00991              -0.20        0.00
00992               0.40     -800.00
00993               3.40     -800.00
00994               0.60    -1600.00
00995              -1.40    -1600.00
00996               1.80    -3200.00
00997               1.20    -3200.00
00998              -0.60    -4000.00
00999               2.20    -4000.00
01000              11.80    -4800.00
01001              25.00    -6400.00
01002             -23.40    -7200.00
01003             -25.00    -8000.00
01004              20.20    -8000.00
01005              13.00    -8800.00
01006             -25.00    -8800.00
01007               7.40    -8800.00
01008              25.00   -10400.00
01009             -25.00   -10400.00
01010              -1.40   -11200.00
01011              25.00   -12000.00
01012             -25.00   -12800.00
01013              13.80   -12800.00
01014               9.60   -13600.00
01015              -6.20   -13600.00
01016              19.60   -14400.00
01017             -25.00   -15200.00
01018              25.00   -16000.00
01019              11.80   -16000.00
01020             -25.00   -16800.00
01021              23.20   -17600.00
01022              18.60   -18400.00
01023             -25.00   -18400.00
01024               2.20   -19200.00
01025              25.00   -20000.00
01026             -25.00   -20000.00
01027               9.20   -20800.00
01028              19.40   -20800.00
01029             -16.20   -21600.00
01030               9.00   -22400.00
01031               2.00   -22400.00
01032              -5.80   -23200.00
01033               6.00   -24000.00
01034               3.60   -24000.00
01035              -3.80   -24000.00
01036              11.00   -24800.00
01037              -2.80   -24800.00
01038              -4.40   -25600.00
01039              11.60   -25600.00
01040              -5.80   -26400.00
01041               1.00   -27200.00
01042               8.40   -27200.00
01043              -1.80   -27200.00
01044              -0.20   -28000.00
01045               6.00   -28000.00
01046               0.20   -28800.00
01047               0.60   -28800.00
01048               5.20   -29600.00
01049               0.00   -29600.00
01050               0.60   -29600.00
01051               4.00   -30400.00
01052              -0.40   -30400.00
01053               2.20   -30400.00
01054               4.20   -30400.00
01055              -0.60   -32000.00
01056               2.80   -31200.00
01057               2.00   -32000.00
01058               0.20   -32000.00
01059               2.60   -32000.00
01060               2.20   -32000.00
01061               2.60   -32000.00
01062               2.60   -32800.00
01063               1.40   -32800.00
01064               1.40   -32800.00
01065               1.80   -32800.00
01066               2.00   -32800.00
01067               1.60   -32800.00
01068               2.00   -33600.00
01069               2.00   -32800.00
01070               1.20   -33600.00
01071               2.60   -33600.00
01072               1.20   -32800.00
01073               2.20   -33600.00
01074               2.80   -33600.00
01075               1.20   -32800.00
01076               2.60   -33600.00
01077               1.60   -32800.00
01078               1.40   -33600.00
01079               2.80   -32800.00
01080               2.00   -33600.00
01081               1.80   -32800.00
01082               2.00   -32800.00
01083               2.20   -32800.00
01084               1.40   -32800.00
01085               2.00   -32800.00
01086               2.00   -32000.00
01087               1.80   -32000.00
01088               2.40   -32000.00
01089               1.20   -32000.00
01090               2.20   -32000.00
01091               2.20   -32000.00
01092               1.00   -31200.00
01093               2.60   -31200.00
01094               2.60   -30400.00
01095               1.20   -30400.00
01096               2.00   -29600.00
01097               2.00   -29600.00
01098               1.40   -29600.00
01099               1.80   -29600.00
01100               1.80   -28800.00
01101               2.20   -28800.00
01102               0.40   -28800.00
01103               1.40   -28800.00
01104               2.60   -28000.00
01105               1.20   -27200.00
01106               1.00   -27200.00
01107               2.80   -26400.00
01108               2.00   -26400.00
01109               0.40   -25600.00
01110               1.40   -26400.00
01111               1.80   -25600.00
01112               1.00   -24800.00
01113               1.40   -24800.00
01114               1.80   -24000.00
01115               1.80   -23200.00
01116               0.60   -23200.00
01117               0.60   -22400.00
01118               1.60   -22400.00
01119               0.60   -21600.00
01120               0.60   -20800.00
01121               1.20   -20800.00
01122               0.20   -20000.00
01123               0.80   -19200.00
01124               1.80   -18400.00
01125               1.00   -18400.00
01126               1.20   -18400.00
01127               0.80   -17600.00
01128              -0.20   -17600.00
01129               0.40   -16800.00
01130               0.60   -16000.00
01131               0.20   -15200.00
01132               1.00   -14400.00
01133               1.40   -14400.00
01134               0.20   -13600.00
01135              -0.20   -13600.00
01136               0.20   -13600.00
01137              -0.60   -12000.00
01138               0.20   -11200.00
01139               0.60   -11200.00
01140               0.60   -10400.00
01141               1.00    -9600.00
01142               0.00    -8800.00
01143              -0.20    -8000.00
01144              -0.40    -8000.00
01145              -1.00    -8000.00
01146              -0.60    -6400.00
01147               0.20    -6400.00
01148               0.20    -5600.00
01149               0.20    -4800.00
01150               0.40    -4000.00
01151               0.20    -4000.00
01152              -0.20    -2400.00
01153              -0.20    -3200.00
01154              -0.60    -1600.00
01155              -0.60    -1600.00
01156              -0.40     -800.00
01157              -0.20        0.00
01158              -0.20     1600.00
01159               0.80      800.00
01160               3.60     2400.00
01161              -1.20     2400.00
01162              -1.80     3200.00
01163               0.40     3200.00
01164              -0.60     3200.00
01165              -1.40     4800.00
01166              10.00     5600.00
01167              25.00     7200.00
01168             -24.40     8000.00
01169             -25.00     8000.00
01170              22.00     8800.00
01171               7.80     8000.00
01172             -25.00     8800.00
01173              25.00    10400.00
01174              25.00    10400.00
01175             -25.00    11200.00
01176              25.00    12000.00
01177             -21.00    12000.00
01178             -23.60    12800.00
01179              25.00    12800.00
01180             -25.00    13600.00
01181              25.00    14400.00
01182             -18.20    15200.00
01183             -25.00    16000.00
01184              25.00    16000.00
01185             -25.00    16800.00
01186             -14.80    16800.00
01187              25.00    17600.00
01188             -18.80    18400.00
01189             -25.00    19200.00
01190              25.00    19200.00
01191              -3.60    20800.00
01192             -25.00    20800.00
01193              25.00    21600.00
01194             -19.00    21600.00
01195              -0.80    22400.00
01196               9.40    22400.00
01197             -21.60    23200.00
01198               8.60    23200.00
01199               1.00    24000.00
01200             -13.20    24000.00
01201               7.60    24800.00
01202               6.60    25600.00
01203             -22.60    25600.00
01204              12.80    26400.00
01205              -1.20    27200.00
01206             -16.00    27200.00
01207              10.60    27200.00
01208              -3.40    27200.00
01209              -7.80    28000.00
01210               2.60    28000.00
01211              -1.40    28800.00
01212              -6.80    28800.00
01213               2.20    28800.00
01214              -2.60    30400.00
01215              -5.80    30400.00
01216               0.40    30400.00
01217              -3.40    30400.00
01218              -4.60    31200.00
01219               2.60    31200.00
01220              -5.00    31200.00
01221              -2.80    32000.00
01222               1.00    32000.00
01223              -6.20    32800.00
01224              -1.20    32800.00
01225              -1.80    32800.00
01226              -4.40    32000.00
01227              -0.60    32800.00
01228              -1.80    33600.00
01229              -3.40    33600.00
01230              -2.20    33600.00
01231              -2.40    33600.00
01232              -2.60    33600.00
01233              -2.20    33600.00
01234              -1.80    33600.00
01235              -3.40    33600.00
01236              -1.40    33600.00
01237              -2.20    33600.00
01238              -3.80    33600.00
01239              -1.20    34400.00
01240              -3.60    33600.00
01241              -2.20    33600.00
01242              -1.20    33600.00
01243              -4.40    33600.00
01244              -1.60    34400.00
01245              -2.20    33600.00
01246              -2.60    33600.00
01247              -2.80    33600.00
01248              -2.80    33600.00
01249              -2.20    33600.00
01250              -2.80    33600.00
01251              -2.20    33600.00
01252              -3.00    33600.00
01253              -2.80    32800.00
01254              -2.20    32800.00
01255              -2.60    32800.00
01256              -2.20    32800.00
01257              -2.80    32800.00
01258              -2.60    32000.00
01259              -1.80    32000.00
01260              -2.20    32800.00
01261              -2.80    31200.00
01262              -1.80    31200.00
01263              -2.20    31200.00
01264              -2.80    30400.00
01265              -1.60    30400.00
01266              -2.60    30400.00
01267              -3.20    29600.00
01268              -2.20    28800.00
01269              -2.20    28800.00
01270              -2.80    28800.00
01271              -2.00    28000.00
01272              -2.20    28000.00
01273              -2.20    27200.00
01274              -1.80    27200.00
01275              -2.80    27200.00
01276              -2.00    26400.00
01277              -1.40    25600.00
01278              -2.40    25600.00
01279              -1.60    25600.00
01280              -2.20    24800.00
01281              -2.60    24800.00
01282              -1.80    24000.00
01283              -1.80    24000.00
01284              -2.00    23200.00
01285              -1.40    22400.00
01286              -1.40    21600.00
01287              -1.40    21600.00
01288              -1.80    21600.00
01289              -1.80    21600.00
01290              -1.80    20800.00
01291              -1.20    19200.00
01292              -1.00    19200.00
01293              -1.80    18400.00
01294              -1.40    17600.00
01295              -1.40    17600.00
01296              -1.40    16800.00
01297              -1.80    16000.00
01298              -1.20    16000.00
01299              -0.80    15200.00
01300              -1.40    14400.00
01301              -1.00    14400.00
01302              -1.20    13600.00
01303              -1.80    12800.00
01304              -0.60    12800.00
01305              -0.60    12000.00
01306              -1.40    11200.00
01307              -1.00    10400.00
01308              -0.60     9600.00
01309              -0.60     9600.00
01310              -1.80     8800.00
01311              -0.80     8000.00
01312              -0.80     8000.00
01313              -0.80     6400.00
01314              -0.60     7200.00
01315              -0.60     5600.00
01316              -1.00     4800.00
01317              -0.60     4800.00
01318              -0.80     3200.00
01319              -0.20     3200.00
01320              -0.40     2400.00
01321              -1.00     1600.00
01322              -0.40     1600.00
01323              -0.20      800.00
01324              -0.20      800.00
01325               0.40     -800.00
01326               2.60     -800.00
01327               2.00    -1600.00
01328              -1.80    -1600.00
01329               1.20    -3200.00
01330               1.40    -3200.00
01331              -0.40    -4000.00
01332               1.20    -4000.00
01333               9.40    -4800.00
01334              25.00    -6400.00
01335              -9.80    -7200.00
01336             -25.00    -8000.00
01337              11.60    -8000.00
01338              21.40    -9600.00
01339             -25.00    -8800.00
01340             -10.60    -9600.00
01341              25.00   -10400.00
01342             -25.00    -9600.00
01343             -25.00   -11200.00
01344              25.00   -11200.00
01345             -25.00   -12000.00
01346              -6.00   -12800.00
01347              23.00   -13600.00
01348             -15.80   -13600.00
01349              24.60   -14400.00
01350             -25.00   -15200.00
01351              16.40   -16000.00
01352              25.00   -16000.00
01353             -25.00   -16800.00
01354              13.00   -17600.00
01355              25.00   -17600.00
01356             -24.60   -19200.00
01357              -8.40   -18400.00
01358              25.00   -19200.00
01359             -23.00   -20000.00
01360              -2.60   -20000.00
01361              25.00   -20800.00
01362             -15.00   -21600.00
01363               3.80   -22400.00
01364               6.60   -22400.00
01365              -7.40   -22400.00
01366               3.80   -24000.00
01367               5.80   -24000.00
01368              -4.40   -24000.00
01369               8.60   -24000.00
01370               2.00   -25600.00
01371              -7.00   -25600.00
01372              11.40   -25600.00
01373              -2.60   -26400.00
01374              -2.00   -27200.00
01375               8.60   -27200.00
01376              -0.80   -27200.00
01377              -1.40   -28000.00
01378               5.20   -28800.00
01379               1.40   -28800.00
01380              -0.40   -28800.00
01381               4.60   -28800.00
01382               1.00   -28800.00
01383               0.20   -29600.00
01384               3.80   -29600.00
01385               0.20   -29600.00
01386               1.60   -30400.00
01387               4.40   -30400.00
01388              -0.40   -31200.00
01389               2.20   -32000.00
01390               2.60   -32000.00
01391               0.20   -32000.00
01392               2.60   -32000.00
01393               2.20   -32000.00
01394               1.80   -32000.00
01395               2.80   -32800.00
01396               1.80   -32800.00
01397               1.40   -32800.00
01398               2.00   -32800.00
01399               2.60   -32800.00
01400               1.40   -33600.00
01401               2.00   -32800.00
01402               2.60   -33600.00
01403               1.20   -33600.00
01404               2.40   -33600.00
01405               1.40   -32800.00
01406               1.40   -32800.00
01407               2.80   -33600.00
01408               1.40   -33600.00
01409               2.60   -33600.00
01410               2.00   -32800.00
01411               1.40   -32800.00
01412               2.60   -32800.00
01413               2.00   -33600.00
01414               1.80   -32800.00
01415               1.80   -32800.00
01416               2.60   -32800.00
01417               1.60   -32800.00
01418               1.80   -32800.00
01419               2.20   -32000.00
01420               1.80   -32000.00
01421               2.60   -32000.00
01422               1.80   -32000.00
01423               1.40   -32000.00
01424               2.60   -32000.00
01425               1.40   -31200.00
01426               1.80   -31200.00
01427               2.60   -30400.00
01428               1.80   -30400.00
01429               2.00   -30400.00
01430               2.00   -29600.00
01431               2.00   -29600.00
01432               2.00   -29600.00
01433               1.80   -28800.00
01434               2.00   -28800.00
01435               1.80   -28800.00
01436               1.20   -28800.00
01437               1.40   -28000.00
01438               1.20   -27200.00
01439               1.80   -27200.00
01440               1.40   -26400.00
01441               1.80   -26400.00
01442               1.40   -26400.00
01443               1.20   -25600.00
01444               1.80   -25600.00
01445               1.40   -25600.00
01446               1.40   -24800.00
01447               1.20   -24000.00
01448               1.00   -24000.00
01449               1.20   -23200.00
01450               0.80   -23200.00
01451               1.00   -22400.00
01452               1.20   -22400.00
01453               1.00   -22400.00
01454               1.20   -20800.00
01455               0.40   -20000.00
01456               0.60   -20000.00
01457               1.00   -20000.00
01458               1.00   -18400.00
01459               1.00   -18400.00
01460               1.00   -17600.00
01461               0.60   -17600.00
01462               1.00   -16800.00
01463               0.40   -16000.00
01464               0.40   -15200.00
01465               0.40   -14400.00
01466               0.60   -14400.00
01467               0.20   -14400.00
01468               0.20   -13600.00
01469               0.40   -12800.00
01470              -0.20   -12800.00
01471               0.60   -11200.00
01472               0.40   -11200.00
01473               0.20   -10400.00
01474               0.40    -9600.00
01475               0.20    -9600.00
01476              -0.20    -8800.00
01477               0.20    -8000.00
01478              -0.20    -7200.00
01479               0.20    -7200.00
01480               0.00    -6400.00
01481              -0.40    -5600.00
01482               0.20    -4800.00
01483               0.20    -4000.00
01484              -0.60    -3200.00
01485              -0.20    -3200.00
01486               0.20    -3200.00
01487              -0.40    -1600.00
01488              -0.40     -800.00
01489              -0.20     -800.00
01490              -0.40        0.00
01491              -0.20      800.00
01492               0.60     1600.00
01493               2.80     1600.00
01494               0.20     3200.00
01495              -2.20     2400.00
01496               0.20     3200.00
01497               0.80     3200.00
01498              -1.80     4800.00
01499               6.80     5600.00
01500              25.00     7200.00
01501              -8.40     7200.00
01502             -25.00     8000.00
01503              12.80     8000.00
01504              18.80     8800.00
01505             -25.00     8800.00
01506              25.00     9600.00
01507              25.00    10400.00
01508             -25.00    11200.00
01509              25.00    11200.00
01510              13.00    12000.00
01511             -25.00    12800.00
01512              25.00    12800.00
01513             -25.00    13600.00
01514              25.00    14400.00
01515              19.80    15200.00
01516             -25.00    15200.00
01517              25.00    16000.00
01518             -22.60    16800.00
01519             -25.00    17600.00
01520              25.00    17600.00
01521              -5.40    18400.00
01522             -25.00    19200.00
01523              23.40    19200.00
01524              13.00    20000.00
01525             -25.00    20800.00
01526              25.00    21600.00
01527              -6.80    21600.00
01528             -11.60    22400.00
01529              17.00    22400.00
01530             -21.80    22400.00
01531               3.60    24000.00
01532               4.40    24000.00
01533             -13.20    24000.00
01534               2.40    24800.00
01535              12.20    25600.00
01536             -21.80    25600.00
01537               5.80    25600.00
01538               6.20    26400.00
01539             -19.00    27200.00
01540               8.20    27200.00
01541               0.40    28000.00
01542              -9.00    28000.00
01543               1.40    28000.00
01544              -0.20    28800.00
01545              -7.40    28800.00
01546               0.80    29600.00
01547              -1.00    29600.00
01548              -6.00    30400.00
01549               0.00    30400.00
01550              -2.20    30400.00
01551              -5.20    31200.00
01552               2.20    31200.00
01553              -3.60    32000.00
01554              -4.00    31200.00
01555               2.40    32000.00
01556              -5.80    32800.00
01557              -2.80    32800.00
01558              -0.40    32000.00
01559              -4.40    32800.00
01560              -2.00    32800.00
01561              -1.20    33600.00
01562              -2.60    33600.00
01563              -3.80    33600.00
01564              -2.80    33600.00
01565              -1.20    33600.00
01566              -3.00    33600.00
01567              -2.00    33600.00
01568              -2.80    33600.00
01569              -2.60    33600.00
01570              -1.80    33600.00
01571              -4.20    33600.00
01572              -1.00    33600.00
01573              -2.80    33600.00
01574              -3.80    33600.00
01575              -0.80    34400.00
01576              -3.60    33600.00
01577              -4.20    33600.00
01578              -1.40    33600.00
01579              -1.40    33600.00
01580              -3.80    33600.00
01581              -3.00    33600.00
01582              -1.00    33600.00
01583              -4.20    33600.00
01584              -2.80    33600.00
01585              -1.20    33600.00
01586              -3.40    33600.00
01587              -2.20    32800.00
01588              -1.80    32000.00
01589              -2.40    32800.00
01590              -3.60    32800.00
01591              -2.80    32000.00
01592              -2.00    31200.00
01593              -3.00    32000.00
01594              -2.60    31200.00
01595              -1.40    31200.00
01596              -2.40    31200.00
01597              -2.80    30400.00
01598              -2.20    30400.00
01599              -2.20    30400.00
01600              -3.00    30400.00
01601              -2.20    29600.00
01602              -1.00    28800.00
01603              -2.40    28800.00
01604              -2.20    28000.00
01605              -1.20    28000.00
01606              -3.00    28000.00
01607              -2.20    27200.00
01608              -2.40    27200.00
01609              -2.20    26400.00
01610              -1.80    26400.00
01611              -2.20    25600.00
01612              -1.00    25600.00
01613              -2.00    24800.00
01614              -2.80    24800.00
01615              -1.00    24000.00
01616              -1.80    24000.00
01617              -2.40    23200.00
01618              -1.80    22400.00
01619              -1.00    22400.00
01620              -1.80    21600.00
01621              -2.20    21600.00
01622              -1.20    21600.00
01623              -1.80    20800.00
01624              -1.80    20000.00
01625              -1.20    19200.00
01626              -1.60    18400.00
01627              -2.00    18400.00
01628              -1.60    17600.00
01629              -0.60    16800.00
01630              -1.20    16800.00
01631              -1.80    16000.00
01632              -0.60    16000.00
01633              -1.20    14400.00
01634              -1.20    14400.00
01635              -1.20    14400.00
01636              -1.00    12800.00
01637              -1.40    12800.00
01638              -1.00    12000.00
01639              -0.60    11200.00
01640              -1.20    11200.00
01641              -1.40     9600.00
01642              -0.40     9600.00
01643              -1.40     8800.00
01644              -1.20     8000.00
01645              -0.20     8000.00
01646              -0.40     7200.00
01647              -0.60     6400.00
01648              -0.40     6400.00
01649              -1.00     4800.00
01650              -1.20     4800.00
01651              -1.00     4000.00
01652              -0.40     3200.00
01653              -0.60     3200.00
01654              -0.20     2400.00
01655              -0.80     1600.00
01656              -0.40      800.00
01657              -0.20        0.00
01658              -0.40        0.00
01659               2.00     -800.00
01660               3.60    -1600.00
01661              -1.80    -2400.00
01662               1.00    -3200.00
01663               1.20    -3200.00
01664              -0.60    -3200.00
01665               1.40    -4000.00
01666               7.00    -4800.00
01667              23.40    -5600.00
01668               4.60    -7200.00
01669             -25.00    -8000.00
01670              -0.60    -8000.00
01671              25.00    -9600.00
01672             -25.00    -8800.00
01673             -25.00    -8800.00
01674              25.00    -9600.00
01675              -0.60   -10400.00
01676             -25.00   -10400.00
01677              25.00   -12000.00
01678             -19.40   -12800.00
01679             -25.00   -12800.00
01680              25.00   -13600.00
01681             -20.80   -14400.00
01682              23.80   -14400.00
01683             -23.20   -14400.00
01684               0.40   -16000.00
01685              25.00   -16000.00
01686             -25.00   -16800.00
01687               0.00   -17600.00
01688              25.00   -17600.00
01689             -17.20   -19200.00
01690             -18.00   -18400.00
01691              25.00   -19200.00
01692             -11.00   -20000.00
01693             -14.20   -20800.00
01694              25.00   -20800.00
01695             -10.20   -21600.00
01696              -2.40   -21600.00
01697               9.80   -22400.00
01698              -7.00   -23200.00
01699               2.00   -23200.00
01700               6.60   -23200.00
01701              -3.80   -24000.00
01702               5.60   -24800.00
01703               6.20   -25600.00
01704              -9.20   -25600.00
01705               9.20   -25600.00
01706               1.00   -26400.00
01707              -5.00   -26400.00
01708               8.60   -27200.00
01709               0.40   -27200.00
01710              -2.00   -27200.00
01711               4.60   -28000.00
01712               2.60   -28800.00
01713              -1.20   -28800.00
01714               3.80   -28800.00
01715               1.80   -29600.00
01716              -1.00   -29600.00
01717               3.80   -29600.00
01718               1.00   -30400.00
01719               0.60   -30400.00
01720               5.00   -30400.00
01721               0.60   -31200.00
01722               1.20   -31200.00
01723               3.40   -31200.00
01724               0.20   -32000.00
01725               1.80   -32000.00
01726               2.60   -32000.00
01727               1.80   -32800.00
01728               2.60   -32000.00
01729               1.80   -32000.00
01730               1.40   -32800.00
01731               1.40   -32800.00
01732               2.20   -32800.00
01733               1.80   -32800.00
01734               1.40   -33600.00
01735               3.00   -32800.00
01736               1.80   -32800.00
01737               2.20   -33600.00
01738               1.80   -32800.00
01739               1.40   -33600.00
01740               2.60   -32800.00
01741               1.80   -33600.00
01742               2.60   -33600.00
01743               2.00   -33600.00
01744               1.40   -33600.00
01745               2.60   -32800.00
01746               2.20   -33600.00
01747               1.60   -32800.00
01748               1.60   -33600.00
01749               2.20   -33600.00
01750               2.00   -32800.00
01751               1.20   -32000.00
01752               2.60   -32000.00
01753               2.20   -32000.00
01754               1.40   -32800.00
01755               2.60   -32800.00
01756               1.80   -32000.00
01757               2.00   -32000.00
01758               2.00   -32000.00
01759               2.00   -31200.00
01760               2.00   -30400.00
01761               1.20   -32000.00
01762               2.00   -30400.00
01763               1.80   -29600.00
01764               1.80   -29600.00
01765               2.20   -29600.00
01766               1.40   -28800.00
01767               1.80   -28800.00
01768               1.40   -28800.00
01769               1.40   -28800.00
01770               2.00   -28000.00
01771               1.60   -27200.00
01772               1.40   -27200.00
01773               1.60   -27200.00
01774               1.00   -26400.00
01775               1.40   -26400.00
01776               1.20   -25600.00
01777               1.80   -25600.00
01778               1.40   -24800.00
01779               1.20   -24800.00
01780               1.20   -24000.00
01781               1.00   -24000.00
01782               1.40   -23200.00
01783               1.20   -23200.00
01784               1.00   -22400.00
01785               1.00   -22400.00
01786               0.80   -20800.00
01787               1.00   -21600.00
01788               0.80   -20800.00
01789               0.40   -20000.00
01790               0.80   -19200.00
01791               0.80   -19200.00
01792               1.00   -18400.00
01793               1.00   -17600.00
01794               0.60   -17600.00
01795               0.60   -17600.00
01796               0.40   -16800.00
01797               0.60   -16000.00
01798               0.60   -15200.00
01799               0.40   -14400.00
01800               1.00   -13600.00
01801               0.20   -13600.00
01802               0.40   -12800.00
01803               0.40   -12800.00
01804               0.60   -12000.00
01805               0.40   -11200.00
01806               0.20   -10400.00
01807               0.40    -9600.00
01808               0.20    -9600.00
01809              -0.20    -8800.00
01810               0.40    -8000.00
01811               0.20    -8000.00
01812               0.00    -6400.00
01813               0.40    -6400.00
01814              -0.20    -5600.00
01815               0.00    -4800.00
01816              -0.20    -4000.00
01817              -0.20    -4000.00
01818              -0.20    -3200.00
01819              -0.20    -2400.00
01820              -0.40    -1600.00
01821              -0.40    -1600.00
01822              -0.40        0.00
01823               0.00        0.00
01824               0.00        0.00
01825               0.20     1600.00
01826               2.60     1600.00
01827               1.40     1600.00
01828              -2.60     2400.00
01829               0.40     3200.00
01830               1.00     3200.00
01831              -1.80     4000.00
01832               4.60     5600.00
01833              25.00     5600.00
01834               7.60     7200.00
01835             -25.00     8000.00
01836               0.40     8000.00
01837              25.00     8800.00
01838             -25.00     8800.00
01839              -0.40     8800.00
01840              25.00    10400.00
01841             -25.00    10400.00
01842              25.00    12000.00
01843              25.00    12000.00
01844             -25.00    12800.00
01845              25.00    13600.00
01846             -25.00    12800.00
01847              15.80    14400.00
01848              25.00    14400.00
01849             -25.00    16000.00
01850              25.00    16000.00
01851              10.40    16800.00
01852             -25.00    16800.00
01853              25.00    17600.00
01854               9.20    18400.00
01855             -25.00    18400.00
01856              10.60    19200.00
01857              25.00    19200.00
01858             -25.00    20800.00
01859              20.80    21600.00
01860               8.40    21600.00
01861             -20.80    22400.00
01862              20.20    23200.00
01863             -18.60    23200.00
01864              -2.20    23200.00
01865               8.20    24000.00
01866             -11.40    24800.00
01867              -2.20    24800.00
01868              15.40    25600.00
01869             -18.20    25600.00
01870              -2.20    25600.00
01871              12.20    26400.00
01872             -19.60    27200.00
01873               4.20    27200.00
01874               5.00    28000.00
01875              -9.20    28000.00
01876               0.40    28800.00
01877               1.80    28800.00
01878              -7.40    28800.00
01879              -1.00    28800.00
01880               1.00    29600.00
01881              -6.00    30400.00
01882              -1.00    30400.00
01883              -0.60    31200.00
01884              -6.00    30400.00
01885               1.00    31200.00
01886              -1.20    31200.00
01887              -5.40    32000.00
01888               1.80    32000.00
01889              -4.00    32000.00
01890              -3.80    32800.00
01891              -0.20    32800.00
01892              -4.00    32800.00
01893              -2.00    32800.00
01894              -1.00    32800.00
01895              -3.00    33600.00
01896              -3.00    33600.00
01897              -2.80    33600.00
01898              -2.60    33600.00
01899              -2.80    33600.00
01900              -1.80    33600.00
01901              -2.80    33600.00
01902              -3.00    33600.00
01903              -1.00    34400.00
01904              -4.20    33600.00
01905              -2.20    33600.00
01906              -2.20    34400.00
01907              -3.40    33600.00
01908              -1.00    34400.00
01909              -3.40    33600.00
01910              -3.00    33600.00
01911              -2.00    33600.00
01912              -2.80    33600.00
01913              -2.60    34400.00
01914              -3.40    33600.00
01915              -2.20    33600.00
01916              -2.60    33600.00
01917              -2.60    33600.00
01918              -2.20    33600.00
01919              -3.00    33600.00
01920              -2.20    33600.00
01921              -2.60    32800.00
01922              -2.60    32000.00
01923              -2.20    32000.00
01924              -3.40    32800.00
01925              -2.00    31200.00
01926              -2.20    32000.00
01927              -3.00    31200.00
01928              -2.20    31200.00
01929              -2.20    31200.00
01930              -2.80    31200.00
01931              -2.20    30400.00
01932              -2.20    30400.00
01933              -2.80    29600.00
01934              -2.60    29600.00
01935              -1.40    28800.00
01936              -2.80    28800.00
01937              -2.60    28000.00
01938              -1.80    28000.00
01939              -2.20    28000.00
01940              -1.80    27200.00
01941              -2.00    27200.00
01942              -2.20    27200.00
01943              -1.80    26400.00
01944              -2.00    25600.00
01945              -1.80    25600.00
01946              -2.00    24800.00
01947              -2.20    24800.00
01948              -1.60    24800.00
01949              -2.00    24000.00
01950              -1.80    23200.00
01951              -1.80    22400.00
01952              -1.40    22400.00
01953              -1.20    21600.00
01954              -1.80    21600.00
01955              -2.00    20800.00
01956              -1.80    20000.00
01957              -1.20    19200.00
01958              -1.40    19200.00
01959              -1.80    19200.00
01960              -1.20    18400.00
01961              -2.20    17600.00
01962              -1.40    17600.00
01963              -0.60    16800.00
01964              -1.80    16000.00
01965              -1.40    15200.00
01966              -1.20    14400.00
01967              -1.00    14400.00
01968              -2.00    14400.00
01969              -1.80    13600.00
01970               0.40    12000.00
01971              -1.00    12000.00
01972              -2.20    12000.00
01973              -0.80    10400.00
01974              -0.20     9600.00
01975              -1.80     9600.00
01976              -2.80     8800.00
01977               1.20     8800.00
01978              -0.60     8000.00
01979              -2.20     7200.00
01980               1.40     6400.00
01981              -1.20     6400.00
01982              -3.60     5600.00
01983               1.20     4800.00
01984               0.40     4000.00
01985              -2.20     3200.00
01986               0.60     2400.00
01987               0.20     2400.00
01988              -2.60     1600.00
01989               0.20     1600.00
01990              -0.40        0.00
01991              -0.20        0.00
01992               2.20     -800.00
01993               3.80     -800.00
01994              -2.20    -1600.00
01995               0.20    -2400.00
01996               2.20    -3200.00
01997               0.60    -4000.00
01998               0.60    -4000.00
01999               5.00    -4000.00
02000              19.80    -5600.00
02001              16.00    -7200.00
02002             -25.00    -8000.00
02003             -11.60    -8000.00
02004              25.00    -8800.00
02005             -17.20    -9600.00
02006             -25.00    -8800.00
02007              25.00    -9600.00
02008              25.00   -10400.00
02009             -25.00   -10400.00
02010              25.00   -11200.00
02011              10.60   -12000.00
02012             -25.00   -12800.00
02013              25.00   -13600.00
02014             -18.20   -13600.00
02015              17.40   -14400.00
02016              -9.80   -14400.00
02017             -15.60   -16000.00
02018              25.00   -16000.00
02019             -24.40   -16800.00
02020             -11.80   -16800.00
02021              25.00   -17600.00
02022              -8.40   -18400.00
02023             -25.00   -18400.00
02024              25.00   -19200.00
02025               2.20   -19200.00
02026             -24.40   -20000.00
02027              25.00   -20800.00
02028              -2.80   -21600.00
02029              -8.20   -22400.00
02030              12.20   -22400.00
02031              -5.80   -22400.00
02032              -0.20   -24000.00
02033               6.80   -24000.00
02034              -2.20   -24000.00
02035               2.00   -24800.00
02036               9.00   -24800.00
02037              -9.20   -25600.00
02038               6.60   -26400.00
02039               5.20   -26400.00
02040              -7.80   -26400.00
02041               7.60   -27200.00
02042               2.80   -27200.00
02043              -2.60   -27200.00
02044               3.60   -28000.00
02045               4.00   -28800.00
02046              -1.60   -28800.00
02047               3.40   -28800.00
02048               3.20   -29600.00
02049              -1.40   -30400.00
02050               3.40   -29600.00
02051               1.80   -29600.00
02052              -0.20   -30400.00
02053               4.40   -30400.00
02054               1.40   -30400.00
02055               0.00   -31200.00
02056               4.20   -32000.00
02057               0.40   -32000.00
02058               1.20   -32000.00
02059               2.80   -32000.00
02060               1.80   -32000.00
02061               2.60   -32000.00
02062               2.00   -32800.00
02063               1.40   -32800.00
02064               1.60   -32800.00
02065               2.20   -32800.00
02066               1.40   -32800.00
02067               1.40   -32800.00
02068               3.00   -33600.00
02069               1.20   -32800.00
02070               2.20   -32800.00
02071               2.60   -33600.00
02072               1.00   -32800.00
02073               3.20   -33600.00
02074               1.80   -33600.00
02075               2.00   -32800.00
02076               2.80   -32800.00
02077               1.20   -32800.00
02078               2.40   -32800.00
02079               2.20   -32000.00
02080               1.80   -32800.00
02081               1.80   -32800.00
02082               2.00   -32800.00
02083               2.00   -32800.00
02084               1.20   -32000.00
02085               2.00   -32800.00
02086               1.80   -32000.00
02087               1.80   -32000.00
02088               2.20   -32000.00
02089               1.40   -32000.00
02090               2.20   -32000.00
02091               2.00   -31200.00
02092               1.40   -30400.00
02093               2.00   -30400.00
02094               1.40   -30400.00
02095               1.60   -30400.00
02096               2.20   -30400.00
02097               1.40   -29600.00
02098               1.60   -29600.00
02099               1.60   -29600.00
02100               1.20   -28800.00
02101               2.00   -28800.00
02102               2.00   -28800.00
02103               1.40   -28000.00
02104               1.40   -28000.00
02105               1.40   -27200.00
02106               1.80   -27200.00
02107               0.80   -27200.00
02108               1.40   -26400.00
02109               1.40   -26400.00
02110               1.20   -25600.00
02111               1.00   -24800.00
02112               1.20   -24800.00
02113               0.80   -24000.00
02114               1.00   -24000.00
02115               1.40   -24000.00
02116               1.00   -23200.00
02117               0.60   -22400.00
02118               1.20   -22400.00
02119               1.20   -22400.00
02120               1.00   -20800.00
02121               1.00   -20000.00
02122               1.00   -20000.00
02123               0.60   -20000.00
02124               1.00   -18400.00
02125               1.40   -18400.00
02126               1.00   -17600.00
02127               0.40   -17600.00
02128               0.80   -16800.00
02129               0.80   -16000.00
02130               0.40   -16000.00
02131               1.00   -16000.00
02132               0.60   -14400.00
02133               0.60   -14400.00
02134               0.40   -13600.00
02135               0.40   -12800.00
02136               0.40   -12800.00
02137               0.40   -12000.00
02138               0.60   -11200.00
02139               0.60   -11200.00
02140               0.00   -10400.00
02141               0.20    -9600.00
02142               0.60    -9600.00
02143               0.20    -8000.00
02144              -0.60    -7200.00
02145               0.20    -7200.00
02146               0.20    -6400.00
02147              -0.60    -5600.00
02148               0.20    -5600.00
02149               0.00    -4800.00
02150              -0.20    -4000.00
02151               0.40    -3200.00
02152               0.20    -3200.00
02153               0.00    -2400.00
02154               0.20    -1600.00
02155              -1.00     -800.00
02156              -0.40        0.00
02157               0.40        0.00
02158              -0.20     1600.00
02159               1.40     1600.00
02160               2.80     1600.00
02161              -3.20     2400.00
02162              -0.40     3200.00
02163               0.80     4000.00
02164              -1.20     4000.00
02165               2.60     4800.00
02166              20.60     7200.00
02167              21.80     7200.00
02168             -25.00     8000.00
02169             -14.00     8000.00
02170              25.00     8800.00
02171             -24.60     8000.00
02172             -23.00     9600.00
02173              25.00    10400.00
02174             -25.00     9600.00
02175              -7.60    11200.00
02176              25.00    12000.00
02177             -25.00    12000.00
02178              25.00    12800.00
02179             -17.60    12800.00
02180             -14.20    14400.00
02181              25.00    14400.00
02182             -25.00    15200.00
02183              25.00    16000.00
02184              25.00    16000.00
02185             -25.00    16800.00
02186              25.00    17600.00
02187              25.00    18400.00
02188             -25.00    18400.00
02189              -5.00    19200.00
02190              25.00    19200.00
02191             -25.00    20000.00
02192               5.00    21600.00
02193              24.40    21600.00
02194             -25.00    22400.00
02195              23.00    22400.00
02196             -12.80    22400.00
02197              -9.80    23200.00
02198              13.00    24000.00
02199              -9.80    24000.00
02200              -6.00    24800.00
02201              13.00    24800.00
02202             -11.60    25600.00
02203             -11.60    25600.00
02204              15.00    25600.00
02205             -14.00    27200.00
02206               0.60    27200.00
02207               9.00    27200.00
02208              -9.80    27200.00
02209              -3.40    28000.00
02210               1.00    28800.00
02211              -6.00    28800.00
02212              -3.20    28800.00
02213               2.60    30400.00
02214              -4.20    30400.00
02215              -1.40    30400.00
02216               1.20    30400.00
02217              -6.00    30400.00
02218              -1.20    31200.00
02219              -0.60    31200.00
02220              -7.80    31200.00
02221               0.20    32000.00
02222              -0.80    31200.00
02223              -4.60    32800.00
02224               1.20    32000.00
02225              -2.60    32800.00
02226              -3.60    32800.00
02227              -1.80    32800.00
02228              -2.80    33600.00
02229              -3.80    33600.00
02230              -3.60    33600.00
02231              -1.40    33600.00
02232              -1.80    33600.00
02233              -1.40    33600.00
02234              -2.60    33600.00
02235              -2.80    33600.00
02236              -2.00    33600.00
02237              -5.80    34400.00
02238              -2.80    33600.00
02239              -1.20    33600.00
02240              -4.20    34400.00
02241              -0.20    33600.00
02242              -2.20    33600.00
02243              -4.20    33600.00
02244              -2.60    33600.00
02245              -2.00    33600.00
02246              -2.80    33600.00
02247              -4.40    33600.00
02248              -1.60    33600.00
02249              -2.00    33600.00
02250              -3.80    33600.00
02251              -1.20    33600.00
02252              -1.40    32800.00
02253              -3.80    32800.00
02254              -2.60    32000.00
02255              -1.20    32800.00
02256              -3.80    32000.00
02257              -3.60    32000.00
02258              -0.20    32800.00
02259              -2.20    31200.00
02260              -3.40    32000.00
02261              -1.40    31200.00
02262              -2.60    30400.00
02263              -3.40    31200.00
02264              -2.00    30400.00
02265              -1.20    30400.00
02266              -2.80    29600.00
02267              -3.00    29600.00
02268              -1.00    28800.00
02269              -2.80    28800.00
02270              -3.60    28800.00
02271              -0.60    28000.00
02272              -1.80    28000.00
02273              -3.00    27200.00
02274              -1.20    27200.00
02275              -1.40    26400.00
02276              -2.80    26400.00
02277              -2.00    25600.00
02278              -0.60    25600.00
02279              -2.40    25600.00
02280              -3.40    24800.00
02281              -1.20    24000.00
02282              -1.60    24000.00
02283              -2.80    24000.00
02284              -1.20    23200.00
02285              -1.80    22400.00
02286              -1.40    21600.00
02287              -1.60    21600.00
02288              -1.60    20800.00
02289              -2.20    20800.00
02290              -1.20    19200.00
02291              -1.40    19200.00
02292              -1.20    19200.00
02293              -1.20    18400.00
02294              -2.40    17600.00
02295              -1.00    17600.00
02296              -1.20    16000.00
02297              -2.60    16000.00
02298              -0.60    16000.00
02299              -1.00    14400.00
02300              -2.80    14400.00
02301              -0.40    14400.00
02302              -1.20    13600.00
02303              -1.80    12800.00
02304              -0.40    12000.00
02305              -1.00    11200.00
02306              -2.20    11200.00
02307              -0.60    11200.00
02308              -1.20     9600.00
02309              -0.60     8800.00
02310              -0.80     8800.00
02311              -1.20     8000.00
02312              -0.60     7200.00
02313              -0.80     7200.00
02314              -1.00     5600.00
02315              -0.60     4800.00
02316              -0.60     4800.00
02317              -0.60     4000.00
02318              -0.60     3200.00
02319               0.20     3200.00
02320              -1.00     2400.00
02321              -1.00     1600.00
02322               0.20     1600.00
02323              -0.20        0.00
02324               0.20     -800.00
02325               1.20     -800.00
02326               4.20    -1600.00
02327              -0.60    -1600.00
02328              -0.80    -2400.00
02329               1.80    -3200.00
02330               1.20    -3200.00
02331              -0.60    -4000.00
02332               3.80    -4000.00
02333              17.00    -4800.00
02334              23.00    -7200.00
02335             -25.00    -8000.00
02336             -23.60    -8000.00
02337              25.00    -8800.00
02338              -3.40    -9600.00
02339             -25.00    -8800.00
02340              25.00    -9600.00
02341              25.00   -11200.00
02342             -25.00   -10400.00
02343              25.00   -11200.00
02344              25.00   -12000.00
02345             -25.00   -12800.00
02346              25.00   -13600.00
02347              -9.60   -13600.00
02348               8.60   -14400.00
02349               3.80   -14400.00
02350             -25.00   -14400.00
02351              25.00   -16000.00
02352             -11.00   -16800.00
02353             -23.00   -17600.00
02354              25.00   -17600.00
02355               2.60   -17600.00
02356             -25.00   -19200.00
02357              18.00   -20000.00
02358              15.00   -20000.00
02359             -25.00   -20800.00
02360              22.80   -20800.00
02361               6.00   -20800.00
02362             -13.40   -21600.00
02363              12.40   -22400.00
02364              -3.00   -23200.00
02365              -3.20   -23200.00
02366               7.00   -23200.00
02367              -0.20   -24000.00
02368              -1.20   -24800.00
02369              10.80   -25600.00
02370              -7.80   -25600.00
02371               2.40   -26400.00
02372               8.40   -26400.00
02373              -7.80   -26400.00
02374               5.20   -27200.00
02375               4.60   -27200.00
02376              -2.80   -27200.00
02377               1.80   -28000.00
02378               4.60   -28800.00
02379              -1.20   -28800.00
02380               2.20   -28800.00
02381               4.00   -29600.00
02382              -0.80   -29600.00
02383               2.60   -29600.00
02384               2.60   -30400.00
02385              -0.20   -30400.00
02386               3.60   -30400.00
02387               2.20   -31200.00
02388              -0.20   -31200.00
02389               3.80   -32000.00
02390               1.20   -32000.00
02391               0.60   -32000.00
02392               2.80   -32000.00
02393               1.40   -32000.00
02394               2.20   -32800.00
02395               2.60   -32000.00
02396               1.80   -32800.00
02397               1.80   -32800.00
02398               2.20   -32800.00
02399               2.20   -32800.00
02400               1.40   -32800.00
02401               2.40   -32800.00
02402               2.00   -33600.00
02403               2.00   -32800.00
02404               2.20   -32800.00
02405               1.00   -33600.00
02406               2.80   -32800.00
02407               2.40   -33600.00
02408               1.20   -32800.00
02409               2.80   -33600.00
02410               1.80   -33600.00
02411               2.00   -32800.00
02412               2.40   -32800.00
02413               1.80   -33600.00
02414               1.80   -33600.00
02415               2.00   -33600.00
02416               2.20   -32800.00
02417               1.40   -32800.00
02418               2.00   -32000.00
02419               1.80   -32000.00
02420               1.80   -32000.00
02421               2.00   -32000.00
02422               1.20   -32000.00
02423               2.00   -32000.00
02424               2.20   -31200.00
02425               1.00   -31200.00
02426               1.80   -31200.00
02427               2.00   -30400.00
02428               1.20   -30400.00
02429               2.20   -30400.00
02430               1.80   -29600.00
02431               1.40   -29600.00
02432               1.80   -29600.00
02433               1.00   -29600.00
02434               1.80   -28800.00
02435               2.20   -28800.00
02436               1.00   -28000.00
02437               0.40   -27200.00
02438               2.20   -27200.00
02439               2.20   -27200.00
02440              -0.20   -27200.00
02441               0.60   -26400.00
02442               2.60   -25600.00
02443               1.40   -25600.00
02444              -0.20   -25600.00
02445               2.20   -24800.00
02446               2.00   -24000.00
02447               0.40   -24000.00
02448               0.60   -23200.00
02449               2.00   -23200.00
02450               1.00   -23200.00
02451               0.20   -22400.00
02452               2.20   -20800.00
02453               1.00   -20800.00
02454              -0.60   -20000.00
02455               1.60   -20000.00
02456               2.60   -20000.00
02457              -0.20   -19200.00
02458               0.40   -18400.00
02459               2.80   -17600.00
02460              -0.20   -17600.00
02461              -0.60   -16800.00
02462               1.80   -16000.00
02463               1.00   -16000.00
02464               0.40   -16000.00
02465               1.20   -14400.00
02466               0.80   -14400.00
02467               0.20   -13600.00
02468               0.20   -13600.00
02469              -0.20   -12800.00
02470               0.00   -12000.00
02471               1.20   -11200.00
02472               0.60   -10400.00
02473               0.60   -10400.00
02474               0.00    -9600.00
02475               0.20    -8800.00
02476               1.00    -8000.00
02477               0.20    -8000.00
02478              -0.60    -7200.00
02479               0.40    -6400.00
02480               0.20    -6400.00
02481               0.00    -5600.00
02482               0.00    -4800.00
02483               0.20    -4000.00
02484               0.00    -3200.00
02485              -0.40    -2400.00
02486              -0.40    -2400.00
02487              -0.40    -1600.00
02488              -0.40     -800.00
02489              -0.20        0.00
02490               0.00        0.00
02491               0.00        0.00
02492               1.00     1600.00
02493               3.20     2400.00
02494              -2.80     2400.00
02495              -1.40     3200.00
02496               1.40     3200.00
02497              -1.00     3200.00
02498               0.20     4800.00
02499              15.40     5600.00
02500              25.00     7200.00
02501             -25.00     8000.00
02502             -25.00     8000.00
02503              25.00     8800.00
02504             -10.80     8800.00
02505             -25.00     8800.00
02506              25.00    11200.00
02507             -15.40    10400.00
02508             -25.00    11200.00
02509              25.00    12000.00
02510             -25.00    12000.00
02511              17.00    12800.00
02512              11.60    12800.00
02513             -25.00    14400.00
02514              25.00    14400.00
02515             -25.00    15200.00
02516               2.20    16000.00
02517              25.00    16000.00
02518             -25.00    16800.00
02519              16.60    17600.00
02520              25.00    17600.00
02521             -25.00    18400.00
02522             -18.00    19200.00
02523              25.00    19200.00
02524             -25.00    20800.00
02525             -10.20    21600.00
02526              25.00    21600.00
02527             -25.00    22400.00
02528              12.40    22400.00
02529              -3.80    22400.00
02530             -15.60    24000.00
02531              11.40    24000.00
02532              -4.40    24000.00
02533             -10.20    24000.00
02534              13.80    25600.00
02535              -3.80    25600.00
02536             -17.20    25600.00
02537              16.60    26400.00
02538             -11.00    27200.00
02539              -7.60    27200.00
02540              10.20    27200.00
02541              -7.80    28000.00
02542              -4.60    28000.00
02543               2.80    28800.00
02544              -4.20    28800.00
02545              -4.60    28800.00
02546               2.80    29600.00
02547              -4.60    30400.00
02548              -3.80    30400.00
02549               0.60    30400.00
02550              -5.20    30400.00
02551              -2.20    31200.00
02552               1.80    31200.00
02553              -6.00    32000.00
02554              -0.20    32000.00
02555              -1.20    32000.00
02556              -6.00    32800.00
02557              -0.40    32800.00
02558              -3.00    32800.00
02559              -3.60    32800.00
02560              -0.40    32800.00
02561              -2.80    32800.00
02562              -3.60    33600.00
02563              -2.60    33600.00
02564              -2.20    33600.00
02565              -2.60    33600.00
02566              -2.20    34400.00
02567              -2.20    33600.00
02568              -3.80    33600.00
02569              -1.40    33600.00
02570              -3.00    33600.00
02571              -3.40    34400.00
02572              -1.40    33600.00
02573              -3.80    34400.00
02574              -1.60    33600.00
02575              -2.80    34400.00
02576              -3.80    34400.00
02577              -1.40    33600.00
02578              -3.00    33600.00
02579              -2.60    33600.00
02580              -3.00    33600.00
02581              -2.20    33600.00
02582              -1.80    33600.00
02583              -3.00    33600.00
02584              -2.20    32800.00
02585              -3.00    32800.00
02586              -2.40    32000.00
02587              -2.20    32800.00
02588              -3.00    32800.00
02589              -2.20    32000.00
02590              -2.80    32800.00
02591              -2.20    32000.00
02592              -2.00    32000.00
02593              -2.80    31200.00
02594              -2.20    31200.00
02595              -2.20    31200.00
02596              -2.20    31200.00
02597              -2.20    30400.00
02598              -2.00    30400.00
02599              -2.20    30400.00
02600              -2.80    29600.00
02601              -2.20    29600.00
02602              -2.00    28800.00
02603              -2.40    28800.00
02604              -2.00    28000.00
02605              -2.20    28000.00
02606              -1.80    27200.00
02607              -1.80    27200.00
02608              -2.80    26400.00
02609              -1.60    26400.00
02610              -1.80    25600.00
02611              -2.20    25600.00
02612              -1.40    25600.00
02613              -2.20    24800.00
02614              -2.00    24800.00
02615              -1.80    24000.00
02616              -2.00    24000.00
02617              -2.20    23200.00
02618              -2.00    22400.00
02619              -1.80    21600.00
02620              -2.00    21600.00
02621              -2.00    21600.00
02622              -2.20    20800.00
02623              -1.80    20000.00
02624              -1.00    19200.00
02625              -2.00    19200.00
02626              -1.40    17600.00
02627              -1.40    18400.00
02628              -2.00    17600.00
02629              -1.20    16800.00
02630              -1.80    16000.00
02631              -1.80    16000.00
02632              -1.20    15200.00
02633              -1.80    14400.00
02634              -1.20    13600.00
02635              -1.40    13600.00
02636              -1.60    12800.00
02637              -0.80    12000.00
02638              -1.20    12000.00
02639              -1.20    11200.00
02640              -1.20    11200.00
02641              -1.00     9600.00
02642              -0.60     8800.00
02643              -1.00     8800.00
02644              -0.40     8000.00
02645              -1.00     7200.00
02646              -0.60     7200.00
02647              -0.60     6400.00
02648              -0.60     5600.00
02649              -0.40     4800.00
02650              -1.00     4800.00
02651              -0.60     3200.00
02652              -0.40     3200.00
02653              -1.00     3200.00
02654              -0.60     1600.00
02655               0.20      800.00
02656              -0.20      800.00
02657               0.20        0.00
02658               1.00     -800.00
02659               3.40     -800.00
02660               0.60    -1600.00
02661              -1.20    -1600.00
02662               1.80    -2400.00
02663               1.40    -3200.00
02664              -0.40    -4000.00
02665               2.60    -4000.00
02666              13.20    -4800.00
02667              25.00    -6400.00
02668             -25.00    -7200.00
02669             -25.00    -8000.00
02670              23.40    -8000.00
02671               8.60    -8800.00
02672             -25.00    -8800.00
02673              16.20    -9600.00
02674              25.00   -10400.00
02675             -25.00   -10400.00
02676              12.60   -11200.00
02677              25.00   -12000.00
02678             -25.00   -12000.00
02679              21.20   -12800.00
02680               3.60   -13600.00
02681              -2.00   -14400.00
02682              15.60   -14400.00
02683             -25.00   -15200.00
02684              25.00   -16000.00
02685               4.20   -16000.00
02686             -25.00   -17600.00
02687              25.00   -17600.00
02688              13.40   -17600.00
02689             -25.00   -19200.00
02690               7.80   -19200.00
02691              25.00   -20000.00
02692             -25.00   -20000.00
02693              14.20   -20000.00
02694              15.40   -20800.00
02695             -16.20   -22400.00
02696              10.20   -22400.00
02697               0.40   -22400.00
02698              -5.40   -23200.00
02699               5.80   -23200.00
02700               2.80   -24000.00
02701              -3.20   -24000.00
02702              10.80   -25600.00
02703              -3.80   -25600.00
02704              -2.20   -25600.00
02705              10.20   -25600.00
02706              -6.60   -26400.00
02707               2.60   -27200.00
02708               6.60   -27200.00
02709              -2.20   -27200.00
02710               0.40   -28000.00
02711               5.00   -28800.00
02712              -0.60   -28800.00
02713               1.40   -28800.00
02714               4.80   -28800.00
02715              -0.60   -29600.00
02716               1.80   -29600.00
02717               3.40   -30400.00
02718              -0.40   -30400.00
02719               2.80   -30400.00
02720               3.80   -30400.00
02721              -0.60   -31200.00
02722               3.60   -32000.00
02723               2.00   -32000.00
02724               0.40   -32000.00
02725               2.80   -32000.00
02726               2.00   -32000.00
02727               2.20   -32000.00
02728               2.60   -32000.00
02729               2.00   -32800.00
02730               1.40   -32800.00
02731               2.00   -32800.00
02732               2.60   -33600.00
02733               1.40   -32800.00
02734               2.60   -32800.00
02735               2.60   -33600.00
02736               1.40   -33600.00
02737               2.60   -32800.00
02738               1.80   -33600.00
02739               2.20   -32800.00
02740               2.60   -33600.00
02741               1.40   -32800.00
02742               3.00   -33600.00
02743               1.40   -33600.00
02744               1.80   -32800.00
02745               2.60   -32800.00
02746               1.60   -32800.00
02747               1.80   -32800.00
02748               2.00   -32800.00
02749               2.20   -32800.00
02750               1.40   -32800.00
02751               1.60   -32000.00
02752               2.20   -32800.00
02753               1.80   -32000.00
02754               2.00   -32800.00
02755               1.40   -32000.00
02756               1.80   -32000.00
02757               1.80   -32000.00
02758               1.00   -31200.00
02759               2.20   -30400.00
02760               1.80   -30400.00
02761               1.80   -30400.00
02762               2.00   -30400.00
02763               1.00   -29600.00
02764               1.80   -29600.00
02765               2.20   -29600.00
02766               1.00   -29600.00
02767               1.80   -28800.00
02768               1.40   -28800.00
02769               1.20   -28000.00
02770               1.00   -27200.00
02771               1.40   -27200.00
02772               1.20   -27200.00
02773               1.40   -27200.00
02774               1.40   -26400.00
02775               1.00   -25600.00
02776               1.40   -26400.00
02777               1.40   -25600.00
02778               1.20   -25600.00
02779               1.80   -24000.00
02780               1.00   -24000.00
02781               1.20   -24000.00
02782               1.40   -23200.00
02783               0.60   -22400.00
02784               1.00   -22400.00
02785               1.20   -22400.00
02786               1.20   -20800.00
02787               1.00   -20800.00
02788               0.40   -20000.00
02789               1.00   -19200.00
02790               1.00   -18400.00
02791               1.00   -18400.00
02792               1.00   -17600.00
02793               0.60   -17600.00
02794               1.00   -16800.00
02795               0.80   -17600.00
02796               0.60   -16000.00
02797               1.00   -16000.00
02798               0.60   -15200.00
02799               0.60   -14400.00
02800               0.40   -14400.00
02801               0.40   -13600.00
02802               0.40   -12800.00
02803               0.20   -12000.00
02804               0.60   -11200.00
02805               0.40   -10400.00
02806               0.20   -10400.00
02807               0.40    -9600.00
02808               0.20    -8800.00
02809               0.20    -8000.00
02810               0.40    -7200.00
02811               0.20    -7200.00
02812               0.20    -7200.00
02813              -0.20    -6400.00
02814              -0.20    -5600.00
02815               0.20    -4800.00
02816              -0.60    -4000.00
02817              -0.40    -3200.00
02818               0.20    -3200.00
02819              -0.60    -3200.00
02820              -0.40    -1600.00
02821              -0.40     -800.00
02822              -0.60        0.00
02823              -0.20        0.00
02824              -0.40        0.00
02825               0.40     1600.00
02826               3.80     1600.00
02827              -2.00     2400.00
02828              -1.80     2400.00
02829               1.20     3200.00
02830              -0.20     4000.00
02831              -1.40     4800.00
02832              11.40     5600.00
02833              25.00     7200.00
02834             -25.00     8000.00
02835             -25.00     8000.00
02836              25.00     8000.00
02837               2.60     8800.00
02838             -25.00     8800.00
02839              25.00    11200.00
02840              19.60     9600.00
02841             -25.00    11200.00
02842              25.00    12000.00
02843             -25.00    12000.00
02844             -11.60    13600.00
02845              25.00    12800.00
02846             -25.00    13600.00
02847              25.00    14400.00
02848             -25.00    15200.00
02849             -25.00    16000.00
02850              25.00    16000.00
02851             -25.00    16000.00
02852              -4.80    17600.00
02853              25.00    18400.00
02854             -23.60    18400.00
02855             -25.00    19200.00
02856              25.00    19200.00
02857             -10.80    20000.00
02858             -25.00    21600.00
02859              25.00    21600.00
02860             -22.60    21600.00
02861               4.20    22400.00
02862               6.00    22400.00
02863             -19.80    23200.00
02864              10.00    24000.00
02865              -1.00    24000.00
02866             -12.40    24000.00
02867               9.80    25600.00
02868               3.60    25600.00
02869             -21.20    25600.00
02870              14.60    26400.00
02871              -4.60    27200.00
02872             -13.40    27200.00
02873              11.00    27200.00
02874              -5.00    28000.00
02875              -6.60    28000.00
02876               3.00    28000.00
02877              -2.80    28800.00
02878              -6.60    28800.00
02879               2.40    28800.00
02880              -3.80    30400.00
02881              -5.20    30400.00
02882               0.80    31200.00
02883              -4.40    31200.00
02884              -4.00    31200.00
02885               2.60    31200.00
02886              -6.00    31200.00
02887              -1.80    32000.00
02888               1.00    32000.00
02889              -6.20    32800.00
02890              -1.20    32800.00
02891              -2.80    32000.00
02892              -4.40    32800.00
02893               0.20    33600.00
02894              -2.00    33600.00
02895              -4.00    33600.00
02896              -2.80    33600.00
02897              -2.20    32800.00
02898              -3.00    33600.00
02899              -2.60    33600.00
02900              -1.40    33600.00
02901              -3.80    33600.00
02902              -1.80    33600.00
02903              -2.00    34400.00
02904              -4.20    34400.00
02905              -2.00    33600.00
02906              -3.60    33600.00
02907              -1.20    34400.00
02908              -1.40    34400.00
02909              -4.20    33600.00
02910              -2.20    33600.00
02911              -3.00    33600.00
02912              -2.20    33600.00
02913              -2.60    33600.00
02914              -3.00    33600.00
02915              -2.20    33600.00
02916              -2.80    33600.00
02917              -2.40    33600.00
02918              -2.40    33600.00
02919              -2.20    32000.00
02920              -2.20    32800.00
02921              -2.60    32000.00
02922              -2.00    32800.00
02923              -3.00    32000.00
02924              -2.80    32000.00
02925              -1.80    32800.00
02926              -2.80    32000.00
02927              -2.40    31200.00
02928              -2.20    30400.00
02929              -2.60    30400.00
02930              -2.00    31200.00
02931              -2.40    30400.00
02932              -2.20    30400.00
02933              -2.20    30400.00
02934              -2.20    28800.00
02935              -1.80    28800.00
02936              -2.20    28800.00
02937              -2.00    28000.00
02938              -2.00    28000.00
02939              -1.80    28000.00
02940              -2.00    27200.00
02941              -2.60    27200.00
02942              -2.00    26400.00
02943              -2.00    25600.00
02944              -2.40    25600.00
02945              -2.00    25600.00
02946              -2.20    24800.00
02947              -2.20    24800.00
02948              -2.00    24000.00
02949              -2.00    24000.00
02950              -2.00    22400.00
02951              -2.20    22400.00
02952              -1.40    22400.00
02953              -1.40    22400.00
02954              -2.20    20800.00
02955              -1.80    20800.00
02956              -1.80    20000.00
02957              -1.40    19200.00
02958              -2.00    19200.00
02959              -1.80    18400.00
02960              -1.20    18400.00
02961              -2.00    17600.00
02962              -1.60    17600.00
02963              -1.40    16800.00
02964              -1.20    16000.00
02965              -1.20    15200.00
02966              -1.80    15200.00
02967              -1.20    14400.00
02968              -1.40    13600.00
02969              -1.40    12800.00
02970              -0.60    12000.00
02971              -1.20    12000.00
02972              -1.40    11200.00
02973              -1.20    11200.00
02974              -1.00     9600.00
02975              -0.60     9600.00
02976              -1.20     8800.00
02977              -0.60     8000.00
02978              -1.00     8000.00
02979              -1.40     7200.00
02980              -0.20     6400.00
02981              -0.20     5600.00
02982              -1.00     4800.00
02983              -0.40     4800.00
02984              -0.20     4000.00
02985              -0.60     3200.00
02986              -0.60     2400.00
02987               0.20     1600.00
02988              -1.00     1600.00
02989              -0.40      800.00
02990               0.40        0.00
02991               0.40     -800.00
02992               2.60     -800.00
02993               2.20     -800.00
02994              -1.20    -1600.00
02995               0.60    -3200.00
02996               1.80    -3200.00
02997               0.40    -4000.00
02998               1.80    -4800.00
02999               9.80    -4800.00
03000              25.00    -6400.00
03001             -15.00    -8000.00
03002             -25.00    -8000.00
03003              15.60    -8000.00
03004              18.60    -8800.00
03005             -25.00    -9600.00
03006              -3.40    -9600.00
03007              25.00   -10400.00
03008             -25.00   -10400.00
03009             -19.80   -11200.00
03010              25.00   -12000.00
03011             -25.00   -12000.00
03012               3.40   -12800.00
03013              17.80   -13600.00
03014             -12.60   -14400.00
03015              23.40   -14400.00
03016             -25.00   -14400.00
03017              23.00   -16000.00
03018              20.20   -16000.00
03019             -25.00   -16800.00
03020              17.80   -17600.00
03021              23.20   -17600.00
03022             -25.00   -18400.00
03023              -3.60   -18400.00
03024              25.00   -19200.00
03025             -25.00   -20000.00
03026               3.20   -20000.00
03027              23.00   -20800.00
03028             -16.20   -21600.00
03029               6.60   -23200.00
03030               4.20   -23200.00
03031              -7.60   -23200.00
03032               4.40   -24000.00
03033               5.20   -24000.00
03034              -3.60   -24000.00
03035               9.40   -24000.00
03036              -0.20   -25600.00
03037              -5.20   -25600.00
03038              10.40   -25600.00
03039              -4.40   -26400.00
03040              -0.20   -26400.00
03041               7.80   -27200.00
03042              -1.40   -27200.00
03043              -0.20   -27200.00
03044               5.80   -28000.00
03045               0.40   -28800.00
03046               0.20   -28800.00
03047               5.40   -29600.00
03048               1.00   -29600.00
03049              -0.40   -29600.00
03050               4.20   -29600.00
03051               0.40   -30400.00
03052               0.80   -30400.00
03053               5.00   -30400.00
03054               0.60   -31200.00
03055               2.20   -31200.00
03056               2.80   -32000.00
03057               0.60   -32000.00
03058               1.80   -32000.00
03059               2.00   -32800.00
03060               2.60   -32000.00
03061               2.60   -32800.00
03062               2.20   -32800.00
03063               2.00   -32800.00
03064               1.40   -32000.00
03065               2.20   -32800.00
03066               0.80   -32800.00
03067               1.80   -33600.00
03068               2.80   -33600.00
03069               1.40   -32800.00
03070               3.00   -33600.00
03071               2.00   -32800.00
03072               1.80   -33600.00
03073               2.60   -33600.00
03074               1.40   -32800.00
03075               2.20   -33600.00
03076               1.20   -32800.00
03077               1.80   -33600.00
03078               2.60   -32800.00
03079               1.80   -32800.00
03080               2.00   -33600.00
03081               1.80   -32800.00
03082               1.80   -32800.00
03083               1.40   -32800.00
03084               1.40   -32800.00
03085               1.80   -32800.00
03086               2.20   -32800.00
03087               2.00   -32000.00
03088               0.80   -32000.00
03089               2.60   -32000.00
03090               3.40   -32000.00
03091               0.40   -31200.00
03092               2.00   -32000.00
03093               2.00   -31200.00
03094              -0.20   -30400.00
03095               1.80   -30400.00
03096               2.60   -29600.00
03097               0.80   -30400.00
03098               2.20   -29600.00
03099               2.00   -29600.00
03100               1.20   -28800.00
03101               1.20   -28800.00
03102               1.80   -28800.00
03103               0.60   -27200.00
03104               2.00   -27200.00
03105               2.80   -27200.00
03106               0.40   -26400.00
03107               0.40   -26400.00
03108               2.60   -26400.00
03109               0.80   -26400.00
03110               1.20   -25600.00
03111               2.40   -25600.00
03112               0.20   -24000.00
03113               0.60   -24000.00
03114               2.00   -24000.00
03115               1.00   -23200.00
03116               1.00   -23200.00
03117               1.80   -22400.00
03118               1.00   -21600.00
03119               0.40   -20800.00
03120               1.00   -20800.00
03121               0.60   -20000.00
03122               0.60   -19200.00
03123               1.00   -19200.00
03124               0.80   -18400.00
03125               1.20   -17600.00
03126               0.60   -17600.00
03127               0.40   -16800.00
03128               1.00   -16800.00
03129               0.60   -16000.00
03130               0.40   -16000.00
03131               0.80   -15200.00
03132               1.00   -14400.00
03133               0.20   -13600.00
03134               0.40   -13600.00
03135               0.40   -12800.00
03136               0.40   -12000.00
03137               0.60   -11200.00
03138               0.20   -11200.00
03139              -0.20   -10400.00
03140               0.20    -9600.00
03141               0.00    -9600.00
03142              -0.20    -8000.00
03143               0.40    -8000.00
03144               0.20    -7200.00
03145              -0.60    -7200.00
03146               0.20    -6400.00
03147              -0.40    -5600.00
03148              -0.40    -4800.00
03149              -0.20    -4000.00
03150              -0.20    -3200.00
03151              -0.20    -3200.00
03152              -0.60    -3200.00
03153              -0.40    -2400.00
03154              -0.40    -1600.00
03155              -0.60     -800.00
03156              -0.40        0.00
03157               0.00      800.00
03158               0.20     1600.00
03159               3.00     1600.00
03160              -0.60     2400.00
03161              -2.00     3200.00
03162               0.40     3200.00
03163               0.40     3200.00
03164              -1.40     4800.00
03165               8.40     5600.00
03166              25.00     6400.00
03167             -15.40     8000.00
03168             -25.00     8000.00
03169              17.00     8000.00
03170              14.00     8800.00
03171             -25.00     8800.00
03172              25.00    10400.00
03173              25.00    11200.00
03174             -25.00    11200.00
03175              25.00    12800.00
03176              -1.20    12000.00
03177             -25.00    12800.00
03178              25.00    12800.00
03179             -25.00    12800.00
03180              25.00    14400.00
03181               4.20    14400.00
03182             -25.00    15200.00
03183              25.00    16000.00
03184             -25.00    16800.00
03185             -25.00    17600.00
03186              25.00    17600.00
03187             -11.60    18400.00
03188             -25.00    18400.00
03189              25.00    19200.00
03190               6.00    20800.00
03191             -25.00    20800.00
03192              25.00    20800.00
03193             -12.40    21600.00
03194              -6.80    22400.00
03195              14.20    22400.00
03196             -21.40    23200.00
03197               6.60    23200.00
03198               2.60    24000.00
03199             -13.00    24000.00
03200               5.00    24800.00
03201              10.00    25600.00
03202             -22.60    25600.00
03203               9.00    27200.00
03204               3.20    27200.00
03205             -18.00    27200.00
03206               9.00    27200.00
03207              -1.40    27200.00
03208              -8.60    28000.00
03209               2.20    28800.00
03210              -0.60    28800.00
03211              -7.00    28800.00
03212               1.40    28800.00
03213              -1.80    30400.00
03214              -6.00    30400.00
03215               0.20    30400.00
03216              -2.80    30400.00
03217              -5.20    31200.00
03218               2.20    31200.00
03219              -4.20    32000.00
03220              -3.80    31200.00
03221               1.20    32000.00
03222              -6.00    32000.00
03223              -2.20    32800.00
03224              -1.00    32000.00
03225              -4.40    32800.00
03226              -1.00    33600.00
03227              -1.80    33600.00
03228              -3.80    33600.00
03229              -2.80    33600.00
03230              -2.60    33600.00
03231              -2.60    33600.00
03232              -2.80    33600.00
03233              -1.40    33600.00
03234              -3.60    33600.00
03235              -2.00    33600.00
03236              -1.80    33600.00
03237              -4.20    34400.00
03238              -1.20    33600.00
03239              -3.40    34400.00
03240              -2.60    33600.00
03241              -1.20    33600.00
03242              -3.80    33600.00
03243              -2.00    34400.00
03244              -2.00    33600.00
03245              -2.60    33600.00
03246              -2.20    34400.00
03247              -3.00    33600.00
03248              -2.20    33600.00
03249              -2.80    33600.00
03250              -2.20    33600.00
03251              -2.80    32800.00
03252              -2.60    32800.00
03253              -2.00    32800.00
03254              -2.60    32000.00
03255              -2.00    32000.00
03256              -2.40    32800.00
03257              -2.60    32000.00
03258              -1.80    31200.00
03259              -2.60    32000.00
03260              -2.80    31200.00
03261              -2.20    31200.00
03262              -2.00    31200.00
03263              -2.00    30400.00
03264              -2.20    30400.00
03265              -2.60    30400.00
03266              -2.80    29600.00
03267              -2.80    29600.00
03268              -2.20    28800.00
03269              -2.60    28800.00
03270              -2.20    28800.00
03271              -2.20    28000.00
03272              -2.00    27200.00
03273              -1.80    28000.00
03274              -2.20    27200.00
03275              -2.00    27200.00
03276              -1.80    25600.00
03277              -2.20    25600.00
03278              -2.00    25600.00
03279              -2.60    25600.00
03280              -2.20    24800.00
03281              -2.00    24000.00
03282              -2.20    24000.00
03283              -1.80    23200.00
03284              -2.00    22400.00
03285              -1.80    22400.00
03286              -1.80    21600.00
03287              -2.20    21600.00
03288              -2.00    20800.00
03289              -1.80    20000.00
03290              -1.80    20000.00
03291              -1.60    19200.00
03292              -1.80    18400.00
03293              -1.40    18400.00
03294              -2.00    17600.00
03295              -1.40    17600.00
03296              -1.20    16800.00
03297              -2.00    16000.00
03298              -1.00    15200.00
03299              -1.20    15200.00
03300              -1.20    14400.00
03301              -1.20    13600.00
03302              -1.20    12800.00
03303              -1.20    12800.00
03304              -1.00    12000.00
03305              -1.20    11200.00
03306              -1.20    11200.00
03307              -1.00     9600.00
03308              -0.60     9600.00
03309              -1.20     8800.00
03310              -0.60     8000.00
03311              -1.20     8000.00
03312              -1.20     7200.00
03313               0.20     6400.00
03314              -0.40     6400.00
03315              -0.60     5600.00
03316              -0.40     4800.00
03317              -0.60     3200.00
03318              -0.20     4000.00
03319              -0.60     2400.00
03320              -1.00     1600.00
03321              -0.20     1600.00
03322              -0.20     1600.00
03323              -0.40        0.00
03324               0.40     -800.00
03325               2.40     -800.00
03326               2.80    -1600.00
03327              -1.40    -1600.00
03328               0.80    -3200.00
03329               1.80    -3200.00
03330               0.40    -4000.00
03331               0.60    -4000.00
03332               7.80    -4000.00
03333              25.00    -6400.00
03334              -1.60    -7200.00
03335             -25.00    -8000.00
03336               5.40    -8800.00
03337              24.40    -8000.00
03338             -25.00    -8800.00
03339             -19.20    -8800.00
03340              25.00   -10400.00
03341             -15.80   -10400.00
03342             -25.00   -10400.00
03343              25.00   -12000.00
03344             -25.00   -11200.00
03345             -17.80   -12800.00
03346              25.00   -12800.00
03347             -19.00   -14400.00
03348              25.00   -14400.00
03349             -25.00   -14400.00
03350               7.60   -16000.00
03351              25.00   -16000.00
03352             -25.00   -16800.00
03353               6.00   -17600.00
03354              25.00   -17600.00
03355             -21.00   -19200.00
03356             -14.20   -18400.00
03357              25.00   -19200.00
03358             -17.00   -19200.00
03359              -9.20   -20000.00
03360              25.00   -20800.00
03361             -12.80   -21600.00
03362               0.40   -22400.00
03363               8.40   -22400.00
03364              -7.40   -23200.00
03365               2.80   -24000.00
03366               6.60   -24000.00
03367              -4.20   -24000.00
03368               7.00   -24800.00
03369               4.20   -24800.00
03370              -8.60   -25600.00
03371              10.20   -25600.00
03372              -0.40   -26400.00
03373              -3.80   -26400.00
03374               8.80   -27200.00
03375               0.20   -27200.00
03376              -1.80   -27200.00
03377               5.00   -28800.00
03378               2.00   -28800.00
03379              -0.60   -28800.00
03380               4.80   -29600.00
03381               1.80   -29600.00
03382              -0.60   -29600.00
03383               4.20   -30400.00
03384               0.80   -30400.00
03385               1.00   -30400.00
03386               4.60   -31200.00
03387               0.20   -30400.00
03388               2.00   -31200.00
03389               3.40   -31200.00
03390               0.20   -32000.00
03391               2.20   -32000.00
03392               2.80   -32000.00
03393               1.80   -32800.00
03394               2.60   -32000.00
03395               2.00   -32000.00
03396               1.60   -32800.00
03397               1.40   -32800.00
03398               2.20   -32800.00
03399               1.40   -32800.00
03400               1.80   -33600.00
03401               2.80   -32800.00
03402               1.40   -33600.00
03403               2.00   -32800.00
03404               1.60   -33600.00
03405               2.00   -32800.00
03406               2.60   -33600.00
03407               0.60   -32800.00
03408               2.80   -33600.00
03409               2.60   -32800.00
03410               0.40   -32800.00
03411               2.60   -32800.00
03412               2.60   -32800.00
03413               1.20   -32800.00
03414               1.20   -32800.00
03415               2.80   -32000.00
03416               1.80   -32800.00
03417               0.40   -32800.00
03418               2.60   -32000.00
03419               2.00   -32000.00
03420               1.00   -32000.00
03421               2.20   -32000.00
03422               2.00   -32000.00
03423               1.40   -32000.00
03424               1.60   -32000.00
03425               2.00   -32000.00
03426               2.60   -31200.00
03427               1.20   -30400.00
03428               1.20   -31200.00
03429               2.20   -30400.00
03430               1.80   -30400.00
03431               1.00   -29600.00
03432               2.60   -28800.00
03433               1.80   -28800.00
03434               0.00   -28800.00
03435               2.60   -28000.00
03436               1.80   -28800.00
03437               0.40   -27200.00
03438               2.60   -27200.00
03439               2.00   -27200.00
03440               0.40   -26400.00
03441               2.60   -26400.00
03442               1.20   -25600.00
03443               0.40   -25600.00
03444               2.00   -25600.00
03445               1.80   -24000.00
03446               0.20   -24000.00
03447               1.80   -24000.00
03448               2.60   -23200.00
03449               0.40   -23200.00
03450               0.60   -22400.00
03451               1.80   -22400.00
03452               1.00   -20800.00
03453               0.20   -20800.00
03454               1.20   -20000.00
03455               1.80   -20000.00
03456               0.40   -19200.00
03457               1.00   -18400.00
03458               2.20   -18400.00
03459               0.60   -17600.00
03460              -0.20   -16800.00
03461               1.20   -16800.00
03462               1.00   -16000.00
03463              -0.20   -16000.00
03464               0.40   -16000.00
03465               1.00   -14400.00
03466               0.60   -14400.00
03467              -0.40   -13600.00
03468               0.40   -13600.00
03469               0.20   -12800.00
03470              -0.60   -12000.00
03471               0.60   -11200.00
03472               0.40   -10400.00
03473               0.40   -10400.00
03474               0.00    -9600.00
03475              -0.20    -8800.00
03476              -0.20    -8000.00
03477              -0.20    -7200.00
03478              -0.20    -7200.00
03479               0.20    -6400.00
03480              -0.20    -6400.00
03481              -0.40    -4800.00
03482              -0.40    -4800.00
03483              -0.60    -4000.00
03484              -0.20    -3200.00
03485              -0.20    -2400.00
03486              -0.60    -1600.00
03487              -0.20     -800.00
03488              -0.60     -800.00
03489              -0.60        0.00
03490               0.20        0.00
03491              -0.20      800.00
03492               2.40     2400.00
03493               1.00     2400.00
03494              -3.00     2400.00
03495               0.40     3200.00
03496               1.20     4000.00
03497              -2.20     4800.00
03498               5.60     4800.00
03499              25.00     6400.00
03500              -0.20     8000.00
03501             -25.00     8800.00
03502               7.00     8000.00
03503              23.00     8800.00
03504             -25.00     8800.00
03505              11.40     9600.00
03506              25.00    11200.00
03507             -25.00    11200.00
03508              25.00    12000.00
03509              25.00    12000.00
03510             -25.00    12800.00
03511              25.00    13600.00
03512             -25.00    13600.00
03513              25.00    14400.00
03514              25.00    14400.00
03515             -25.00    15200.00
03516              25.00    16000.00
03517              -3.80    16000.00
03518             -25.00    17600.00
03519              25.00    17600.00
03520               2.60    18400.00
03521             -25.00    18400.00
03522              17.00    19200.00
03523              20.60    20000.00
03524             -25.00    20800.00
03525              25.00    21600.00
03526               1.80    21600.00
03527             -16.60    22400.00
03528              19.20    22400.00
03529             -20.80    23200.00
03530               0.80    24000.00
03531               6.60    24000.00
03532             -12.40    24800.00
03533              -0.20    24000.00
03534              14.80    25600.00
03535             -20.20    25600.00
03536               1.40    26400.00
03537               9.60    27200.00
03538             -19.60    27200.00
03539               6.00    27200.00
03540               2.60    28000.00
03541              -9.60    28000.00
03542               0.80    28800.00
03543               1.00    28800.00
03544              -7.80    28800.00
03545              -0.20    29600.00
03546               0.40    29600.00
03547              -6.60    30400.00
03548              -0.60    30400.00
03549              -1.40    31200.00
03550              -6.20    31200.00
03551               1.80    31200.00
03552              -2.00    31200.00
03553              -5.40    32000.00
03554               1.80    32800.00
03555              -5.20    32000.00
03556              -3.80    32800.00
03557              -0.60    32800.00
03558              -4.40    32800.00
03559              -1.40    32800.00
03560              -1.20    33600.00
03561              -3.00    33600.00
03562              -3.00    33600.00
03563              -2.60    33600.00
03564              -2.00    33600.00
03565              -2.80    33600.00
03566              -1.40    33600.00
03567              -3.20    34400.00
03568              -2.80    33600.00
03569              -0.80    33600.00
03570              -4.20    33600.00
03571              -1.80    33600.00
03572              -2.80    33600.00
03573              -3.60    33600.00
03574              -0.60    34400.00
03575              -4.20    33600.00
03576              -2.60    33600.00
03577              -1.40    34400.00
03578              -2.60    34400.00
03579              -2.20    34400.00
03580              -3.00    33600.00
03581              -2.20    33600.00
03582              -2.80    33600.00
03583              -2.20    33600.00
03584              -2.00    33600.00
03585              -2.80    33600.00
03586              -2.20    32800.00
03587              -2.60    32800.00
03588              -2.20    32000.00
03589              -2.00    32000.00
03590              -2.80    32000.00
03591              -2.00    32000.00
03592              -2.60    31200.00
03593              -3.00    32000.00
03594              -2.00    31200.00
03595              -2.00    31200.00
03596              -2.20    31200.00
03597              -2.20    30400.00
03598              -2.40    30400.00
03599              -2.80    30400.00
03600              -2.80    30400.00
03601              -2.00    28800.00
03602              -2.60    28800.00
03603              -2.40    28800.00
03604              -2.20    28000.00
03605              -2.40    28000.00
03606              -1.80    27200.00
03607              -2.20    27200.00
03608              -2.20    26400.00
03609              -1.60    26400.00
03610              -2.20    26400.00
03611              -2.00    25600.00
03612              -2.20    24800.00
03613              -2.60    24800.00
03614              -2.00    24000.00
03615              -1.80    24000.00
03616              -1.80    24000.00
03617              -2.60    23200.00
03618              -1.40    22400.00
03619              -1.80    22400.00
03620              -2.40    21600.00
03621              -1.80    20800.00
03622              -2.20    19200.00
03623              -1.60    19200.00
03624              -0.80    19200.00
03625              -2.00    18400.00
03626              -1.40    18400.00
03627              -1.80    17600.00
03628              -2.00    16800.00
03629              -1.20    16000.00
03630              -1.80    16000.00
03631              -1.40    16000.00
03632              -1.00    15200.00
03633              -1.20    14400.00
03634              -1.20    13600.00
03635              -1.20    12800.00
03636              -1.20    12800.00
03637              -1.20    12000.00
03638              -1.00    11200.00
03639              -1.00    11200.00
03640              -1.80     9600.00
03641              -0.20     8800.00
03642              -0.60     8800.00
03643              -1.40     8000.00
03644              -0.60     8000.00
03645              -1.20     7200.00
03646              -0.60     7200.00
03647              -0.40     5600.00
03648              -1.00     5600.00
03649              -0.60     4800.00
03650              -0.40     4000.00
03651              -0.60     3200.00
03652              -0.40     2400.00
03653              -0.60     2400.00
03654              -0.60     1600.00
03655               0.20      800.00
03656               0.20        0.00
03657              -0.20        0.00
03658               1.80     -800.00
03659               3.80    -1600.00
03660              -1.60    -1600.00
03661               0.40    -2400.00
03662               1.80    -3200.00
03663               0.40    -3200.00
03664              -0.40    -3200.00
03665               6.00    -4800.00
03666              22.60    -6400.00
03667              10.20    -7200.00
03668             -25.00    -7200.00
03669              -6.60    -8000.00
03670              25.00    -8800.00
03671             -22.00    -8800.00
03672             -25.00    -8000.00
03673              25.00    -9600.00
03674              15.60   -10400.00
03675             -25.00   -10400.00
03676              25.00   -12000.00
03677              -3.40   -12000.00
03678             -25.00   -12800.00
03679              25.00   -13600.00
03680             -19.80   -13600.00
03681              21.20   -14400.00
03682             -17.20   -14400.00
03683              -8.40   -16000.00
03684              25.00   -16000.00
03685             -25.00   -16800.00
03686              -6.20   -16800.00
03687              25.00   -17600.00
03688             -12.80   -17600.00
03689             -22.00   -18400.00
03690              25.00   -19200.00
03691              -4.40   -20000.00
03692             -19.80   -20000.00
03693              25.00   -20800.00
03694              -6.80   -20800.00
03695              -5.60   -22400.00
03696              11.40   -22400.00
03697              -6.80   -23200.00
03698               1.00   -23200.00
03699               7.40   -23200.00
03700              -3.00   -24000.00
03701               3.60   -24800.00
03702               8.20   -25600.00
03703              -9.20   -25600.00
03704               8.40   -26400.00
03705               3.60   -25600.00
03706              -6.20   -26400.00
03707               8.40   -27200.00
03708               1.80   -27200.00
03709              -2.20   -27200.00
03710               4.20   -28000.00
03711               3.00   -28800.00
03712              -1.20   -28800.00
03713               4.20   -29600.00
03714               2.60   -29600.00
03715              -0.80   -29600.00
03716               3.80   -29600.00
03717               1.40   -30400.00
03718               0.60   -29600.00
03719               4.80   -31200.00
03720               0.60   -31200.00
03721               1.00   -31200.00
03722               4.20   -32000.00
03723              -0.20   -32000.00
03724               1.80   -32000.00
03725               3.00   -32000.00
03726               1.20   -32000.00
03727               2.20   -32000.00
03728               2.00   -32800.00
03729               1.80   -32800.00
03730               1.20   -32000.00
03731               2.20   -32800.00
03732               2.20   -32800.00
03733               1.40   -32800.00
03734               2.60   -32800.00
03735               1.80   -32800.00
03736               2.20   -33600.00
03737               2.00   -32800.00
03738               1.40   -32800.00
03739               3.00   -32800.00
03740               1.20   -33600.00
03741               1.80   -33600.00
03742               2.20   -32800.00
03743               1.20   -33600.00
03744               2.00   -33600.00
03745               2.00   -32800.00
03746               2.00   -32800.00
03747               1.40   -32800.00
03748               1.80   -32800.00
03749               2.00   -32000.00
03750               1.40   -32800.00
03751               1.80   -32800.00
03752               2.00   -32800.00
03753               2.00   -32800.00
03754               2.20   -32000.00
03755               1.40   -32000.00
03756               2.00   -32000.00
03757               1.60   -32000.00
03758               1.40   -30400.00
03759               1.80   -30400.00
03760               1.40   -30400.00
03761               1.80   -30400.00
03762               2.20   -29600.00
03763               2.00   -29600.00
03764               2.20   -29600.00
03765               1.80   -29600.00
03766               1.20   -29600.00
03767               1.80   -28800.00
03768               1.80   -28000.00
03769               1.40   -28800.00
03770               1.20   -27200.00
03771               1.40   -27200.00
03772               1.40   -27200.00
03773               1.00   -26400.00
03774               1.60   -26400.00
03775               1.20   -26400.00
03776               1.20   -25600.00
03777               1.60   -24800.00
03778               1.20   -24800.00
03779               1.40   -24000.00
03780               1.00   -24000.00
03781               1.40   -23200.00
03782               1.40   -22400.00
03783               1.00   -22400.00
03784               1.00   -22400.00
03785               1.00   -22400.00
03786               1.00   -20800.00
03787               0.60   -20800.00
03788               1.00   -20000.00
03789               1.00   -19200.00
03790               0.60   -18400.00
03791               1.00   -18400.00
03792               0.60   -17600.00
03793               0.40   -17600.00
03794               0.60   -16800.00
03795               0.60   -16000.00
03796               0.40   -16000.00
03797               0.40   -14400.00
03798               0.40   -14400.00
03799               0.40   -13600.00
03800               0.40   -13600.00
03801               0.20   -12800.00
03802              -0.40   -12000.00
03803               0.20   -11200.00
03804               0.40   -11200.00
03805               0.20   -10400.00
03806               0.40   -10400.00
03807               0.20    -9600.00
03808              -0.20    -8800.00
03809               0.40    -8000.00
03810              -0.40    -7200.00
03811              -0.20    -7200.00
03812               0.20    -6400.00
03813              -0.40    -4800.00
03814              -0.40    -4800.00
03815              -0.20    -4800.00
03816              -0.40    -4000.00
03817              -0.20    -3200.00
03818              -0.40    -2400.00
03819              -0.60    -1600.00
03820              -0.20    -1600.00
03821              -0.40     -800.00
03822              -1.00        0.00
03823              -0.40      800.00
03824               0.20     1600.00
03825               2.00     1600.00
03826               2.20     2400.00
03827              -2.80     3200.00
03828              -0.60     3200.00
03829               1.20     4000.00
03830              -1.20     4000.00
03831               3.40     4800.00
03832              23.80     6400.00
03833              15.80     7200.00
03834             -25.00     8000.00
03835              -6.80     8000.00
03836              25.00     8800.00
03837             -25.00     8800.00
03838             -12.80     9600.00
03839              25.00    11200.00
03840             -25.00     9600.00
03841               9.00    11200.00
03842              25.00    12000.00
03843             -25.00    12000.00
03844              25.00    12800.00
03845             -25.00    13600.00
03846              -0.20    15200.00
03847              25.00    14400.00
03848             -25.00    15200.00
03849              25.00    16000.00
03850              25.00    16000.00
03851             -25.00    17600.00
03852              25.00    17600.00
03853              17.40    18400.00
03854             -25.00    18400.00
03855               2.80    19200.00
03856              25.00    19200.00
03857             -25.00    20800.00
03858              13.40    21600.00
03859              15.80    21600.00
03860             -24.60    22400.00
03861              21.20    22400.00
03862             -16.20    22400.00
03863              -7.00    24000.00
03864              10.60    24000.00
03865              -9.40    24800.00
03866              -5.40    24800.00
03867              15.40    25600.00
03868             -14.60    25600.00
03869              -5.80    25600.00
03870              12.40    26400.00
03871             -17.40    27200.00
03872               3.00    27200.00
03873               4.80    28000.00
03874              -8.60    27200.00
03875              -0.40    28800.00
03876              -0.60    28800.00
03877              -7.00    28800.00
03878              -0.40    29600.00
03879               0.40    29600.00
03880              -6.20    30400.00
03881              -0.40    30400.00
03882              -2.00    31200.00
03883              -6.20    31200.00
03884               1.00    31200.00
03885              -1.20    31200.00
03886              -5.00    32000.00
03887               2.00    32000.00
03888              -4.20    32800.00
03889              -4.80    32800.00
03890               1.00    32800.00
03891              -4.20    33600.00
03892              -2.00    33600.00
03893              -0.60    32800.00
03894              -4.20    33600.00
03895              -3.00    33600.00
03896              -2.20    33600.00
03897              -2.60    33600.00
03898              -2.00    33600.00
03899              -1.80    33600.00
03900              -3.00    33600.00
03901              -2.40    33600.00
03902              -1.40    33600.00
03903              -4.60    33600.00
03904              -1.80    34400.00
03905              -1.40    33600.00
03906              -4.00    34400.00
03907              -0.40    34400.00
03908              -2.60    34400.00
03909              -3.80    33600.00
03910              -2.00    33600.00
03911              -2.20    33600.00
03912              -2.80    33600.00
03913              -3.00    34400.00
03914              -1.80    33600.00
03915              -2.20    34400.00
03916              -2.60    33600.00
03917              -2.60    33600.00
03918              -2.80    33600.00
03919              -1.80    33600.00
03920              -3.00    32800.00
03921              -2.80    32800.00
03922              -2.20    32000.00
03923              -3.20    32800.00
03924              -2.20    32000.00
03925              -1.80    32800.00
03926              -2.80    31200.00
03927              -2.40    31200.00
03928              -2.60    30400.00
03929              -2.40    31200.00
03930              -2.40    30400.00
03931              -2.80    30400.00
03932              -2.00    30400.00
03933              -2.20    30400.00
03934              -2.20    28800.00
03935              -2.40    28800.00
03936              -2.20    28000.00
03937              -2.20    28000.00
03938              -2.40    28000.00
03939              -1.40    27200.00
03940              -2.20    27200.00
03941              -2.60    25600.00
03942              -1.40    26400.00
03943              -2.20    25600.00
03944              -2.00    24800.00
03945              -2.40    24800.00
03946              -2.20    24800.00
03947              -1.40    24000.00
03948              -2.00    24000.00
03949              -1.80    23200.00
03950              -1.40    22400.00
03951              -2.00    22400.00
03952              -2.00    22400.00
03953              -1.40    21600.00
03954              -2.00    20800.00
03955              -2.20    20800.00
03956              -1.40    19200.00
03957              -1.40    19200.00
03958              -2.20    18400.00
03959              -1.40    18400.00
03960              -1.40    17600.00
03961              -1.20    16800.00
03962              -1.00    16800.00
03963              -2.00    16000.00
03964              -1.20    16000.00
03965              -1.20    15200.00
03966              -1.20    14400.00
03967              -1.00    14400.00
03968              -1.20    13600.00
03969              -1.20    12800.00
03970              -1.00    12000.00
03971              -1.00    11200.00
03972              -1.40    11200.00
03973              -1.40    11200.00
03974              -0.60     9600.00
03975              -1.20     9600.00
03976              -1.40     8800.00
03977              -0.40     8000.00
03978              -1.00     8000.00
03979              -0.40     6400.00
03980              -0.40     6400.00
03981              -0.60     5600.00
03982              -0.40     4800.00
03983              -0.80     4800.00
03984              -0.60     3200.00
03985              -0.60     2400.00
03986              -1.00     2400.00
03987              -1.00     1600.00
03988              -0.20      800.00
03989              -0.20        0.00
03990              -0.20        0.00
03991               1.20     -800.00
03992               4.00     -800.00
03993              -1.20    -1600.00
03994              -0.60    -2400.00
03995               2.00    -3200.00
03996               0.60    -3200.00
03997              -0.60    -4000.00
03998               5.00    -4000.00
03999              18.00    -5600.00
04000              20.00    -7200.00
04001             -25.00    -7200.00
04002             -19.00    -8000.00
04003              25.00    -8000.00
04004              -9.20    -9600.00
04005             -25.00    -8000.00
04006              25.00    -9600.00
04007              25.00   -11200.00
04008             -25.00   -10400.00
04009              25.00   -11200.00
04010              25.00   -12800.00
04011             -25.00   -12800.00
04012              25.00   -13600.00
04013             -14.20   -13600.00
04014              13.60   -14400.00
04015              -3.00   -14400.00
04016             -23.00   -16000.00
04017              25.00   -16000.00
04018             -18.60   -16000.00
04019             -18.20   -17600.00
04020              25.00   -17600.00
04021              -2.80   -18400.00
04022             -25.00   -19200.00
04023              22.60   -19200.00
04024               9.00   -20000.00
04025             -25.00   -20800.00
04026              25.00   -20800.00
04027               2.00   -20800.00
04028             -11.20   -22400.00
04029              13.00   -22400.00
04030              -4.40   -23200.00
04031              -2.00   -23200.00
04032               7.00   -24000.00
04033              -0.80   -24000.00
04034               0.40   -24000.00
04035              10.60   -24800.00
04036              -8.20   -25600.00
04037               4.20   -25600.00
04038               7.40   -26400.00
04039              -7.40   -26400.00
04040               6.80   -27200.00
04041               4.40   -26400.00
04042              -2.60   -28000.00
04043               2.80   -28000.00
04044               4.40   -28800.00
04045              -1.20   -28800.00
04046               3.00   -28800.00
04047               3.60   -29600.00
04048              -1.20   -29600.00
04049               3.00   -29600.00
04050               2.20   -30400.00
04051              -0.40   -29600.00
04052               3.80   -30400.00
04053               2.00   -30400.00
04054               0.20   -31200.00
04055               3.80   -30400.00
04056               1.20   -32000.00
04057               1.00   -32000.00
04058               3.00   -32000.00
04059               1.80   -32800.00
04060               2.20   -32000.00
04061               1.80   -32000.00
04062               2.00   -32800.00
04063               1.40   -32800.00
04064               2.00   -32800.00
04065               2.00   -32800.00
04066               1.40   -32800.00
04067               2.60   -32800.00
04068               1.60   -33600.00
04069               1.80   -33600.00
04070               2.60   -32800.00
04071               1.00   -33600.00
04072               2.80   -33600.00
04073               2.00   -32800.00
04074               1.80   -32800.00
04075               2.60   -33600.00
04076               1.40   -32800.00
04077               2.00   -32800.00
04078               2.00   -32800.00
04079               1.80   -32800.00
04080               1.40   -33600.00
04081               2.00   -32800.00
04082               2.00   -32800.00
04083               1.80   -32800.00
04084               2.20   -32800.00
04085               2.00   -32000.00
04086               1.80   -32800.00
04087               2.60   -32000.00
04088               1.40   -32000.00
04089               2.00   -32000.00
04090               1.80   -31200.00
04091               1.80   -32000.00
04092               2.60   -30400.00
04093               1.60   -30400.00
04094               1.20   -30400.00
04095               1.40   -30400.00
04096               2.00   -29600.00
04097               1.40   -29600.00
04098               1.80   -29600.00
04099               1.40   -28800.00
04100               1.80   -28800.00
04101               1.60   -28800.00
04102               2.00   -27200.00
04103               1.80   -27200.00
04104               1.80   -27200.00
04105               1.20   -27200.00
04106               1.40   -26400.00
04107               1.20   -26400.00
04108               1.00   -25600.00
04109               2.00   -26400.00
04110               1.40   -24800.00
04111               1.20   -24000.00
04112               1.80   -24000.00
04113               1.00   -24000.00
04114               1.20   -23200.00
04115               1.20   -23200.00
04116               1.00   -22400.00
04117               1.20   -22400.00
04118               1.00   -21600.00
04119               1.20   -20800.00
04120               0.40   -20800.00
04121               0.60   -20000.00
04122               1.00   -19200.00
04123               0.60   -18400.00
04124               0.40   -18400.00
04125               1.00   -17600.00
04126               0.60   -17600.00
04127              -0.20   -16800.00
04128               1.00   -16000.00
04129               1.00   -16000.00
04130              -0.40   -16000.00
04131               0.40   -14400.00
04132               1.40   -14400.00
04133              -0.40   -13600.00
04134               0.20   -12800.00
04135               1.00   -12800.00
04136               0.40   -12000.00
04137              -0.40   -11200.00
04138               1.00   -10400.00
04139               0.40   -10400.00
04140              -0.60    -9600.00
04141              -0.20    -9600.00
04142               1.00    -8000.00
04143              -1.20    -8000.00
04144              -0.60    -7200.00
04145               2.00    -6400.00
04146              -1.20    -6400.00
04147              -1.20    -4800.00
04148               2.00    -4000.00
04149              -1.00    -4000.00
04150              -1.80    -3200.00
04151               1.40    -3200.00
04152               0.20    -1600.00
04153              -1.40    -1600.00
04154               0.00     -800.00
04155               0.20        0.00
04156              -1.20        0.00
04157              -0.20        0.00
04158               2.00     1600.00
04159               2.80     2400.00
04160              -3.60     2400.00
04161              -0.40     3200.00
04162               1.80     3200.00
04163              -2.20     4000.00
04164               1.40     4800.00
04165              19.40     5600.00
04166              25.00     7200.00
04167             -25.00     8000.00
04168             -20.20     8800.00
04169              25.00     8800.00
04170             -18.80     9600.00
04171             -25.00     8800.00
04172              25.00    10400.00
04173             -25.00    10400.00
04174             -25.00    12000.00
04175              25.00    12000.00
04176             -25.00    12000.00
04177              25.00    12800.00
04178              -1.40    12800.00
04179             -25.00    13600.00
04180              25.00    14400.00
04181             -25.00    15200.00
04182              20.20    16000.00
04183              25.00    16000.00
04184             -25.00    16800.00
04185              25.00    17600.00
04186              25.00    18400.00
04187             -25.00    19200.00
04188             -10.80    19200.00
04189              25.00    19200.00
04190             -25.00    20000.00
04191              -2.00    21600.00
04192              25.00    21600.00
04193             -25.00    21600.00
04194              16.20    22400.00
04195              -8.00    22400.00
04196             -13.20    24000.00
04197              11.40    24000.00
04198              -6.20    24800.00
04199              -8.80    24000.00
04200              14.20    25600.00
04201              -8.00    25600.00
04202             -14.20    25600.00
04203              16.60    25600.00
04204             -14.60    27200.00
04205              -4.40    27200.00
04206               9.60    27200.00
04207              -9.00    27200.00
04208              -3.60    28000.00
04209               3.40    28800.00
04210              -5.40    28800.00
04211              -3.80    29600.00
04212               3.00    28800.00
04213              -5.40    30400.00
04214              -3.60    30400.00
04215               0.40    31200.00
04216              -5.40    31200.00
04217              -1.40    31200.00
04218               1.40    32000.00
04219              -6.20    32000.00
04220               0.40    32800.00
04221              -1.80    32000.00
04222              -5.80    32000.00
04223               0.20    32800.00
04224              -3.40    32800.00
04225              -2.80    32000.00
04226              -0.20    33600.00
04227              -2.80    33600.00
04228              -3.40    33600.00
04229              -2.20    33600.00
04230              -2.20    33600.00
04231              -2.80    33600.00
04232              -1.80    33600.00
04233              -2.20    33600.00
04234              -3.40    33600.00
04235              -1.00    33600.00
04236              -3.60    33600.00
04237              -2.80    33600.00
04238              -1.20    33600.00
04239              -3.80    33600.00
04240              -0.80    34400.00
04241              -2.60    34400.00
04242              -3.40    33600.00
04243              -1.20    34400.00
04244              -3.00    33600.00
04245              -2.00    33600.00
04246              -2.80    33600.00
04247              -3.00    33600.00
04248              -2.20    33600.00
04249              -2.80    33600.00
04250              -2.20    33600.00
04251              -2.80    32800.00
04252              -2.20    33600.00
04253              -2.20    32000.00
04254              -2.80    32800.00
04255              -2.20    33600.00
04256              -2.80    32000.00
04257              -2.20    32800.00
04258              -2.20    31200.00
04259              -2.40    32000.00
04260              -2.20    31200.00
04261              -2.80    31200.00
04262              -2.20    30400.00
04263              -2.20    30400.00
04264              -3.00    30400.00
04265              -2.20    30400.00
04266              -2.60    28800.00
04267              -2.20    29600.00
04268              -2.00    28800.00
04269              -2.80    28000.00
04270              -2.20    28800.00
04271              -2.00    27200.00
04272              -2.20    28000.00
04273              -2.00    27200.00
04274              -2.20    27200.00
04275              -1.60    27200.00
04276              -2.00    25600.00
04277              -2.20    25600.00
04278              -2.00    25600.00
04279              -2.20    24800.00
04280              -2.00    24800.00
04281              -2.20    24000.00
04282              -1.80    24000.00
04283              -1.80    23200.00
04284              -2.00    22400.00
04285              -1.40    22400.00
04286              -1.60    21600.00
04287              -2.20    20800.00
04288              -1.60    20800.00
04289              -1.60    20000.00
04290              -1.20    19200.00
04291              -1.80    19200.00
04292              -1.20    18400.00
04293              -1.80    17600.00
04294              -1.40    16800.00
04295              -1.20    16800.00
04296              -1.80    16000.00
04297              -1.40    16000.00
04298              -1.00    15200.00
04299              -1.40    14400.00
04300              -0.60    14400.00
04301              -1.20    12800.00
04302              -1.00    12800.00
04303              -0.60    12000.00
04304              -0.60    11200.00
04305              -1.20    11200.00
04306              -1.40    10400.00
04307              -1.00    10400.00
04308              -0.60     9600.00
04309              -1.40     8800.00
04310              -0.60     8000.00
04311              -0.80     8000.00
04312              -1.00     6400.00
04313              -0.60     5600.00
04314              -0.60     5600.00
04315              -0.60     4800.00
04316              -0.60     4800.00
04317              -0.60     3200.00
04318              -0.40     3200.00
04319              -0.60     2400.00
04320              -1.00     1600.00
04321              -0.40     1600.00
04322              -0.20        0.00
04323              -0.40        0.00
04324               0.60        0.00
04325               3.60     -800.00
04326              -0.20    -1600.00
04327              -0.80    -2400.00
04328               1.40    -2400.00
04329               0.40    -3200.00
04330              -0.40    -3200.00
04331               4.00    -4000.00
04332              14.40    -4800.00
04333              24.40    -6400.00
04334             -25.00    -7200.00
04335             -25.00    -8000.00
04336              24.60    -8000.00
04337               2.80    -8800.00
04338             -25.00    -8800.00
04339              25.00    -9600.00
04340              25.00   -11200.00
04341             -25.00   -10400.00
04342              25.00   -11200.00
04343              25.00   -12000.00
04344             -25.00   -12800.00
04345              25.00   -13600.00
04346              -5.20   -13600.00
04347               3.60   -13600.00
04348              12.40   -14400.00
04349             -25.00   -16000.00
04350              25.00   -16000.00
04351              -1.60   -16000.00
04352             -25.00   -16800.00
04353              25.00   -17600.00
04354               8.60   -18400.00
04355             -25.00   -18400.00
04356              13.00   -19200.00
04357              21.20   -20000.00
04358             -25.00   -20000.00
04359              18.60   -20800.00
04360              10.60   -21600.00
04361             -15.60   -21600.00
04362              11.80   -22400.00
04363              -1.20   -23200.00
04364              -3.80   -23200.00
04365               6.80   -23200.00
04366               1.40   -24000.00
04367              -2.60   -24000.00
04368              12.00   -24800.00
04369              -5.40   -24800.00
04370              -0.60   -26400.00
04371               9.60   -26400.00
04372              -7.20   -26400.00
04373               4.20   -26400.00
04374               5.80   -27200.00
04375              -2.00   -27200.00
04376               1.40   -27200.00
04377               5.00   -28800.00
04378              -1.00   -28800.00
04379               2.00   -28800.00
04380               4.60   -29600.00
04381              -1.00   -29600.00
04382               2.20   -29600.00
04383               3.40   -30400.00
04384              -0.40   -30400.00
04385               3.40   -29600.00
04386               3.40   -31200.00
04387              -0.80   -31200.00
04388               3.60   -31200.00
04389               1.60   -32000.00
04390               0.60   -32000.00
04391               2.80   -32000.00
04392               1.80   -32000.00
04393               2.60   -32000.00
04394               2.20   -32800.00
04395               1.80   -32800.00
04396               1.20   -32800.00
04397               1.80   -32800.00
04398               2.40   -32800.00
04399               1.00   -32800.00
04400               2.20   -32800.00
04401               2.20   -32800.00
04402               1.80   -32800.00
04403               2.60   -33600.00
04404               1.20   -32800.00
04405               2.20   -32800.00
04406               2.00   -33600.00
04407               2.00   -32800.00
04408               2.80   -33600.00
04409               1.80   -32800.00
04410               2.60   -32800.00
04411               2.40   -33600.00
04412               1.60   -32800.00
04413               2.00   -32800.00
04414               2.00   -32800.00
04415               2.00   -32000.00
04416               1.80   -32000.00
04417               2.00   -32800.00
04418               2.20   -32000.00
04419               2.00   -32000.00
04420               2.60   -32000.00
04421               1.80   -32000.00
04422               1.80   -32000.00
04423               2.00   -31200.00
04424               1.40   -30400.00
04425               2.20   -31200.00
04426               1.80   -30400.00
04427               1.80   -30400.00
04428               1.80   -29600.00
04429               1.80   -30400.00
04430               1.80   -29600.00
04431               2.00   -29600.00
04432               1.60   -28800.00
04433               1.80   -28800.00
04434               1.40   -28800.00
04435               1.80   -28800.00
04436               1.40   -27200.00
04437               1.80   -27200.00
04438               2.00   -27200.00
04439               1.40   -27200.00
04440               1.20   -26400.00
04441               1.20   -25600.00
04442               1.20   -25600.00
04443               1.80   -25600.00
04444               1.20   -24800.00
04445               1.40   -24000.00
04446               1.20   -24000.00
04447               1.00   -23200.00
04448               1.20   -23200.00
04449               1.00   -22400.00
04450               0.40   -22400.00
04451               1.00   -22400.00
04452               1.00   -20800.00
04453               0.80   -20800.00
04454               0.40   -20000.00
04455               1.00   -20000.00
04456               1.00   -18400.00
04457               1.00   -18400.00
04458               1.00   -18400.00
04459               0.40   -17600.00
04460               0.80   -16800.00
04461               0.60   -16800.00
04462               0.40   -16000.00
04463               0.60   -16000.00
04464               0.40   -15200.00
04465               0.60   -14400.00
04466               0.40   -13600.00
04467               0.40   -13600.00
04468               0.40   -12800.00
04469               0.20   -12000.00
04470               0.40   -11200.00
04471               0.40   -11200.00
04472               0.20   -10400.00
04473               0.20    -9600.00
04474              -0.20    -8800.00
04475               0.20    -8000.00
04476               0.00    -8000.00
04477              -0.20    -7200.00
04478               0.00    -6400.00
04479               0.00    -6400.00
04480              -0.40    -5600.00
04481               0.00    -4800.00
04482              -0.20    -4000.00
04483              -0.20    -3200.00
04484               0.20    -3200.00
04485              -0.40    -2400.00
04486              -0.40    -1600.00
04487              -0.20     -800.00
04488              -0.20     -800.00
04489              -0.20        0.00
04490               0.20      800.00
04491               0.80     1600.00
04492               3.40     1600.00
04493              -2.20     2400.00
04494              -1.40     2400.00
04495               1.20     4000.00
04496              -0.20     4000.00
04497              -0.60     4800.00
04498              13.20     6400.00
04499              25.00     8000.00
04500             -25.00     8000.00
04501             -25.00     8800.00
04502              25.00     8800.00
04503              -4.20     8800.00
04504             -25.00     9600.00
04505              25.00    10400.00
04506               1.40    10400.00
04507             -25.00    11200.00
04508              25.00    12000.00
04509             -25.00    12000.00
04510               3.40    12800.00
04511              24.60    13600.00
04512             -25.00    13600.00
04513              25.00    14400.00
04514             -25.00    15200.00
04515             -17.00    16000.00
04516              25.00    16000.00
04517             -25.00    16000.00
04518               6.80    17600.00
04519              25.00    18400.00
04520             -25.00    18400.00
04521             -23.00    19200.00
04522              25.00    19200.00
04523             -19.80    20000.00
04524             -18.20    20800.00
04525              25.00    21600.00
04526             -25.00    21600.00
04527               8.40    22400.00
04528               1.00    22400.00
04529             -18.00    23200.00
04530              10.80    24000.00
04531              -3.00    24000.00
04532             -11.60    24800.00
04533              11.80    25600.00
04534              -0.60    25600.00
04535             -19.60    25600.00
04536              16.20    26400.00
04537              -8.40    26400.00
04538             -10.60    27200.00
04539              10.80    27200.00
04540              -6.80    28000.00
04541              -6.00    28000.00
04542               3.40    28800.00
04543              -3.60    28800.00
04544              -5.60    29600.00
04545               3.00    29600.00
04546              -4.20    30400.00
04547              -4.60    30400.00
04548               1.00    30400.00
04549              -4.60    31200.00
04550              -2.80    31200.00
04551               2.60    31200.00
04552              -6.00    31200.00
04553              -1.20    32000.00
04554              -0.20    32800.00
04555              -6.20    32000.00
04556              -0.60    32800.00
04557              -2.20    32000.00
04558              -3.80    32800.00
04559              -0.60    32800.00
04560              -2.00    32800.00
04561              -3.80    33600.00
04562              -2.60    33600.00
04563              -2.00    33600.00
04564              -2.80    34400.00
04565              -2.20    33600.00
04566              -1.80    34400.00
04567              -3.80    33600.00
04568              -1.00    33600.00
04569              -2.60    33600.00
04570              -3.80    33600.00
04571              -1.20    33600.00
04572              -4.20    33600.00
04573              -2.00    34400.00
04574              -2.00    34400.00
04575              -4.20    33600.00
04576              -1.60    33600.00
04577              -2.20    34400.00
04578              -2.60    33600.00
04579              -2.60    33600.00
04580              -2.40    33600.00
04581              -2.60    33600.00
04582              -2.60    33600.00
04583              -2.00    33600.00
04584              -3.00    33600.00
04585              -2.60    33600.00
04586              -2.20    33600.00
04587              -3.00    32800.00
04588              -2.20    32000.00
04589              -3.00    32000.00
04590              -2.60    32000.00
04591              -1.80    31200.00
04592              -2.80    32000.00
04593              -2.40    31200.00
04594              -2.00    31200.00
04595              -2.60    31200.00
04596              -2.20    30400.00
04597              -2.20    31200.00
04598              -2.40    30400.00
04599              -2.60    30400.00
04600              -2.20    28800.00
04601              -2.00    28800.00
04602              -2.60    28800.00
04603              -2.00    28000.00
04604              -2.00    28000.00
04605              -2.00    27200.00
04606              -1.80    27200.00
04607              -2.60    27200.00
04608              -1.40    27200.00
04609              -1.60    25600.00
04610              -2.20    25600.00
04611              -1.80    24800.00
04612              -2.00    24800.00
04613              -2.00    24000.00
04614              -1.60    24000.00
04615              -1.40    24000.00
04616              -2.00    24000.00
04617              -1.80    22400.00
04618              -1.40    22400.00
04619              -2.00    21600.00
04620              -2.00    21600.00
04621              -1.80    20800.00
04622              -1.80    20000.00
04623              -1.20    19200.00
04624              -1.20    18400.00
04625              -1.60    18400.00
04626              -1.40    18400.00
04627              -1.40    17600.00
04628              -1.20    16800.00
04629              -1.40    16000.00
04630              -1.60    15200.00
04631              -1.20    15200.00
04632              -1.20    14400.00
04633              -1.20    14400.00
04634              -1.40    13600.00
04635              -1.20    12800.00
04636              -1.00    12000.00
04637              -1.20    12000.00
04638              -1.20    11200.00
04639              -1.20    10400.00
04640              -1.20    10400.00
04641              -0.20     9600.00
04642              -1.40     8800.00
04643              -0.80     8000.00
04644              -1.00     8000.00
04645              -0.60     7200.00
04646              -1.20     6400.00
04647              -1.00     5600.00
04648              -0.40     4800.00
04649              -0.60     4000.00
04650              -1.20     3200.00
04651              -0.60     3200.00
04652              -0.40     2400.00
04653              -1.20     1600.00
04654              -0.40     1600.00
04655               0.20        0.00
04656              -0.20        0.00
04657               0.20     -800.00
04658               3.40    -1600.00
04659               1.20    -1600.00
04660              -1.60    -1600.00
04661               1.20    -3200.00
04662               1.80    -3200.00
04663              -0.20    -4000.00
04664               1.60    -4000.00
04665              11.60    -4800.00
04666              25.00    -6400.00
04667             -23.00    -7200.00
04668             -25.00    -8000.00
04669              20.40    -8000.00
04670              13.20    -8800.00
04671             -25.00    -8000.00
04672               7.00    -8800.00
04673              25.00   -10400.00
04674             -25.00   -10400.00
04675              -2.00   -11200.00
04676              25.00   -12800.00
04677             -25.00   -12000.00
04678              13.60   -13600.00
04679              10.20   -12800.00
04680              -8.20   -14400.00
04681              20.60   -14400.00
04682             -25.00   -14400.00
04683              25.00   -16000.00
04684              13.00   -16000.00
04685             -25.00   -16800.00
04686              22.80   -17600.00
04687              18.80   -17600.00
04688             -25.00   -18400.00
04689               2.60   -18400.00
04690              25.00   -20000.00
04691             -25.00   -20000.00
04692               9.20   -20800.00
04693              19.40   -20800.00
04694             -17.20   -20800.00
04695               9.00   -22400.00
04696               2.80   -23200.00
04697              -6.60   -23200.00
04698               5.80   -23200.00
04699               3.80   -24000.00
04700              -4.60   -24000.00
04701              10.80   -25600.00
04702              -2.00   -25600.00
04703              -4.40   -25600.00
04704              11.40   -25600.00
04705              -5.80   -26400.00
04706               1.00   -26400.00
04707               7.80   -27200.00
04708              -1.80   -27200.00
04709              -0.20   -28000.00
04710               5.40   -28000.00
04711              -0.20   -28800.00
04712               0.80   -28800.00
04713               4.40   -28800.00
04714              -0.60   -29600.00
04715               1.00   -29600.00
04716               3.60   -29600.00
04717              -0.20   -30400.00
04718               2.40   -30400.00
04719               3.80   -30400.00
04720              -0.40   -31200.00
04721               3.00   -31200.00
04722               2.00   -32000.00
04723               0.40   -32000.00
04724               2.20   -32800.00
04725               2.00   -32000.00
04726               2.60   -32000.00
04727               2.00   -32800.00
04728               1.80   -32800.00
04729               1.80   -32800.00
04730               1.40   -32800.00
04731               2.20   -32800.00
04732               1.60   -32800.00
04733               2.20   -32800.00
04734               2.60   -33600.00
04735               1.20   -32800.00
04736               2.60   -32800.00
04737               1.80   -32800.00
04738               2.00   -33600.00
04739               2.60   -32800.00
04740               1.80   -32800.00
04741               2.60   -32800.00
04742               1.80   -33600.00
04743               2.00   -33600.00
04744               2.20   -32800.00
04745               1.80   -32800.00
04746               2.00   -32800.00
04747               1.80   -32800.00
04748               2.20   -32800.00
04749               1.80   -32800.00
04750               2.00   -32000.00
04751               2.40   -32000.00
04752               1.80   -32000.00
04753               2.20   -32000.00
04754               1.80   -32000.00
04755               1.80   -32000.00
04756               2.00   -32000.00
04757               1.40   -31200.00
04758               2.00   -31200.00
04759               2.00   -30400.00
04760               1.60   -30400.00
04761               2.00   -29600.00
04762               1.80   -29600.00
04763               1.80   -29600.00
04764               2.20   -29600.00
04765               1.40   -28800.00
04766               1.80   -28800.00
04767               1.20   -28800.00
04768               1.80   -28800.00
04769               1.40   -27200.00
04770               1.60   -27200.00
04771               1.40   -27200.00
04772               1.20   -26400.00
04773               1.20   -26400.00
04774               1.00   -25600.00
04775               1.20   -25600.00
04776               1.40   -24800.00
04777               1.20   -24800.00
04778               1.20   -24800.00
04779               1.00   -24000.00
04780               1.20   -24000.00
04781               1.20   -23200.00
04782               1.00   -23200.00
04783               1.00   -22400.00
04784               1.20   -20800.00
04785               1.00   -20800.00
04786               1.00   -20800.00
04787               0.60   -20000.00
04788               0.60   -20000.00
04789               1.00   -18400.00
04790               1.00   -18400.00
04791               0.80   -17600.00
04792               0.60   -17600.00
04793               0.80   -16800.00
04794               0.80   -16000.00
04795               0.60   -16000.00
04796               1.00   -16000.00
04797               0.40   -15200.00
04798               0.60   -14400.00
04799               0.40   -13600.00
04800               0.20   -13600.00
04801               0.20   -12800.00
04802               0.20   -12000.00
04803               0.40   -11200.00
04804               0.40   -11200.00
04805               0.20    -9600.00
04806               0.40    -9600.00
04807               0.20    -9600.00
04808               0.20    -8800.00
04809               0.40    -8000.00
04810              -0.20    -8000.00
04811               0.20    -6400.00
04812               0.20    -6400.00
04813              -0.20    -5600.00
04814              -0.20    -4800.00
04815              -0.20    -4000.00
04816              -0.40    -3200.00
04817               0.00    -3200.00
04818              -0.40    -2400.00
04819              -0.40     -800.00
04820              -0.20    -1600.00
04821              -0.40        0.00
04822              -0.20        0.00
04823               0.20      800.00
04824               0.20     1600.00
04825               3.40     2400.00
04826              -1.00     2400.00
04827              -1.80     3200.00
04828               0.80     3200.00
04829               0.20     4000.00
04830              -1.40     4800.00
04831               9.40     5600.00
04832              25.00     7200.00
04833             -23.80     7200.00
04834             -25.00     8000.00
04835              21.20     8800.00
04836               8.40     8800.00
04837             -25.00     8800.00
04838              25.00    10400.00
04839              25.00    11200.00
04840             -25.00    11200.00
04841              25.00    12000.00
04842             -20.20    12000.00
04843             -25.00    12800.00
04844              25.00    12800.00
04845             -25.00    14400.00
04846              25.00    15200.00
04847             -15.80    15200.00
04848             -25.00    16000.00
04849              25.00    16000.00
04850             -25.00    17600.00
04851             -15.60    17600.00
04852              25.00    17600.00
04853             -18.80    18400.00
04854             -25.00    19200.00
04855              25.00    19200.00
04856              -2.80    20800.00
04857             -25.00    20800.00
04858              25.00    21600.00
04859             -18.20    21600.00
04860              -1.20    22400.00
04861              10.00    22400.00
04862             -21.40    22400.00
04863               8.60    24000.00
04864               1.00    24000.00
04865             -13.20    24000.00
04866               7.60    24800.00
04867               6.40    24800.00
04868             -22.20    25600.00
04869              12.20    26400.00
04870              -1.00    27200.00
04871             -15.60    27200.00
04872              10.60    27200.00
04873              -3.80    28000.00
04874              -7.00    28000.00
04875               2.80    28800.00
04876              -1.80    28800.00
04877              -6.80    28800.00
04878               2.00    29600.00
04879              -2.80    29600.00
04880              -5.40    30400.00
04881               0.40    30400.00
04882              -3.40    31200.00
04883              -4.20    31200.00
04884               2.40    32000.00
04885              -4.40    32000.00
04886              -2.60    32800.00
04887               1.00    32000.00
04888              -5.80    32800.00
04889              -1.20    32000.00
04890              -1.80    33600.00
04891              -4.00    32800.00
04892              -0.60    33600.00
04893              -2.20    32800.00
04894              -3.60    33600.00
04895              -2.80    33600.00
04896              -2.40    33600.00
04897              -2.80    33600.00
04898              -2.60    33600.00
04899              -1.80    33600.00
04900              -3.80    33600.00
04901              -1.40    33600.00
04902              -2.20    33600.00
04903              -4.20    34400.00
04904              -1.20    33600.00
04905              -3.60    33600.00
04906              -2.20    33600.00
04907              -1.40    34400.00
04908              -4.40    33600.00
04909              -2.20    33600.00
04910              -2.20    33600.00
04911              -2.80    33600.00
04912              -2.80    33600.00
04913              -2.80    33600.00
04914              -2.40    33600.00
04915              -2.80    33600.00
04916              -2.20    33600.00
04917              -2.60    33600.00
04918              -3.00    33600.00
04919              -2.20    33600.00
04920              -2.60    32000.00
04921              -2.20    32800.00
04922              -3.40    32000.00
04923              -2.40    32000.00
04924              -1.40    32800.00
04925              -2.80    31200.00
04926              -2.60    31200.00
04927              -1.80    31200.00
04928              -2.60    31200.00
04929              -2.20    31200.00
04930              -2.20    30400.00
04931              -2.00    30400.00
04932              -2.60    29600.00
04933              -2.60    29600.00
04934              -1.20    28800.00
04935              -2.40    28800.00
04936              -2.40    28800.00
04937              -1.40    28000.00
04938              -1.60    27200.00
04939              -2.20    27200.00
04940              -2.60    27200.00
04941              -1.80    27200.00
04942              -1.40    25600.00
04943              -2.20    25600.00
04944              -2.00    25600.00
04945              -2.00    24800.00
04946              -1.80    24800.00
04947              -1.80    24000.00
04948              -1.80    24000.00
04949              -1.20    24000.00
04950              -1.80    22400.00
04951              -1.60    22400.00
04952              -1.60    21600.00
04953              -1.80    21600.00
04954              -2.00    20800.00
04955              -2.00    20800.00
04956              -0.60    20000.00
04957              -1.20    19200.00
04958              -1.80    18400.00
04959              -1.20    18400.00
04960              -1.60    17600.00
04961              -2.00    16800.00
04962              -1.80    16000.00
04963              -1.00    16000.00
04964              -0.60    15200.00
04965              -2.20    14400.00
04966              -0.20    14400.00
04967              -0.60    13600.00
04968              -2.20    12800.00
04969              -1.40    12000.00
04970              -0.60    12000.00
04971              -1.40    11200.00
04972              -1.80    11200.00
04973              -0.60    10400.00
04974              -0.20     9600.00
04975              -2.00     8800.00
04976              -1.00     8000.00
04977              -0.40     8000.00
04978              -1.20     8000.00
04979              -1.20     6400.00
04980               0.00     5600.00
04981              -1.20     5600.00
04982              -1.00     4800.00
04983               0.20     4000.00
04984               0.00     3200.00
04985              -1.20     3200.00
04986              -0.60     1600.00
04987              -0.60     1600.00
04988              -0.60      800.00
04989              -0.20        0.00
04990               0.60     -800.00
04991               2.80     -800.00
04992               2.60    -1600.00
04993              -1.80    -1600.00
04994               1.20    -1600.00
04995               1.20    -3200.00
04996              -0.60    -4000.00
04997               1.00    -4000.00
04998               9.60    -4800.00
04999              25.00    -6400.00
05000              -8.40    -7200.00
