Unit:(mV)
                     CH1         CH2
Frequency              ? 300.100 kHz
00001              18.80    -5600.00
00002              19.40    -7200.00
00003             -25.00    -7200.00
00004             -15.80    -8000.00
00005              25.00    -8000.00
00006             -13.40    -8000.00
00007             -25.00    -8000.00
00008              25.00    -9600.00
00009              22.20   -10400.00
00010             -25.00   -10400.00
00011              25.00   -11200.00
00012               0.60   -11200.00
00013             -25.00   -12800.00
00014              25.00   -13600.00
00015             -25.00   -13600.00
00016              18.60   -14400.00
00017               2.80   -14400.00
00018             -23.00   -14400.00
00019              25.00   -16000.00
00020             -17.40   -16000.00
00021             -13.00   -16800.00
00022              25.00   -16800.00
00023              -6.60   -17600.00
00024             -20.40   -17600.00
00025              25.00   -18400.00
00026               0.60   -19200.00
00027             -21.40   -18400.00
00028              25.00   -20000.00
00029              -4.60   -20000.00
00030              -6.20   -20800.00
00031              21.20   -20800.00
00032             -10.00   -22400.00
00033               1.20   -22400.00
00034              15.60   -22400.00
00035              -3.00   -23200.00
00036               3.40   -24000.00
00037              17.00   -23200.00
00038              -8.20   -24000.00
00039               7.40   -24800.00
00040              11.80   -25600.00
00041              -5.80   -25600.00
00042              11.60   -25600.00
00043               7.60   -26400.00
00044               0.60   -26400.00
00045               7.80   -27200.00
00046               8.20   -27200.00
00047               2.60   -27200.00
00048               8.80   -28800.00
00049               7.80   -28800.00
00050               2.80   -28800.00
00051               9.80   -28800.00
00052               6.20   -28800.00
00053               4.60   -29600.00
00054              10.60   -28800.00
00055               6.80   -29600.00
00056               5.80   -29600.00
00057              10.20   -29600.00
00058               6.40   -30400.00
00059               7.60   -30400.00
00060               9.40   -31200.00
00061               8.20   -30400.00
00062               9.40   -31200.00
00063               8.60   -31200.00
00064               8.40   -32000.00
00065               8.80   -32000.00
00066               9.40   -32000.00
00067              10.00   -32000.00
00068               9.80   -32000.00
00069              10.60   -32000.00
00070               9.80   -32000.00
00071              10.20   -32000.00
00072              10.60   -32000.00
00073              10.00   -32000.00
00074              11.80   -32000.00
00075              10.00   -32000.00
00076              10.80   -32000.00
00077              11.60   -32000.00
00078               9.60   -32000.00
00079              10.80   -32000.00
00080              10.80   -32000.00
00081              10.00   -32000.00
00082              10.00   -32000.00
00083              10.60   -30400.00
00084               9.80   -31200.00
00085               8.60   -30400.00
00086               9.80   -31200.00
00087               9.20   -31200.00
00088               8.40   -31200.00
00089               9.20   -30400.00
00090               8.20   -30400.00
00091               7.80   -30400.00
00092               8.20   -29600.00
00093               7.60   -30400.00
00094               7.60   -29600.00
00095               7.60   -29600.00
00096               7.40   -29600.00
00097               7.00   -28800.00
00098               6.80   -28800.00
00099               6.80   -28000.00
00100               6.60   -28800.00
00101               6.60   -28000.00
00102               6.40   -27200.00
00103               5.80   -27200.00
00104               5.80   -27200.00
00105               5.00   -26400.00
00106               5.40   -26400.00
00107               5.80   -25600.00
00108               4.60   -26400.00
00109               5.20   -24800.00
00110               5.00   -24000.00
00111               4.80   -24000.00
00112               4.40   -24000.00
00113               4.20   -24000.00
00114               4.60   -23200.00
00115               3.80   -23200.00
00116               3.60   -22400.00
00117               4.20   -22400.00
00118               3.60   -21600.00
00119               3.00   -20800.00
00120               3.40   -20800.00
00121               3.40   -20000.00
00122               2.80   -20000.00
00123               2.40   -19200.00
00124               2.80   -18400.00
00125               3.20   -18400.00
00126               2.60   -17600.00
00127               2.20   -17600.00
00128               2.60   -16800.00
00129               2.20   -16000.00
00130               1.40   -16000.00
00131               2.20   -15200.00
00132               2.00   -14400.00
00133               1.80   -14400.00
00134               2.00   -13600.00
00135               1.00   -13600.00
00136               1.20   -12000.00
00137               1.40   -12000.00
00138               0.40   -11200.00
00139               1.80   -11200.00
00140               1.20   -10400.00
00141               0.40    -9600.00
00142               1.40    -9600.00
00143               0.80    -8800.00
00144               0.40    -8000.00
00145               0.60    -7200.00
00146               0.40    -6400.00
00147               0.80    -6400.00
00148              -0.20    -5600.00
00149              -0.60    -4000.00
00150               1.20    -4800.00
00151               1.20    -4000.00
00152              -0.40    -3200.00
00153               0.40    -2400.00
00154              -0.20    -3200.00
00155              -1.80     -800.00
00156              -0.20     -800.00
00157               0.60        0.00
00158              -0.20        0.00
00159               0.40        0.00
00160               2.00     1600.00
00161               2.20     1600.00
00162              -3.80     2400.00
00163              -0.60     3200.00
00164               0.80     3200.00
00165              -0.60     4000.00
00166               2.20     4800.00
00167              17.00     5600.00
00168              25.00     7200.00
00169             -25.00     8000.00
00170             -22.00     8000.00
00171              25.00     8000.00
00172             -21.40     8000.00
00173             -21.80     9600.00
00174              25.00     9600.00
00175             -25.00     9600.00
00176              -5.00    11200.00
00177              25.00    11200.00
00178             -25.00    12000.00
00179              25.00    12800.00
00180               0.60    12000.00
00181             -25.00    12800.00
00182              25.00    14400.00
00183             -25.00    14400.00
00184              23.80    15200.00
00185              25.00    15200.00
00186             -25.00    16000.00
00187              25.00    16000.00
00188              16.40    17600.00
00189             -25.00    18400.00
00190              -2.00    17600.00
00191              25.00    19200.00
00192             -25.00    19200.00
00193               2.00    19200.00
00194              25.00    20000.00
00195             -25.00    21600.00
00196              17.80    21600.00
00197              -7.40    21600.00
00198             -21.00    22400.00
00199               9.00    22400.00
00200              -5.00    24000.00
00201             -13.00    23200.00
00202               8.20    24000.00
00203              -5.00    24000.00
00204             -18.00    24800.00
00205              10.00    25600.00
00206             -14.40    25600.00
00207              -7.60    25600.00
00208               3.00    26400.00
00209             -10.80    27200.00
00210              -6.00    26400.00
00211              -3.00    28000.00
00212              -7.60    28000.00
00213              -9.00    28000.00
00214              -1.80    28000.00
00215              -9.40    28800.00
00216              -9.00    28800.00
00217              -3.40    28800.00
00218             -10.60    29600.00
00219              -7.40    28800.00
00220              -3.40    30400.00
00221             -11.20    30400.00
00222              -6.20    30400.00
00223              -7.00    30400.00
00224             -11.40    31200.00
00225              -6.00    31200.00
00226              -9.40    31200.00
00227              -9.40    31200.00
00228              -7.60    31200.00
00229              -9.20    32000.00
00230             -10.80    32800.00
00231              -9.80    32000.00
00232              -9.20    32800.00
00233             -11.00    32000.00
00234              -9.20    32000.00
00235             -10.20    32800.00
00236             -12.00    32800.00
00237              -8.60    32800.00
00238             -11.60    32000.00
00239             -11.60    32800.00
00240             -10.20    32800.00
00241             -12.60    32000.00
00242             -10.00    32800.00
00243             -11.80    32800.00
00244             -12.40    32800.00
00245             -10.00    32800.00
00246             -11.00    32800.00
00247             -10.80    32800.00
00248             -10.80    32000.00
00249             -10.80    32800.00
00250             -10.80    32000.00
00251             -10.00    32800.00
00252              -9.80    32000.00
00253             -10.20    31200.00
00254              -8.60    31200.00
00255              -9.20    31200.00
00256              -9.40    31200.00
00257              -8.40    31200.00
00258              -9.40    31200.00
00259              -8.40    30400.00
00260              -7.80    30400.00
00261              -8.80    30400.00
00262              -7.80    30400.00
00263              -7.60    29600.00
00264              -7.80    29600.00
00265              -7.40    29600.00
00266              -7.40    28800.00
00267              -7.40    28800.00
00268              -7.40    28000.00
00269              -6.20    28000.00
00270              -6.60    27200.00
00271              -6.80    27200.00
00272              -6.00    27200.00
00273              -6.00    27200.00
00274              -5.80    26400.00
00275              -5.80    26400.00
00276              -6.00    25600.00
00277              -5.20    25600.00
00278              -5.20    25600.00
00279              -5.20    24000.00
00280              -4.80    24800.00
00281              -5.20    24000.00
00282              -4.40    24000.00
00283              -4.40    22400.00
00284              -4.20    22400.00
00285              -4.40    22400.00
00286              -4.20    21600.00
00287              -3.40    20800.00
00288              -4.20    20000.00
00289              -3.80    19200.00
00290              -3.60    19200.00
00291              -3.80    19200.00
00292              -3.00    18400.00
00293              -3.60    17600.00
00294              -3.60    18400.00
00295              -2.80    17600.00
00296              -3.00    16800.00
00297              -2.80    16000.00
00298              -2.80    15200.00
00299              -2.20    15200.00
00300              -2.60    14400.00
00301              -2.20    14400.00
00302              -2.20    12800.00
00303              -2.80    12800.00
00304              -2.20    12000.00
00305              -2.00    12000.00
00306              -2.20    11200.00
00307              -1.80    10400.00
00308              -2.40     9600.00
00309              -1.00     9600.00
00310              -1.40     8800.00
00311              -2.20     8000.00
00312              -0.60     8000.00
00313              -1.80     7200.00
00314              -2.00     6400.00
00315              -1.00     5600.00
00316              -1.20     4800.00
00317              -1.20     4800.00
00318              -1.00     4000.00
00319              -0.60     3200.00
00320              -0.80     2400.00
00321              -1.40     2400.00
00322              -0.60     1600.00
00323              -0.60      800.00
00324              -0.60        0.00
00325              -0.20        0.00
00326               0.40     -800.00
00327               4.20     -800.00
00328              -0.60    -1600.00
00329              -1.00    -1600.00
00330               2.20    -3200.00
00331               0.60    -2400.00
00332              -0.20    -3200.00
00333               3.40    -4000.00
00334              14.40    -4800.00
00335              25.00    -6400.00
00336             -25.00    -7200.00
00337             -25.00    -8000.00
00338              25.00    -8000.00
00339               1.40    -8800.00
00340             -25.00    -8000.00
00341              25.00    -8800.00
00342              25.00    -9600.00
00343             -25.00    -9600.00
00344              25.00   -11200.00
00345              25.00   -12000.00
00346             -25.00   -11200.00
00347              25.00   -12800.00
00348             -12.20   -13600.00
00349               1.80   -13600.00
00350              20.20   -14400.00
00351             -25.00   -14400.00
00352              25.00   -15200.00
00353              -0.60   -16000.00
00354             -24.60   -16800.00
00355              25.00   -16800.00
00356               4.20   -17600.00
00357             -25.00   -17600.00
00358              20.40   -17600.00
00359              14.80   -19200.00
00360             -25.00   -20000.00
00361              25.00   -20000.00
00362               8.20   -20800.00
00363             -15.60   -20800.00
00364              22.20   -20800.00
00365              -3.40   -22400.00
00366              -5.00   -22400.00
00367              15.40   -22400.00
00368               2.20   -23200.00
00369              -2.20   -24000.00
00370              18.00   -24000.00
00371              -3.00   -24000.00
00372               0.20   -24800.00
00373              15.00   -25600.00
00374              -4.40   -25600.00
00375               7.40   -26400.00
00376              10.40   -25600.00
00377               1.40   -26400.00
00378               6.00   -27200.00
00379               9.20   -27200.00
00380               2.80   -27200.00
00381               6.40   -28000.00
00382               9.20   -28000.00
00383               2.60   -28800.00
00384               8.00   -28800.00
00385               8.20   -28800.00
00386               3.40   -28800.00
00387               9.80   -29600.00
00388               8.80   -29600.00
00389               4.60   -29600.00
00390              10.00   -30400.00
00391               7.80   -30400.00
00392               5.80   -30400.00
00393              10.00   -31200.00
00394               8.60   -30400.00
00395               8.60   -30400.00
00396              10.00   -32000.00
00397               8.40   -31200.00
00398               7.80   -31200.00
00399              10.20   -31200.00
00400               9.20   -31200.00
00401               9.00   -32000.00
00402              11.40   -32000.00
00403               9.40   -32000.00
00404              11.00   -32000.00
00405              11.00   -32000.00
00406               8.60   -32800.00
00407              12.40   -32000.00
00408              10.60   -32000.00
00409              10.20   -32000.00
00410              12.40   -32000.00
00411               9.00   -32000.00
00412              10.80   -32000.00
00413              11.20   -32000.00
00414               9.20   -32000.00
00415              10.80   -31200.00
00416               9.40   -32000.00
00417               9.40   -31200.00
00418               9.40   -30400.00
00419               9.20   -31200.00
00420               9.40   -30400.00
00421               9.00   -30400.00
00422               9.20   -30400.00
00423               7.80   -30400.00
00424               8.00   -30400.00
00425               8.40   -29600.00
00426               7.40   -29600.00
00427               8.20   -29600.00
00428               8.20   -29600.00
00429               7.00   -28800.00
00430               7.00   -28800.00
00431               6.80   -28800.00
00432               6.60   -28800.00
00433               6.60   -28000.00
00434               6.20   -28000.00
00435               6.60   -28000.00
00436               5.40   -27200.00
00437               6.20   -27200.00
00438               5.40   -26400.00
00439               5.00   -26400.00
00440               5.80   -26400.00
00441               5.40   -25600.00
00442               4.20   -25600.00
00443               4.40   -25600.00
00444               4.60   -24800.00
00445               4.60   -24000.00
00446               4.40   -24000.00
00447               4.40   -23200.00
00448               3.80   -23200.00
00449               3.60   -22400.00
00450               3.60   -22400.00
00451               3.40   -21600.00
00452               3.60   -20800.00
00453               3.40   -20800.00
00454               3.60   -20000.00
00455               3.20   -20000.00
00456               2.20   -18400.00
00457               3.00   -19200.00
00458               2.60   -18400.00
00459               2.20   -17600.00
00460               2.80   -17600.00
00461               2.20   -16800.00
00462               2.00   -16800.00
00463               2.20   -16000.00
00464               2.00   -16000.00
00465               2.00   -14400.00
00466               1.80   -13600.00
00467               1.40   -13600.00
00468               1.80   -13600.00
00469               1.20   -12800.00
00470               1.20   -12000.00
00471               1.80   -11200.00
00472               1.80   -11200.00
00473               0.60   -10400.00
00474               1.40    -9600.00
00475               1.20    -9600.00
00476               0.20    -8800.00
00477               1.20    -8000.00
00478               0.80    -7200.00
00479              -0.40    -7200.00
00480               0.60    -6400.00
00481               0.60    -5600.00
00482               0.40    -4800.00
00483               0.60    -4000.00
00484               0.00    -4000.00
00485              -0.20    -3200.00
00486               0.80    -3200.00
00487               0.20    -2400.00
00488              -0.20    -1600.00
00489               0.20     -800.00
00490              -0.60     -800.00
00491              -0.60        0.00
00492               0.60      800.00
00493               0.20     1600.00
00494               3.00     2400.00
00495              -1.40     2400.00
00496              -1.40     2400.00
00497               0.60     3200.00
00498              -0.40     4000.00
00499              -0.80     4800.00
00500              12.60     4800.00
00501              25.00     7200.00
00502             -25.00     7200.00
00503             -25.00     8000.00
00504              25.00     8000.00
00505              -6.00     8000.00
00506             -25.00     8000.00
00507              25.00     9600.00
00508             -14.60     9600.00
00509             -25.00    11200.00
00510              25.00    11200.00
00511             -25.00    11200.00
00512               4.40    12800.00
00513              25.00    12800.00
00514             -25.00    12800.00
00515              25.00    14400.00
00516             -25.00    14400.00
00517             -19.00    15200.00
00518              25.00    15200.00
00519             -25.00    16000.00
00520              12.20    16800.00
00521              25.00    17600.00
00522             -25.00    18400.00
00523             -15.00    18400.00
00524              25.00    18400.00
00525             -24.40    19200.00
00526             -17.60    19200.00
00527              25.00    20800.00
00528             -25.00    21600.00
00529               5.20    21600.00
00530               6.80    21600.00
00531             -25.00    22400.00
00532               6.80    22400.00
00533              -0.20    22400.00
00534             -14.60    24000.00
00535               2.80    24000.00
00536               2.60    24800.00
00537             -21.40    24800.00
00538               7.40    25600.00
00539              -7.00    25600.00
00540             -13.40    26400.00
00541               5.00    26400.00
00542              -9.80    27200.00
00543              -7.60    27200.00
00544              -2.80    27200.00
00545              -6.20    28000.00
00546              -9.40    28000.00
00547              -2.20    28000.00
00548              -7.40    28800.00
00549             -10.60    28800.00
00550              -3.40    28800.00
00551              -9.00    29600.00
00552              -8.60    30400.00
00553              -2.40    30400.00
00554             -10.60    30400.00
00555              -8.20    30400.00
00556              -6.00    30400.00
00557             -11.60    31200.00
00558              -7.00    31200.00
00559              -8.20    31200.00
00560              -9.60    32000.00
00561              -7.60    31200.00
00562              -9.00    32000.00
00563             -10.20    32800.00
00564             -10.20    32800.00
00565              -9.20    32800.00
00566             -10.20    32000.00
00567             -10.00    32800.00
00568              -9.80    32800.00
00569             -11.80    32000.00
00570              -9.60    32800.00
00571             -11.00    32800.00
00572             -11.80    32800.00
00573             -10.00    32800.00
00574             -12.60    32000.00
00575             -10.20    32800.00
00576             -11.00    32800.00
00577             -12.60    32800.00
00578             -10.20    32800.00
00579             -11.00    32000.00
00580             -11.00    32800.00
00581             -10.80    32800.00
00582             -11.00    32000.00
00583             -10.60    32000.00
00584             -10.20    32000.00
00585             -10.00    32000.00
00586             -10.20    32000.00
00587              -9.40    32800.00
00588              -9.20    32000.00
00589              -9.40    31200.00
00590              -8.60    31200.00
00591              -9.40    31200.00
00592              -8.60    31200.00
00593              -7.80    30400.00
00594              -8.40    30400.00
00595              -7.80    30400.00
00596              -7.80    30400.00
00597              -7.80    30400.00
00598              -7.40    28800.00
00599              -7.40    28800.00
00600              -7.40    28800.00
00601              -7.00    28000.00
00602              -6.20    28000.00
00603              -6.20    28000.00
00604              -7.00    28000.00
00605              -5.60    27200.00
00606              -6.00    27200.00
00607              -6.00    25600.00
00608              -5.40    26400.00
00609              -6.00    25600.00
00610              -5.40    25600.00
00611              -5.00    24800.00
00612              -5.20    24800.00
00613              -4.60    24000.00
00614              -5.40    24000.00
00615              -4.60    24000.00
00616              -4.20    22400.00
00617              -4.40    22400.00
00618              -4.40    21600.00
00619              -4.00    21600.00
00620              -3.80    21600.00
00621              -4.20    20800.00
00622              -3.60    20000.00
00623              -3.80    19200.00
00624              -3.80    19200.00
00625              -2.80    18400.00
00626              -3.60    17600.00
00627              -3.80    18400.00
00628              -3.00    17600.00
00629              -3.00    16800.00
00630              -2.40    15200.00
00631              -2.60    15200.00
00632              -2.80    15200.00
00633              -2.20    14400.00
00634              -2.80    13600.00
00635              -2.40    14400.00
00636              -2.20    12800.00
00637              -2.20    12800.00
00638              -1.80    12000.00
00639              -2.00    11200.00
00640              -2.40    11200.00
00641              -2.20     9600.00
00642              -1.40     8800.00
00643              -1.80     8800.00
00644              -2.20     8000.00
00645              -1.20     8000.00
00646              -2.00     7200.00
00647              -1.80     7200.00
00648              -0.60     6400.00
00649              -1.20     5600.00
00650              -1.20     4800.00
00651              -0.60     3200.00
00652              -1.40     3200.00
00653              -1.00     3200.00
00654              -0.60     2400.00
00655              -1.20     1600.00
00656              -0.40     1600.00
00657              -0.20        0.00
00658              -0.20        0.00
00659               0.40     -800.00
00660               2.80    -1600.00
00661               1.00     -800.00
00662              -1.20    -1600.00
00663               1.20    -1600.00
00664               1.20    -3200.00
00665               0.40    -3200.00
00666               1.80    -4000.00
00667              10.80    -4000.00
00668              25.00    -6400.00
00669             -17.40    -7200.00
00670             -25.00    -8000.00
00671              17.80    -8000.00
00672              14.60    -8000.00
00673             -25.00    -8000.00
00674              10.80    -8000.00
00675              25.00    -9600.00
00676             -25.00    -9600.00
00677              10.60   -11200.00
00678              25.00   -11200.00
00679             -25.00   -11200.00
00680              25.00   -12800.00
00681              11.00   -12800.00
00682             -16.00   -13600.00
00683              25.00   -13600.00
00684             -25.00   -14400.00
00685              23.60   -16000.00
00686              18.60   -16000.00
00687             -25.00   -16800.00
00688              24.20   -17600.00
00689              17.40   -17600.00
00690             -25.00   -17600.00
00691               7.80   -17600.00
00692              25.00   -19200.00
00693             -25.00   -18400.00
00694              16.20   -19200.00
00695              21.80   -20800.00
00696             -20.60   -20800.00
00697              18.00   -20800.00
00698               4.60   -22400.00
00699             -10.00   -22400.00
00700              13.80   -22400.00
00701               7.60   -23200.00
00702              -5.80   -23200.00
00703              15.80   -24000.00
00704               3.20   -24000.00
00705              -5.80   -24800.00
00706              16.20   -25600.00
00707              -1.20   -25600.00
00708               2.60   -25600.00
00709              12.40   -26400.00
00710               1.80   -26400.00
00711               3.60   -26400.00
00712               9.80   -27200.00
00713               4.00   -27200.00
00714               4.60   -27200.00
00715              10.20   -28000.00
00716               3.60   -28800.00
00717               6.00   -28800.00
00718               9.80   -28800.00
00719               3.60   -29600.00
00720               8.20   -29600.00
00721              10.20   -28800.00
00722               4.20   -30400.00
00723               9.00   -30400.00
00724               8.60   -30400.00
00725               5.80   -30400.00
00726               9.20   -31200.00
00727               8.60   -30400.00
00728               9.00   -30400.00
00729               9.80   -31200.00
00730               8.60   -32000.00
00731               9.00   -31200.00
00732               9.20   -32000.00
00733               9.80   -32000.00
00734               9.40   -32000.00
00735              10.60   -32000.00
00736              10.60   -32000.00
00737              10.00   -32000.00
00738              10.80   -32000.00
00739               9.80   -32000.00
00740              10.80   -32000.00
00741              11.20   -32000.00
00742              10.60   -32000.00
00743              11.60   -32000.00
00744              10.40   -32000.00
00745              10.80   -32000.00
00746              11.00   -32000.00
00747              10.20   -32000.00
00748              10.20   -32000.00
00749               9.20   -32000.00
00750               9.80   -32000.00
00751              10.00   -32000.00
00752               9.40   -30400.00
00753               9.40   -31200.00
00754               9.20   -30400.00
00755               9.00   -30400.00
00756               7.80   -30400.00
00757               8.40   -30400.00
00758               8.40   -29600.00
00759               7.40   -30400.00
00760               8.60   -29600.00
00761               8.40   -29600.00
00762               6.60   -28800.00
00763               7.00   -28800.00
00764               6.80   -28800.00
00765               6.00   -28800.00
00766               7.40   -28800.00
00767               6.60   -28800.00
00768               5.80   -27200.00
00769               6.00   -27200.00
00770               5.80   -27200.00
00771               5.00   -27200.00
00772               5.40   -26400.00
00773               5.20   -26400.00
00774               5.20   -26400.00
00775               5.00   -25600.00
00776               4.40   -24800.00
00777               4.40   -24800.00
00778               5.20   -24000.00
00779               4.40   -24000.00
00780               3.80   -24000.00
00781               3.60   -22400.00
00782               3.40   -23200.00
00783               3.60   -22400.00
00784               3.80   -21600.00
00785               3.00   -20800.00
00786               3.20   -20800.00
00787               3.60   -20800.00
00788               2.60   -20000.00
00789               2.60   -19200.00
00790               2.80   -18400.00
00791               2.60   -18400.00
00792               2.80   -17600.00
00793               3.00   -17600.00
00794               2.20   -16800.00
00795               2.20   -16800.00
00796               2.00   -16000.00
00797               1.80   -15200.00
00798               2.00   -15200.00
00799               1.60   -14400.00
00800               1.40   -13600.00
00801               1.80   -13600.00
00802               1.40   -12800.00
00803               1.40   -12000.00
00804               1.20   -11200.00
00805               1.40   -11200.00
00806               1.80   -10400.00
00807               0.60    -9600.00
00808               1.40    -9600.00
00809               0.60    -8000.00
00810               0.60    -8000.00
00811               1.20    -8000.00
00812               0.40    -7200.00
00813               0.60    -7200.00
00814               0.60    -6400.00
00815               0.20    -4800.00
00816               0.40    -4800.00
00817              -0.20    -4000.00
00818              -0.20    -3200.00
00819               0.60    -2400.00
00820               0.40    -1600.00
00821              -0.40    -1600.00
00822               0.20     -800.00
00823              -0.40        0.00
00824              -0.20        0.00
00825               0.40      800.00
00826               0.20     1600.00
00827               2.80     1600.00
00828              -0.60     2400.00
00829              -2.20     2400.00
00830               0.40     3200.00
00831               0.20     4000.00
00832              -1.80     4800.00
00833               7.80     5600.00
00834              25.00     7200.00
00835             -17.20     7200.00
00836             -25.00     8000.00
00837              16.60     8000.00
00838              10.00     8800.00
00839             -25.00     8800.00
00840              25.00     9600.00
00841              25.00     9600.00
00842             -25.00    11200.00
00843              25.00    11200.00
00844             -22.60    12000.00
00845             -25.00    12800.00
00846              25.00    12800.00
00847             -25.00    12800.00
00848              25.00    14400.00
00849              -1.20    14400.00
00850             -25.00    15200.00
00851              25.00    15200.00
00852             -25.00    16000.00
00853             -15.00    16000.00
00854              25.00    16800.00
00855             -24.40    17600.00
00856             -25.00    18400.00
00857              25.00    18400.00
00858              -5.80    19200.00
00859             -25.00    19200.00
00860              25.00    20800.00
00861             -20.40    20800.00
00862             -10.80    21600.00
00863              18.20    21600.00
00864             -25.00    22400.00
00865               1.20    22400.00
00866               4.20    22400.00
00867             -13.80    23200.00
00868              -3.00    24000.00
00869               8.40    24000.00
00870             -21.00    24000.00
00871               1.20    24800.00
00872               0.60    24800.00
00873             -18.20    25600.00
00874               4.20    26400.00
00875              -6.20    26400.00
00876              -9.20    27200.00
00877              -2.80    27200.00
00878              -5.00    27200.00
00879             -10.20    28000.00
00880              -3.60    28000.00
00881              -5.00    28800.00
00882             -11.40    28800.00
00883              -3.80    28800.00
00884              -6.80    29600.00
00885             -10.60    28800.00
00886              -2.80    30400.00
00887              -8.60    30400.00
00888              -9.40    30400.00
00889              -4.80    30400.00
00890             -11.00    31200.00
00891              -8.40    30400.00
00892              -7.80    31200.00
00893             -10.20    31200.00
00894              -7.60    31200.00
00895              -9.00    32000.00
00896             -10.20    32000.00
00897             -10.00    32000.00
00898              -9.40    32800.00
00899             -10.20    32000.00
00900             -10.20    32800.00
00901              -9.20    32800.00
00902             -12.20    32000.00
00903              -9.80    32800.00
00904             -10.20    32800.00
00905             -13.00    32000.00
00906              -9.80    32800.00
00907             -12.40    32800.00
00908             -11.40    32000.00
00909             -10.00    32800.00
00910             -13.00    32800.00
00911             -10.80    32800.00
00912             -10.80    32000.00
00913             -11.00    32800.00
00914             -10.80    32800.00
00915             -10.80    32000.00
00916             -10.80    32000.00
00917             -10.60    32000.00
00918              -9.40    32800.00
00919             -10.20    31200.00
00920              -9.60    32000.00
00921              -9.00    31200.00
00922              -9.80    32000.00
00923              -9.00    31200.00
00924              -9.20    31200.00
00925              -9.20    31200.00
00926              -7.60    31200.00
00927              -8.40    30400.00
00928              -8.20    30400.00
00929              -7.40    30400.00
00930              -7.60    29600.00
00931              -7.00    29600.00
00932              -7.40    28800.00
00933              -7.40    28800.00
00934              -7.00    28000.00
00935              -6.60    28000.00
00936              -6.20    28000.00
00937              -6.60    28000.00
00938              -6.00    27200.00
00939              -6.00    27200.00
00940              -5.80    27200.00
00941              -5.20    25600.00
00942              -6.20    25600.00
00943              -5.40    25600.00
00944              -4.60    25600.00
00945              -5.20    24800.00
00946              -4.60    24000.00
00947              -5.20    24000.00
00948              -4.80    23200.00
00949              -4.20    23200.00
00950              -4.40    22400.00
00951              -4.20    22400.00
00952              -4.60    21600.00
00953              -4.20    20800.00
00954              -3.60    20800.00
00955              -4.20    20000.00
00956              -3.80    19200.00
00957              -3.60    20000.00
00958              -3.40    18400.00
00959              -3.40    18400.00
00960              -3.60    17600.00
00961              -3.00    17600.00
00962              -3.00    16000.00
00963              -2.80    16000.00
00964              -2.60    16000.00
00965              -3.00    15200.00
00966              -2.60    14400.00
00967              -2.60    14400.00
00968              -3.00    12800.00
00969              -2.60    12800.00
00970              -2.80    12800.00
00971              -2.20    12000.00
00972              -1.80    12000.00
00973              -2.20    11200.00
00974              -2.40    10400.00
00975              -1.40     9600.00
00976              -2.00     8800.00
00977              -2.00     8800.00
00978              -1.20     8000.00
00979              -1.80     7200.00
00980              -1.80     7200.00
00981              -1.40     5600.00
00982              -1.20     5600.00
00983              -1.00     4800.00
00984              -1.00     4000.00
00985              -1.20     4000.00
00986              -0.80     3200.00
00987              -1.00     2400.00
00988              -1.20     1600.00
00989              -0.60      800.00
00990              -0.60        0.00
00991              -0.20        0.00
00992               0.40        0.00
00993               2.20    -1600.00
00994               2.60    -1600.00
00995              -1.40    -1600.00
00996               1.00    -2400.00
00997               1.40    -3200.00
00998               0.40    -3200.00
00999               0.40    -4000.00
01000               8.20    -4800.00
01001              25.00    -6400.00
01002              -1.00    -7200.00
01003             -25.00    -8000.00
01004               6.20    -8000.00
01005              23.40    -8800.00
01006             -25.00    -8800.00
01007             -11.00    -8000.00
01008              25.00    -9600.00
01009             -25.00    -9600.00
01010             -25.00   -10400.00
01011              25.00   -11200.00
01012             -25.00   -11200.00
01013               0.00   -12800.00
01014              25.00   -12800.00
01015             -25.00   -13600.00
01016              25.00   -14400.00
01017             -24.60   -14400.00
01018               4.60   -14400.00
01019              25.00   -16000.00
01020             -25.00   -16000.00
01021              10.20   -16800.00
01022              25.00   -16000.00
01023             -21.80   -17600.00
01024              -5.40   -18400.00
01025              25.00   -18400.00
01026             -21.40   -19200.00
01027               0.40   -20000.00
01028              25.00   -20000.00
01029             -19.00   -20800.00
01030               9.00   -20800.00
01031              13.00   -22400.00
01032             -12.40   -22400.00
01033               9.40   -22400.00
01034              12.20   -23200.00
01035              -6.20   -23200.00
01036              10.80   -23200.00
01037              10.00   -24000.00
01038              -8.60   -24000.00
01039              13.80   -25600.00
01040               4.00   -25600.00
01041              -1.40   -25600.00
01042              12.60   -26400.00
01043               3.60   -26400.00
01044               2.20   -27200.00
01045               9.40   -27200.00
01046               6.00   -27200.00
01047               3.40   -28000.00
01048              10.20   -28800.00
01049               5.20   -28800.00
01050               3.80   -28800.00
01051              10.00   -28800.00
01052               4.60   -28800.00
01053               6.60   -29600.00
01054              10.80   -29600.00
01055               5.00   -30400.00
01056               7.80   -29600.00
01057               9.40   -30400.00
01058               5.80   -30400.00
01059               8.60   -30400.00
01060               9.40   -30400.00
01061               8.20   -31200.00
01062               9.80   -31200.00
01063               9.00   -32000.00
01064               8.60   -32000.00
01065               9.00   -31200.00
01066              10.20   -32000.00
01067               9.40   -32000.00
01068              10.00   -32000.00
01069              11.00   -32000.00
01070               9.80   -32000.00
01071              11.20   -32000.00
01072              10.20   -32000.00
01073              10.20   -32000.00
01074              11.80   -32000.00
01075              10.20   -32000.00
01076              11.60   -32000.00
01077              11.00   -32000.00
01078              10.40   -32000.00
01079              11.40   -32000.00
01080              10.20   -32000.00
01081              10.00   -32000.00
01082              10.00   -32000.00
01083              10.00   -32000.00
01084               9.60   -31200.00
01085               9.00   -30400.00
01086               9.80   -30400.00
01087               9.00   -32000.00
01088               9.00   -31200.00
01089               8.60   -30400.00
01090               8.20   -30400.00
01091               7.80   -30400.00
01092               7.80   -30400.00
01093               7.80   -30400.00
01094               7.60   -30400.00
01095               7.20   -29600.00
01096               7.00   -29600.00
01097               6.80   -28800.00
01098               6.80   -28800.00
01099               6.80   -28800.00
01100               6.20   -27200.00
01101               5.80   -28000.00
01102               6.00   -27200.00
01103               6.20   -27200.00
01104               5.40   -27200.00
01105               5.20   -26400.00
01106               5.20   -26400.00
01107               5.00   -26400.00
01108               4.60   -25600.00
01109               5.20   -24800.00
01110               4.40   -24800.00
01111               4.20   -24000.00
01112               5.80   -24000.00
01113               3.40   -23200.00
01114               3.60   -24000.00
01115               4.60   -23200.00
01116               3.60   -22400.00
01117               3.00   -22400.00
01118               3.80   -20800.00
01119               3.60   -20800.00
01120               2.60   -20800.00
01121               3.80   -18400.00
01122               3.00   -20000.00
01123               1.80   -19200.00
01124               3.60   -17600.00
01125               2.60   -17600.00
01126               2.00   -17600.00
01127               3.00   -17600.00
01128               2.00   -16000.00
01129               2.00   -16800.00
01130               2.80   -16000.00
01131               1.60   -14400.00
01132               1.60   -14400.00
01133               2.20   -14400.00
01134               1.20   -13600.00
01135               1.60   -12800.00
01136               2.20   -12000.00
01137               0.40   -12000.00
01138               1.80   -11200.00
01139               2.00   -10400.00
01140               0.20   -10400.00
01141               1.80    -9600.00
01142               1.20    -9600.00
01143               0.40    -8000.00
01144               1.40    -8000.00
01145               0.60    -7200.00
01146               0.40    -7200.00
01147               1.00    -6400.00
01148               0.40    -4800.00
01149               0.40    -4800.00
01150               0.40    -4000.00
01151              -0.20    -3200.00
01152               0.20    -3200.00
01153               0.40    -2400.00
01154              -0.40    -1600.00
01155              -0.20     -800.00
01156               0.00        0.00
01157              -0.20        0.00
01158               0.00        0.00
01159               0.20      800.00
01160               2.40     1600.00
01161               0.60     1600.00
01162              -2.20     2400.00
01163              -0.20     3200.00
01164               0.60     3200.00
01165              -2.20     4000.00
01166               4.40     4800.00
01167              25.00     6400.00
01168               2.00     7200.00
01169             -25.00     8000.00
01170               4.20     8800.00
01171              21.20     8000.00
01172             -25.00     8800.00
01173              21.40     8800.00
01174              25.00    10400.00
01175             -25.00     9600.00
01176              25.00    11200.00
01177              23.80    11200.00
01178             -25.00    12000.00
01179              25.00    12800.00
01180             -25.00    12800.00
01181              20.40    14400.00
01182              25.00    14400.00
01183             -25.00    15200.00
01184              25.00    15200.00
01185             -11.80    16000.00
01186             -25.00    16000.00
01187              25.00    17600.00
01188             -10.00    17600.00
01189             -25.00    18400.00
01190              17.80    18400.00
01191              11.60    19200.00
01192             -25.00    20000.00
01193              25.00    20800.00
01194              -1.20    20800.00
01195             -25.00    20800.00
01196              24.00    21600.00
01197             -23.00    22400.00
01198              -7.80    22400.00
01199               7.60    23200.00
01200             -11.40    24000.00
01201              -8.20    24000.00
01202              11.20    24000.00
01203             -16.40    24800.00
01204              -6.80    24800.00
01205               6.60    25600.00
01206             -20.00    25600.00
01207               1.80    25600.00
01208              -2.40    26400.00
01209             -11.40    27200.00
01210              -2.80    27200.00
01211              -4.20    28000.00
01212             -10.20    27200.00
01213              -5.20    28000.00
01214              -3.20    28800.00
01215             -11.40    28800.00
01216              -5.20    30400.00
01217              -5.80    28800.00
01218             -11.20    29600.00
01219              -3.60    30400.00
01220              -6.80    30400.00
01221             -10.60    30400.00
01222              -4.60    30400.00
01223             -10.20    31200.00
01224              -8.60    31200.00
01225              -7.40    31200.00
01226             -11.60    31200.00
01227              -7.40    32800.00
01228              -8.20    32000.00
01229             -10.80    32000.00
01230             -10.20    32000.00
01231             -10.00    32000.00
01232             -10.00    32800.00
01233             -10.80    32000.00
01234              -9.20    32800.00
01235             -11.80    32800.00
01236             -10.20    32000.00
01237              -9.20    32800.00
01238             -13.80    32800.00
01239             -10.80    32000.00
01240             -10.60    32800.00
01241             -11.80    32800.00
01242             -10.00    32800.00
01243             -12.40    32800.00
01244             -11.40    32000.00
01245             -11.00    32800.00
01246             -11.40    32800.00
01247             -11.40    32800.00
01248             -11.60    32800.00
01249              -9.00    32800.00
01250             -10.40    32000.00
01251             -10.60    32000.00
01252              -9.20    31200.00
01253             -10.40    32000.00
01254             -10.20    32000.00
01255              -9.20    32000.00
01256              -8.60    31200.00
01257              -9.20    31200.00
01258              -8.60    31200.00
01259              -7.80    31200.00
01260              -8.60    30400.00
01261              -8.40    30400.00
01262              -7.40    30400.00
01263              -8.20    29600.00
01264              -7.80    28800.00
01265              -6.80    28800.00
01266              -6.80    28800.00
01267              -7.00    28800.00
01268              -6.60    28000.00
01269              -5.40    28000.00
01270              -6.60    27200.00
01271              -7.00    27200.00
01272              -5.80    27200.00
01273              -5.40    26400.00
01274              -5.40    25600.00
01275              -6.00    26400.00
01276              -5.60    25600.00
01277              -5.00    24800.00
01278              -5.00    24800.00
01279              -5.00    24000.00
01280              -5.00    24000.00
01281              -5.00    23200.00
01282              -4.60    23200.00
01283              -4.00    22400.00
01284              -4.20    22400.00
01285              -5.00    21600.00
01286              -3.40    21600.00
01287              -3.20    21600.00
01288              -4.40    20800.00
01289              -3.80    19200.00
01290              -3.80    19200.00
01291              -3.60    19200.00
01292              -3.40    18400.00
01293              -3.80    17600.00
01294              -3.00    17600.00
01295              -3.00    16800.00
01296              -3.20    16000.00
01297              -2.80    16000.00
01298              -2.80    15200.00
01299              -2.80    15200.00
01300              -2.00    14400.00
01301              -2.60    14400.00
01302              -2.80    12800.00
01303              -2.40    12800.00
01304              -2.20    12000.00
01305              -2.60    12000.00
01306              -1.80    11200.00
01307              -2.20    10400.00
01308              -2.20     9600.00
01309              -1.40     9600.00
01310              -2.80     8000.00
01311              -1.80     8000.00
01312              -1.40     8000.00
01313              -1.20     7200.00
01314              -0.60     6400.00
01315              -1.80     5600.00
01316              -1.40     4800.00
01317              -0.40     4800.00
01318              -1.20     4000.00
01319              -1.00     3200.00
01320              -0.60     2400.00
01321              -1.00     2400.00
01322              -1.00     1600.00
01323              -0.60      800.00
01324               0.40        0.00
01325               0.20        0.00
01326               1.20     -800.00
01327               3.60     -800.00
01328              -1.20    -1600.00
01329              -0.20    -1600.00
01330               2.00    -3200.00
01331               1.00    -4000.00
01332              -0.40    -3200.00
01333               6.60    -4000.00
01334              21.80    -4800.00
01335              13.00    -7200.00
01336             -25.00    -7200.00
01337              -8.40    -8000.00
01338              25.00    -8000.00
01339             -21.00    -8000.00
01340             -25.00    -8000.00
01341              25.00    -9600.00
01342               3.60   -10400.00
01343             -25.00   -10400.00
01344              25.00   -11200.00
01345             -18.60   -11200.00
01346             -25.00   -12000.00
01347              25.00   -12800.00
01348             -25.00   -12800.00
01349              24.00   -14400.00
01350              -6.80   -14400.00
01351             -14.20   -15200.00
01352              25.00   -15200.00
01353             -24.40   -16000.00
01354              -5.20   -16000.00
01355              25.00   -16800.00
01356             -13.20   -17600.00
01357             -16.60   -18400.00
01358              25.00   -18400.00
01359              -7.20   -19200.00
01360             -15.00   -19200.00
01361              25.00   -20000.00
01362             -11.60   -20800.00
01363              -2.20   -20800.00
01364              19.80   -22400.00
01365             -11.80   -22400.00
01366               3.80   -22400.00
01367              15.40   -22400.00
01368              -5.20   -23200.00
01369               5.00   -23200.00
01370              15.60   -24000.00
01371              -9.20   -24000.00
01372               9.40   -24800.00
01373              10.00   -25600.00
01374              -5.20   -26400.00
01375              11.60   -26400.00
01376               6.80   -26400.00
01377               0.60   -27200.00
01378               8.20   -27200.00
01379               8.20   -27200.00
01380               2.00   -27200.00
01381               9.20   -27200.00
01382               7.40   -28000.00
01383               1.80   -28800.00
01384              10.20   -28800.00
01385               6.20   -28800.00
01386               4.20   -28800.00
01387              11.60   -29600.00
01388               6.00   -29600.00
01389               6.20   -29600.00
01390              11.00   -30400.00
01391               5.40   -30400.00
01392               8.00   -30400.00
01393              10.20   -30400.00
01394               7.60   -31200.00
01395              10.60   -31200.00
01396               9.00   -30400.00
01397               7.80   -31200.00
01398              10.60   -31200.00
01399               9.40   -32000.00
01400               9.20   -32000.00
01401              10.60   -32000.00
01402              10.00   -32000.00
01403              10.00   -32000.00
01404              11.60   -32000.00
01405              10.00   -32000.00
01406              10.60   -32000.00
01407              11.80   -32000.00
01408              10.00   -32000.00
01409              11.40   -32000.00
01410              11.00   -32000.00
01411              10.40   -32000.00
01412              11.40   -32000.00
01413              10.60   -32000.00
01414              10.40   -32000.00
01415               9.80   -32000.00
01416              10.00   -32000.00
01417              10.00   -32000.00
01418               9.00   -31200.00
01419               9.80   -32000.00
01420               9.40   -30400.00
01421               9.00   -30400.00
01422               9.00   -31200.00
01423               8.20   -31200.00
01424               8.20   -30400.00
01425               7.80   -30400.00
01426               7.60   -29600.00
01427               7.40   -29600.00
01428               7.40   -29600.00
01429               7.40   -29600.00
01430               7.00   -28800.00
01431               6.80   -28800.00
01432               6.80   -28800.00
01433               6.00   -28000.00
01434               6.00   -28000.00
01435               6.20   -28000.00
01436               6.00   -27200.00
01437               5.40   -27200.00
01438               5.20   -26400.00
01439               5.20   -26400.00
01440               5.40   -25600.00
01441               4.60   -25600.00
01442               5.00   -25600.00
01443               4.40   -24800.00
01444               4.40   -24000.00
01445               4.20   -24000.00
01446               4.20   -24000.00
01447               4.40   -24000.00
01448               4.20   -23200.00
01449               3.80   -23200.00
01450               3.80   -22400.00
01451               3.00   -21600.00
01452               3.40   -20800.00
01453               3.60   -20000.00
01454               3.40   -20000.00
01455               3.00   -20000.00
01456               2.20   -19200.00
01457               3.00   -18400.00
01458               2.80   -18400.00
01459               2.60   -17600.00
01460               2.20   -17600.00
01461               2.60   -16000.00
01462               2.20   -16800.00
01463               1.80   -16000.00
01464               2.00   -15200.00
01465               2.20   -14400.00
01466               1.40   -14400.00
01467               1.80   -13600.00
01468               2.00   -12800.00
01469               1.80   -11200.00
01470               1.40   -12000.00
01471               1.40   -11200.00
01472               1.80   -11200.00
01473               1.00   -10400.00
01474               1.00    -9600.00
01475               1.20    -9600.00
01476               1.00    -8800.00
01477               0.60    -7200.00
01478               1.00    -8000.00
01479               0.40    -6400.00
01480               0.40    -6400.00
01481               0.60    -6400.00
01482               0.40    -4800.00
01483               0.40    -4800.00
01484               0.20    -3200.00
01485               0.20    -3200.00
01486               0.20    -3200.00
01487              -0.20    -1600.00
01488              -0.60     -800.00
01489              -0.40        0.00
01490              -0.20     -800.00
01491              -0.40        0.00
01492               0.20      800.00
01493               1.80      800.00
01494               1.80     1600.00
01495              -2.80     3200.00
01496              -0.20     3200.00
01497               0.40     3200.00
01498              -1.60     4000.00
01499               2.20     4800.00
01500              20.60     7200.00
01501              19.60     6400.00
01502             -25.00     8000.00
01503             -12.40     8000.00
01504              25.00     8000.00
01505             -25.00     8000.00
01506              -8.40     9600.00
01507              25.00     9600.00
01508             -25.00     9600.00
01509              17.40    11200.00
01510              25.00    11200.00
01511             -25.00    11200.00
01512              25.00    12800.00
01513             -19.00    12800.00
01514             -19.00    13600.00
01515              25.00    14400.00
01516             -25.00    14400.00
01517              25.00    16000.00
01518              25.00    15200.00
01519             -25.00    16000.00
01520              25.00    16800.00
01521               7.60    16800.00
01522             -25.00    17600.00
01523               5.00    18400.00
01524              23.60    19200.00
01525             -25.00    19200.00
01526              12.20    20000.00
01527              18.60    20800.00
01528             -25.00    20800.00
01529              21.80    21600.00
01530             -13.20    22400.00
01531             -16.60    22400.00
01532               9.00    22400.00
01533              -7.00    23200.00
01534             -11.60    24000.00
01535               9.80    24000.00
01536              -9.00    24000.00
01537             -15.00    24800.00
01538               9.80    25600.00
01539             -17.00    25600.00
01540              -3.80    26400.00
01541               1.80    26400.00
01542             -11.20    27200.00
01543              -4.60    27200.00
01544              -3.60    28000.00
01545              -8.60    28000.00
01546              -7.60    28000.00
01547              -2.00    28800.00
01548             -10.20    28800.00
01549              -7.40    28800.00
01550              -3.80    28800.00
01551             -11.00    29600.00
01552              -6.00    28800.00
01553              -4.60    30400.00
01554             -11.60    30400.00
01555              -5.40    30400.00
01556              -8.40    30400.00
01557             -11.00    31200.00
01558              -7.00    31200.00
01559             -10.00    31200.00
01560              -8.60    31200.00
01561              -7.80    32000.00
01562              -9.80    32800.00
01563             -10.20    32000.00
01564             -10.20    32000.00
01565             -10.00    32800.00
01566             -10.80    32800.00
01567              -9.40    32000.00
01568             -10.80    32800.00
01569             -11.60    32800.00
01570              -9.40    32800.00
01571             -12.40    32000.00
01572             -11.00    32800.00
01573             -10.60    32800.00
01574             -12.40    32800.00
01575              -9.80    32000.00
01576             -12.40    32800.00
01577             -11.60    32800.00
01578             -10.40    32000.00
01579             -11.60    32800.00
01580             -10.80    32800.00
01581             -11.40    32000.00
01582             -10.60    32800.00
01583             -10.60    32000.00
01584             -10.20    32000.00
01585             -10.00    32000.00
01586             -10.00    31200.00
01587              -9.00    32000.00
01588              -9.20    31200.00
01589              -8.60    31200.00
01590              -8.60    31200.00
01591             -10.00    31200.00
01592              -7.40    31200.00
01593              -7.60    30400.00
01594              -9.20    30400.00
01595              -7.00    30400.00
01596              -7.60    30400.00
01597              -7.80    28800.00
01598              -6.60    28800.00
01599              -7.60    28800.00
01600              -7.60    28800.00
01601              -6.60    28000.00
01602              -5.80    28800.00
01603              -6.80    28000.00
01604              -6.80    28000.00
01605              -6.00    27200.00
01606              -5.00    27200.00
01607              -6.80    27200.00
01608              -5.80    26400.00
01609              -3.20    25600.00
01610              -6.60    24800.00
01611              -6.60    24800.00
01612              -2.80    24800.00
01613              -6.20    24800.00
01614              -6.20    24000.00
01615              -2.60    23200.00
01616              -5.20    23200.00
01617              -3.80    22400.00
01618              -3.60    21600.00
01619              -5.40    21600.00
01620              -3.80    20800.00
01621              -4.60    20800.00
01622              -3.60    20000.00
01623              -2.60    19200.00
01624              -4.40    18400.00
01625              -3.20    18400.00
01626              -2.20    17600.00
01627              -5.20    17600.00
01628              -3.40    17600.00
01629              -1.40    16800.00
01630              -4.40    16000.00
01631              -2.40    15200.00
01632              -1.60    14400.00
01633              -5.00    14400.00
01634              -1.60    14400.00
01635              -0.60    12800.00
01636              -4.20    12800.00
01637              -2.20    12000.00
01638              -1.40    12000.00
01639              -3.80    11200.00
01640              -1.80    10400.00
01641              -1.00     9600.00
01642              -1.60     9600.00
01643              -1.60     8800.00
01644              -1.80     8000.00
01645              -1.60     8000.00
01646              -1.40     7200.00
01647              -2.60     6400.00
01648              -0.80     5600.00
01649               0.40     5600.00
01650              -1.20     4800.00
01651              -1.80     4000.00
01652               0.20     3200.00
01653              -0.80     3200.00
01654              -1.80     2400.00
01655               0.40     1600.00
01656              -0.40     1600.00
01657              -1.20      800.00
01658               0.60        0.00
01659               1.00     -800.00
01660               3.60     -800.00
01661               0.40    -1600.00
01662              -1.20    -1600.00
01663               2.20    -2400.00
01664               1.20    -3200.00
01665              -0.20    -4000.00
01666               4.20    -4000.00
01667              16.40    -5600.00
01668              23.60    -6400.00
01669             -25.00    -7200.00
01670             -22.60    -8000.00
01671              25.00    -8000.00
01672              -5.40    -8000.00
01673             -25.00    -8000.00
01674              25.00    -9600.00
01675              25.00   -10400.00
01676             -25.00    -9600.00
01677              25.00   -11200.00
01678              21.20   -11200.00
01679             -25.00   -12800.00
01680              25.00   -12800.00
01681             -21.00   -12800.00
01682               9.40   -14400.00
01683              11.60   -14400.00
01684             -25.00   -14400.00
01685              25.00   -16000.00
01686              -9.20   -16000.00
01687             -19.40   -16800.00
01688              25.00   -16800.00
01689              -1.40   -17600.00
01690             -24.40   -18400.00
01691              24.60   -18400.00
01692               8.20   -19200.00
01693             -25.00   -20000.00
01694              25.00   -20000.00
01695               1.20   -20800.00
01696             -12.40   -20800.00
01697              22.80   -20800.00
01698              -7.00   -21600.00
01699              -2.20   -22400.00
01700              15.80   -23200.00
01701              -0.20   -23200.00
01702              -1.00   -23200.00
01703              17.60   -24000.00
01704              -6.00   -24000.00
01705               2.80   -25600.00
01706              14.00   -25600.00
01707              -4.60   -26400.00
01708               8.40   -25600.00
01709               9.00   -26400.00
01710               1.20   -27200.00
01711               6.20   -27200.00
01712               8.60   -27200.00
01713               2.60   -28000.00
01714               7.40   -28000.00
01715               9.20   -28000.00
01716               2.60   -28000.00
01717               8.40   -28800.00
01718               7.60   -29600.00
01719               3.80   -29600.00
01720              10.20   -29600.00
01721               8.20   -29600.00
01722               5.40   -30400.00
01723              10.60   -29600.00
01724               7.40   -30400.00
01725               8.40   -30400.00
01726               7.80   -30400.00
01727               6.00   -31200.00
01728              16.20   -30400.00
01729              -1.00   -31200.00
01730              13.20   -32000.00
01731              11.00   -32000.00
01732              11.60   -32000.00
01733              12.40   -32000.00
01734               5.20   -32000.00
01735              14.80   -32000.00
01736               3.80   -32000.00
01737               9.00   -32000.00
01738              11.40   -32000.00
01739              11.00   -32000.00
01740              15.60   -32000.00
01741               7.00   -32000.00
01742              15.80   -32000.00
01743               7.60   -32000.00
01744              11.80   -32000.00
01745              13.00   -32000.00
01746               3.40   -32800.00
01747              12.40   -32000.00
01748              12.20   -32000.00
01749               7.20   -32000.00
01750               9.60   -32000.00
01751              12.60   -32000.00
01752              10.20   -31200.00
01753               8.40   -31200.00
01754               9.20   -31200.00
01755               5.20   -30400.00
01756               8.20   -30400.00
01757               9.00   -30400.00
01758               6.00   -30400.00
01759              10.60   -30400.00
01760               9.80   -29600.00
01761               6.80   -28800.00
01762               7.40   -29600.00
01763               6.80   -28800.00
01764               5.20   -28800.00
01765               6.00   -28800.00
01766               5.80   -28000.00
01767               6.20   -28000.00
01768               7.60   -27200.00
01769               6.20   -27200.00
01770               6.40   -27200.00
01771               5.20   -26400.00
01772               3.60   -26400.00
01773               5.40   -26400.00
01774               5.00   -25600.00
01775               3.60   -25600.00
01776               5.00   -24000.00
01777               6.00   -24800.00
01778               5.20   -24000.00
01779               5.00   -24000.00
01780               4.60   -23200.00
01781               3.40   -23200.00
01782               3.40   -22400.00
01783               3.40   -22400.00
01784               2.60   -21600.00
01785               4.20   -20800.00
01786               4.20   -20800.00
01787               3.40   -20000.00
01788               3.60   -19200.00
01789               2.80   -18400.00
01790               2.80   -18400.00
01791               3.00   -17600.00
01792               2.40   -17600.00
01793               2.20   -17600.00
01794               2.80   -16800.00
01795               2.60   -16000.00
01796               2.00   -16000.00
01797               2.60   -15200.00
01798               2.00   -14400.00
01799               1.80   -14400.00
01800               2.00   -13600.00
01801               1.40   -13600.00
01802               1.40   -12800.00
01803               2.00   -12800.00
01804               1.40   -11200.00
01805               1.80   -11200.00
01806               1.60   -10400.00
01807               1.20    -9600.00
01808               1.40    -8800.00
01809               1.00    -8000.00
01810               1.00    -8000.00
01811               1.00    -8000.00
01812               0.20    -7200.00
01813               0.20    -6400.00
01814               0.40    -4800.00
01815              -0.20    -4800.00
01816               0.60    -4800.00
01817               0.40    -4000.00
01818              -0.20    -3200.00
01819               0.40    -3200.00
01820               0.20    -2400.00
01821              -0.60    -1600.00
01822              -0.40     -800.00
01823              -0.40     -800.00
01824              -0.60        0.00
01825              -0.20      800.00
01826               0.40     1600.00
01827               2.60     1600.00
01828              -2.20     2400.00
01829              -1.00     2400.00
01830               0.40     3200.00
01831              -1.20     4800.00
01832              -0.40     4800.00
01833              14.40     5600.00
01834              25.00     7200.00
01835             -25.00     8000.00
01836             -25.00     8000.00
01837              25.00     8000.00
01838             -14.60     8000.00
01839             -25.00     8800.00
01840              25.00     9600.00
01841             -25.00     9600.00
01842             -25.00    11200.00
01843              25.00    11200.00
01844             -25.00    11200.00
01845              23.80    12800.00
01846              20.40    12800.00
01847             -25.00    13600.00
01848              25.00    13600.00
01849             -25.00    14400.00
01850               2.60    15200.00
01851              25.00    16000.00
01852             -25.00    16000.00
01853              23.00    17600.00
01854              25.00    17600.00
01855             -25.00    17600.00
01856              -9.20    18400.00
01857              25.00    19200.00
01858             -25.00    19200.00
01859              -8.20    20000.00
01860              25.00    20800.00
01861             -25.00    20800.00
01862              11.80    21600.00
01863               0.20    21600.00
01864             -24.20    22400.00
01865               8.60    23200.00
01866              -2.00    23200.00
01867             -14.00    24000.00
01868               5.80    24800.00
01869              -1.00    24800.00
01870             -20.60    25600.00
01871               9.00    25600.00
01872             -10.60    25600.00
01873             -10.40    25600.00
01874               4.40    27200.00
01875             -10.20    27200.00
01876              -7.00    27200.00
01877              -3.40    28000.00
01878              -7.40    28000.00
01879              -9.60    28000.00
01880              -1.80    28000.00
01881              -8.40    28800.00
01882              -9.80    28800.00
01883              -3.60    28800.00
01884              -9.80    29600.00
01885              -7.60    29600.00
01886              -3.60    30400.00
01887             -11.00    30400.00
01888              -6.80    30400.00
01889              -7.00    31200.00
01890             -11.80    31200.00
01891              -6.80    31200.00
01892              -9.40    31200.00
01893             -10.00    31200.00
01894              -7.80    31200.00
01895              -9.40    32800.00
01896             -10.60    32000.00
01897             -10.60    31200.00
01898              -9.40    32800.00
01899             -10.00    32800.00
01900             -10.80    32000.00
01901              -9.40    32800.00
01902             -11.60    32800.00
01903              -9.80    32000.00
01904             -11.80    32800.00
01905             -11.40    32800.00
01906             -10.80    32800.00
01907             -13.20    32800.00
01908              -8.80    32000.00
01909             -11.60    32800.00
01910             -13.00    32800.00
01911              -9.80    32800.00
01912             -11.60    32000.00
01913             -11.00    32800.00
01914             -10.60    32000.00
01915             -10.20    32000.00
01916             -10.40    32000.00
01917             -10.20    32000.00
01918              -9.80    32800.00
01919             -10.60    32800.00
01920              -9.40    31200.00
01921              -8.60    32000.00
01922              -9.00    31200.00
01923              -9.00    31200.00
01924              -9.40    31200.00
01925              -8.20    31200.00
01926              -8.20    30400.00
01927              -8.20    30400.00
01928              -6.60    30400.00
01929              -8.20    30400.00
01930              -7.60    29600.00
01931              -6.20    28800.00
01932              -8.20    28800.00
01933              -7.00    28800.00
01934              -6.20    28800.00
01935              -7.00    28000.00
01936              -6.40    28000.00
01937              -6.20    28000.00
01938              -6.60    27200.00
01939              -5.80    27200.00
01940              -5.40    26400.00
01941              -5.40    27200.00
01942              -5.80    25600.00
01943              -5.40    25600.00
01944              -5.00    24800.00
01945              -5.20    24800.00
01946              -5.60    24800.00
01947              -4.60    24000.00
01948              -4.40    24000.00
01949              -5.20    23200.00
01950              -4.40    22400.00
01951              -4.20    22400.00
01952              -4.60    21600.00
01953              -3.60    21600.00
01954              -3.60    20800.00
01955              -4.40    20000.00
01956              -3.80    19200.00
01957              -3.80    19200.00
01958              -3.20    19200.00
01959              -3.60    17600.00
01960              -3.20    17600.00
01961              -3.00    17600.00
01962              -3.40    16000.00
01963              -2.80    16000.00
01964              -2.80    15200.00
01965              -2.80    15200.00
01966              -2.80    14400.00
01967              -2.60    14400.00
01968              -2.20    13600.00
01969              -2.20    12800.00
01970              -2.60    12800.00
01971              -2.20    12000.00
01972              -1.80    11200.00
01973              -2.20    10400.00
01974              -2.20    10400.00
01975              -1.20     9600.00
01976              -2.00     8800.00
01977              -2.00     8000.00
01978              -0.60     8000.00
01979              -2.00     7200.00
01980              -1.20     6400.00
01981              -0.60     6400.00
01982              -1.20     5600.00
01983              -0.80     4800.00
01984              -0.80     4000.00
01985              -1.20     3200.00
01986              -0.40     3200.00
01987              -0.60     2400.00
01988              -1.20     1600.00
01989               0.20     1600.00
01990              -0.20     1600.00
01991              -0.40        0.00
01992               1.00     -800.00
01993               3.40     -800.00
01994               0.60    -1600.00
01995              -0.60    -1600.00
01996               1.80    -2400.00
01997               1.20    -3200.00
01998               0.20    -4000.00
01999               2.40    -4000.00
02000              13.00    -4800.00
02001              25.00    -6400.00
02002             -25.00    -7200.00
02003             -25.00    -8000.00
02004              22.80    -8000.00
02005               8.20    -8000.00
02006             -25.00    -8800.00
02007              23.40    -8000.00
02008              25.00   -10400.00
02009             -25.00    -9600.00
02010              25.00   -11200.00
02011              25.00   -11200.00
02012             -25.00   -11200.00
02013              25.00   -12800.00
02014              -1.00   -12800.00
02015              -7.80   -13600.00
02016              25.00   -14400.00
02017             -25.00   -14400.00
02018              25.00   -15200.00
02019               9.00   -16000.00
02020             -25.00   -16000.00
02021              25.00   -16800.00
02022              11.80   -16800.00
02023             -25.00   -17600.00
02024              13.40   -17600.00
02025              21.80   -19200.00
02026             -25.00   -19200.00
02027              22.20   -20000.00
02028              15.00   -20000.00
02029             -19.20   -20800.00
02030              20.40   -20800.00
02031               0.40   -22400.00
02032              -8.40   -22400.00
02033              14.80   -22400.00
02034               5.40   -23200.00
02035              -4.60   -23200.00
02036              17.20   -24000.00
02037               0.40   -24000.00
02038              -3.00   -24800.00
02039              16.20   -24800.00
02040              -3.20   -25600.00
02041               4.60   -25600.00
02042              11.60   -26400.00
02043               1.40   -26400.00
02044               4.40   -27200.00
02045               9.80   -27200.00
02046               3.40   -27200.00
02047               5.20   -28000.00
02048              10.20   -28000.00
02049               3.40   -28000.00
02050               6.80   -28800.00
02051               8.60   -28800.00
02052               4.20   -28800.00
02053               9.00   -29600.00
02054               9.40   -29600.00
02055               4.60   -29600.00
02056               9.80   -29600.00
02057               8.20   -30400.00
02058               5.80   -30400.00
02059              10.00   -30400.00
02060               9.20   -31200.00
02061               9.00   -30400.00
02062               9.80   -31200.00
02063               8.80   -32000.00
02064               8.20   -31200.00
02065               9.60   -32000.00
02066              10.20   -32000.00
02067               9.00   -32000.00
02068              10.80   -32000.00
02069              10.80   -32000.00
02070               9.80   -32000.00
02071              11.00   -32000.00
02072              10.20   -32000.00
02073              10.80   -32000.00
02074              10.80   -32000.00
02075              10.20   -32000.00
02076              11.40   -32000.00
02077              10.20   -32000.00
02078              10.20   -32000.00
02079              11.00   -32000.00
02080              10.80   -32000.00
02081               9.80   -31200.00
02082               9.40   -32000.00
02083              10.00   -31200.00
02084               8.60   -32000.00
02085               9.20   -32000.00
02086              10.00   -31200.00
02087               8.60   -30400.00
02088               9.00   -31200.00
02089               8.20   -30400.00
02090               7.40   -30400.00
02091               7.80   -30400.00
02092               7.60   -29600.00
02093               7.80   -29600.00
02094               8.00   -29600.00
02095               7.40   -29600.00
02096               6.80   -28800.00
02097               6.60   -28800.00
02098               6.80   -28800.00
02099               6.60   -28800.00
02100               6.00   -28000.00
02101               6.20   -27200.00
02102               5.80   -27200.00
02103               6.00   -27200.00
02104               5.00   -26400.00
02105               5.20   -26400.00
02106               6.00   -26400.00
02107               4.60   -25600.00
02108               5.00   -25600.00
02109               4.80   -25600.00
02110               4.20   -24000.00
02111               5.20   -24800.00
02112               5.00   -24000.00
02113               4.40   -23200.00
02114               4.40   -23200.00
02115               4.00   -22400.00
02116               3.40   -22400.00
02117               3.60   -22400.00
02118               3.60   -20800.00
02119               3.60   -20800.00
02120               3.60   -20000.00
02121               3.20   -20000.00
02122               2.60   -20000.00
02123               2.80   -18400.00
02124               3.00   -18400.00
02125               2.80   -17600.00
02126               2.80   -17600.00
02127               2.60   -16800.00
02128               2.20   -16800.00
02129               2.60   -16000.00
02130               2.60   -15200.00
02131               2.00   -14400.00
02132               1.80   -14400.00
02133               2.40   -13600.00
02134               1.40   -12800.00
02135               1.60   -12800.00
02136               1.80   -12000.00
02137               1.00   -11200.00
02138               1.60   -11200.00
02139               1.80   -10400.00
02140               1.00    -9600.00
02141               0.80    -9600.00
02142               1.00    -8800.00
02143               0.40    -8000.00
02144               0.40    -7200.00
02145               0.60    -7200.00
02146               0.40    -6400.00
02147               0.40    -5600.00
02148               0.20    -5600.00
02149               0.20    -4800.00
02150               0.40    -4000.00
02151               0.20    -4000.00
02152              -0.20    -2400.00
02153               0.00    -1600.00
02154               0.40    -1600.00
02155              -0.60     -800.00
02156              -0.40        0.00
02157               0.20        0.00
02158              -0.20      800.00
02159               0.20     1600.00
02160               3.60     1600.00
02161              -2.00     2400.00
02162              -1.80     2400.00
02163               1.00     3200.00
02164              -0.40     3200.00
02165              -1.40     4800.00
02166               9.40     5600.00
02167              25.00     7200.00
02168             -25.00     7200.00
02169             -25.00     8000.00
02170              21.40     8000.00
02171               2.80     8800.00
02172             -25.00     8800.00
02173              25.00     9600.00
02174               7.80     9600.00
02175             -25.00    11200.00
02176              25.00    11200.00
02177             -25.00    11200.00
02178             -17.40    12800.00
02179              25.00    12800.00
02180             -25.00    12800.00
02181              25.00    14400.00
02182             -23.20    14400.00
02183             -25.00    15200.00
02184              25.00    15200.00
02185             -25.00    16000.00
02186              -1.20    16000.00
02187              25.00    17600.00
02188             -25.00    17600.00
02189             -20.40    18400.00
02190              25.00    19200.00
02191             -14.80    19200.00
02192             -25.00    20000.00
02193              25.00    20800.00
02194             -25.00    20800.00
02195              -2.80    21600.00
02196              13.40    22400.00
02197             -25.00    22400.00
02198               3.80    23200.00
02199               2.60    24000.00
02200             -14.20    23200.00
02201              -0.40    24000.00
02202               6.60    24800.00
02203             -21.40    24800.00
02204               3.80    24800.00
02205              -3.00    25600.00
02206             -16.20    25600.00
02207               4.60    26400.00
02208              -7.60    26400.00
02209              -9.00    27200.00
02210              -2.80    27200.00
02211              -6.00    28000.00
02212             -11.00    28000.00
02213              -2.60    28000.00
02214              -6.20    28800.00
02215             -11.40    28800.00
02216              -3.60    28800.00
02217              -8.20    28800.00
02218             -10.60    29600.00
02219              -2.20    30400.00
02220              -9.80    30400.00
02221              -9.20    31200.00
02222              -4.60    30400.00
02223             -11.80    31200.00
02224              -8.40    31200.00
02225              -8.20    31200.00
02226             -10.00    32000.00
02227              -8.20    31200.00
02228              -9.00    32000.00
02229             -10.20    32000.00
02230             -10.40    32800.00
02231              -9.40    31200.00
02232             -10.60    32800.00
02233             -10.20    32000.00
02234              -9.40    32800.00
02235             -12.20    32800.00
02236              -9.20    32000.00
02237             -11.00    32800.00
02238             -13.00    32800.00
02239              -9.80    33600.00
02240             -12.40    32800.00
02241             -10.80    33600.00
02242             -10.20    32800.00
02243             -13.00    32800.00
02244             -10.60    32800.00
02245             -11.00    32000.00
02246             -11.40    32800.00
02247             -10.80    32800.00
02248             -10.80    32800.00
02249             -10.60    32000.00
02250             -10.60    32800.00
02251              -9.20    32000.00
02252             -10.20    32000.00
02253              -9.80    32000.00
02254              -8.60    31200.00
02255              -9.80    31200.00
02256              -8.60    32000.00
02257              -9.20    31200.00
02258              -8.80    30400.00
02259              -7.40    30400.00
02260              -8.40    31200.00
02261              -8.00    30400.00
02262              -7.60    30400.00
02263              -7.60    30400.00
02264              -7.00    28800.00
02265              -7.00    28800.00
02266              -7.00    29600.00
02267              -7.00    28000.00
02268              -6.60    28000.00
02269              -6.00    28000.00
02270              -6.80    28000.00
02271              -6.40    28000.00
02272              -6.00    27200.00
02273              -6.20    26400.00
02274              -5.40    26400.00
02275              -6.00    25600.00
02276              -5.20    25600.00
02277              -5.00    24800.00
02278              -6.00    24800.00
02279              -5.20    24000.00
02280              -4.60    24000.00
02281              -4.60    24000.00
02282              -5.00    23200.00
02283              -4.60    22400.00
02284              -3.80    22400.00
02285              -4.40    21600.00
02286              -4.40    21600.00
02287              -3.60    20800.00
02288              -3.80    20800.00
02289              -4.40    19200.00
02290              -3.80    19200.00
02291              -3.00    18400.00
02292              -3.80    18400.00
02293              -3.40    17600.00
02294              -2.80    17600.00
02295              -3.00    16800.00
02296              -2.80    16000.00
02297              -2.80    15200.00
02298              -2.80    15200.00
02299              -2.40    14400.00
02300              -2.60    14400.00
02301              -2.40    14400.00
02302              -2.40    12800.00
02303              -2.20    12800.00
02304              -2.20    12000.00
02305              -2.00    12000.00
02306              -2.00    10400.00
02307              -2.20    10400.00
02308              -1.40     9600.00
02309              -1.20     9600.00
02310              -2.00     8000.00
02311              -0.60     8000.00
02312              -1.20     7200.00
02313              -1.60     6400.00
02314              -0.40     6400.00
02315              -1.00     5600.00
02316              -1.20     4800.00
02317              -0.60     4800.00
02318              -1.00     4000.00
02319              -0.40     3200.00
02320              -1.00     2400.00
02321              -1.20     1600.00
02322              -0.40     1600.00
02323              -0.40      800.00
02324               0.20        0.00
02325               1.00        0.00
02326               2.80    -1600.00
02327               2.00    -1600.00
02328              -1.00    -2400.00
02329               1.40    -2400.00
02330               1.80    -3200.00
02331               0.40    -3200.00
02332               1.00    -4000.00
02333               9.80    -4000.00
02334              25.00    -6400.00
02335              -9.40    -7200.00
02336             -25.00    -7200.00
02337              12.20    -8000.00
02338              19.00    -8000.00
02339             -25.00    -8800.00
02340              -1.00    -8800.00
02341              25.00    -9600.00
02342             -25.00    -9600.00
02343             -10.00   -10400.00
02344              25.00   -11200.00
02345             -25.00   -11200.00
02346              14.20   -12800.00
02347              22.60   -12800.00
02348             -23.60   -13600.00
02349              25.00   -14400.00
02350             -25.00   -14400.00
02351              14.60   -14400.00
02352              25.00   -16000.00
02353             -25.00   -16000.00
02354              17.40   -16800.00
02355              23.00   -17600.00
02356             -24.40   -17600.00
02357               0.80   -17600.00
02358              25.00   -19200.00
02359             -25.00   -18400.00
02360               8.40   -20000.00
02361              25.00   -20000.00
02362             -20.60   -20800.00
02363              13.20   -20800.00
02364               8.80   -21600.00
02365             -11.60   -22400.00
02366              11.60   -22400.00
02367              10.60   -23200.00
02368              -6.60   -24000.00
02369              13.40   -24000.00
02370               6.80   -24000.00
02371              -7.60   -24000.00
02372              15.60   -25600.00
02373               1.40   -25600.00
02374               0.40   -25600.00
02375              13.20   -26400.00
02376               3.60   -26400.00
02377               2.80   -27200.00
02378               9.80   -27200.00
02379               5.40   -27200.00
02380               2.80   -27200.00
02381              10.80   -27200.00
02382               4.60   -28000.00
02383               4.00   -28800.00
02384              11.00   -28800.00
02385               3.60   -28800.00
02386               6.80   -28800.00
02387              12.40   -29600.00
02388               3.80   -29600.00
02389               9.00   -29600.00
02390              10.00   -30400.00
02391               3.60   -30400.00
02392               9.60   -30400.00
02393              10.00   -30400.00
02394               7.80   -31200.00
02395              10.60   -31200.00
02396               9.00   -32000.00
02397               8.20   -32000.00
02398               9.40   -32000.00
02399               9.80   -31200.00
02400               9.40   -32000.00
02401              10.00   -32000.00
02402              10.80   -32000.00
02403              10.00   -32000.00
02404              11.00   -32000.00
02405              10.00   -32000.00
02406              10.60   -32000.00
02407              11.40   -32000.00
02408              10.00   -32000.00
02409              11.40   -32000.00
02410              10.80   -32000.00
02411              10.40   -32000.00
02412              11.20   -32000.00
02413              10.20   -32000.00
02414              10.00   -32000.00
02415               9.00   -32000.00
02416               9.20   -31200.00
02417               9.40   -32000.00
02418               9.40   -30400.00
02419               9.40   -32000.00
02420               9.00   -30400.00
02421               8.60   -30400.00
02422               8.20   -30400.00
02423               8.20   -30400.00
02424               8.20   -30400.00
02425               7.60   -29600.00
02426               8.20   -29600.00
02427               7.00   -29600.00
02428               6.80   -28800.00
02429               7.40   -28800.00
02430               6.80   -28800.00
02431               6.80   -28800.00
02432               7.00   -28800.00
02433               5.80   -28800.00
02434               6.00   -28000.00
02435               6.00   -27200.00
02436               5.80   -27200.00
02437               5.80   -27200.00
02438               6.00   -26400.00
02439               5.20   -26400.00
02440               5.40   -26400.00
02441               5.00   -25600.00
02442               4.20   -25600.00
02443               4.20   -25600.00
02444               5.20   -24000.00
02445               4.20   -24000.00
02446               4.20   -24000.00
02447               4.40   -23200.00
02448               4.20   -22400.00
02449               3.80   -23200.00
02450               3.80   -21600.00
02451               3.60   -20800.00
02452               3.40   -20800.00
02453               3.00   -20800.00
02454               3.00   -20000.00
02455               3.20   -20000.00
02456               3.40   -18400.00
02457               2.80   -18400.00
02458               3.00   -17600.00
02459               3.00   -17600.00
02460               1.80   -16800.00
02461               2.60   -16800.00
02462               3.00   -16000.00
02463               2.00   -15200.00
02464               2.40   -15200.00
02465               2.20   -14400.00
02466               1.00   -13600.00
02467               1.40   -13600.00
02468               2.00   -12800.00
02469               1.40   -12800.00
02470               1.40   -12000.00
02471               2.00   -11200.00
02472               1.00   -10400.00
02473               0.40   -10400.00
02474               1.00    -9600.00
02475               0.80    -8800.00
02476               0.60    -8000.00
02477               1.20    -7200.00
02478               0.40    -7200.00
02479               0.20    -6400.00
02480               0.20    -6400.00
02481               0.40    -4800.00
02482               0.60    -4800.00
02483               0.20    -4000.00
02484               0.40    -3200.00
02485               0.20    -3200.00
02486               0.00    -2400.00
02487               0.20    -1600.00
02488              -0.80    -1600.00
02489              -0.20     -800.00
02490               0.20        0.00
02491              -0.60      800.00
02492              -0.20     1600.00
02493               3.00     1600.00
02494              -0.40     2400.00
02495              -2.20     2400.00
02496               0.80     3200.00
02497               0.20     3200.00
02498              -2.20     4800.00
02499               6.60     5600.00
02500              25.00     6400.00
02501              -7.80     7200.00
02502             -25.00     8000.00
02503              11.40     8000.00
02504              16.20     8000.00
02505             -25.00     8800.00
02506              25.00     9600.00
02507              25.00    10400.00
02508             -25.00     9600.00
02509              25.00    11200.00
02510               1.80    11200.00
02511             -25.00    12000.00
02512              25.00    12800.00
02513             -25.00    12800.00
02514              25.00    14400.00
02515              19.40    14400.00
02516             -25.00    14400.00
02517              25.00    15200.00
02518             -25.00    16000.00
02519             -25.00    16000.00
02520              25.00    16800.00
02521             -17.80    17600.00
02522             -25.00    18400.00
02523              23.40    18400.00
02524               3.80    19200.00
02525             -25.00    19200.00
02526              25.00    20800.00
02527             -10.40    20800.00
02528             -19.00    20800.00
02529              22.40    21600.00
02530             -25.00    22400.00
02531              -3.80    22400.00
02532               6.60    23200.00
02533             -13.00    23200.00
02534              -6.00    24000.00
02535              10.40    24000.00
02536             -19.00    24800.00
02537              -3.00    24800.00
02538               4.20    25600.00
02539             -19.60    25600.00
02540               2.60    25600.00
02541              -4.20    26400.00
02542             -10.20    27200.00
02543              -3.60    27200.00
02544              -4.20    28000.00
02545             -10.40    28000.00
02546              -4.60    28000.00
02547              -4.20    28800.00
02548             -11.60    29600.00
02549              -4.80    28800.00
02550              -6.60    29600.00
02551             -11.00    28800.00
02552              -3.40    29600.00
02553              -8.40    30400.00
02554             -10.20    31200.00
02555              -4.40    30400.00
02556             -10.60    31200.00
02557              -9.20    31200.00
02558              -7.00    31200.00
02559             -10.60    31200.00
02560              -7.80    31200.00
02561              -8.40    31200.00
02562             -10.20    32000.00
02563             -10.40    32000.00
02564              -9.80    32800.00
02565             -10.00    32800.00
02566             -10.80    32800.00
02567              -9.40    32000.00
02568             -11.60    32800.00
02569             -10.20    32800.00
02570              -9.80    32800.00
02571             -12.60    32800.00
02572             -10.00    32800.00
02573             -11.80    32800.00
02574             -11.40    32000.00
02575              -9.60    33600.00
02576             -13.00    32800.00
02577             -10.80    33600.00
02578             -10.80    32000.00
02579             -11.60    32800.00
02580             -10.20    32800.00
02581             -11.00    32000.00
02582             -10.60    32000.00
02583             -10.20    32000.00
02584              -9.40    32800.00
02585             -10.20    32000.00
02586              -9.80    32000.00
02587              -8.80    31200.00
02588             -10.00    31200.00
02589              -8.60    31200.00
02590              -8.80    31200.00
02591              -9.20    30400.00
02592              -7.60    30400.00
02593              -8.20    30400.00
02594              -8.40    30400.00
02595              -7.80    30400.00
02596              -8.00    29600.00
02597              -7.40    28800.00
02598              -7.60    28800.00
02599              -7.60    28800.00
02600              -7.00    28000.00
02601              -7.00    28000.00
02602              -6.20    28000.00
02603              -6.60    28000.00
02604              -6.60    27200.00
02605              -5.80    27200.00
02606              -6.00    26400.00
02607              -5.40    26400.00
02608              -6.00    25600.00
02609              -6.00    25600.00
02610              -5.20    24800.00
02611              -5.20    24800.00
02612              -5.20    24000.00
02613              -5.20    24000.00
02614              -5.00    24000.00
02615              -4.60    23200.00
02616              -4.40    23200.00
02617              -3.80    22400.00
02618              -4.60    21600.00
02619              -3.80    20800.00
02620              -3.80    21600.00
02621              -4.40    20000.00
02622              -3.60    19200.00
02623              -3.80    19200.00
02624              -3.40    18400.00
02625              -3.40    18400.00
02626              -3.60    17600.00
02627              -3.00    17600.00
02628              -3.40    17600.00
02629              -2.80    16000.00
02630              -2.20    16000.00
02631              -3.40    15200.00
02632              -2.40    14400.00
02633              -2.00    14400.00
02634              -2.20    13600.00
02635              -2.60    12800.00
02636              -2.20    12800.00
02637              -2.00    12000.00
02638              -2.00    12000.00
02639              -2.20    11200.00
02640              -2.00    10400.00
02641              -1.80     9600.00
02642              -1.40     9600.00
02643              -1.80     8800.00
02644              -1.20     8000.00
02645              -1.20     8000.00
02646              -1.80     6400.00
02647              -1.00     6400.00
02648              -0.40     5600.00
02649              -1.00     4800.00
02650              -1.00     4000.00
02651              -0.60     4000.00
02652              -0.40     3200.00
02653              -0.60     2400.00
02654              -1.00     2400.00
02655              -0.60     1600.00
02656              -0.20      800.00
02657              -0.40        0.00
02658               0.40     -800.00
02659               2.20    -1600.00
02660               2.80    -1600.00
02661              -1.60    -1600.00
02662               1.20    -2400.00
02663               1.80    -3200.00
02664               0.40    -3200.00
02665               0.40    -4000.00
02666               6.60    -4800.00
02667              23.60    -5600.00
02668               7.20    -7200.00
02669             -25.00    -8000.00
02670              -1.00    -8000.00
02671              25.00    -8800.00
02672             -25.00    -8000.00
02673             -20.40    -8000.00
02674              25.00    -9600.00
02675             -15.80    -9600.00
02676             -25.00   -10400.00
02677              25.00   -11200.00
02678             -25.00   -11200.00
02679             -16.60   -12800.00
02680              25.00   -12800.00
02681             -25.00   -13600.00
02682              25.00   -14400.00
02683             -16.40   -14400.00
02684              -4.40   -14400.00
02685              25.00   -16000.00
02686             -25.00   -16000.00
02687               3.00   -16800.00
02688              25.00   -16800.00
02689             -17.40   -17600.00
02690             -10.80   -18400.00
02691              25.00   -19200.00
02692             -15.00   -18400.00
02693              -7.40   -20000.00
02694              25.00   -20000.00
02695             -16.20   -20800.00
02696               3.60   -20800.00
02697              17.00   -22400.00
02698             -12.60   -22400.00
02699               7.40   -22400.00
02700              14.20   -23200.00
02701              -6.00   -24000.00
02702               8.60   -24000.00
02703              12.40   -24000.00
02704              -9.40   -24800.00
02705              12.20   -25600.00
02706               7.60   -25600.00
02707              -3.00   -25600.00
02708              12.80   -26400.00
02709               5.40   -26400.00
02710               1.60   -26400.00
02711               9.00   -27200.00
02712               6.80   -27200.00
02713               2.80   -28000.00
02714              10.00   -27200.00
02715               5.80   -28800.00
02716               3.00   -28800.00
02717              10.40   -28800.00
02718               5.20   -28800.00
02719               5.60   -28800.00
02720              11.20   -29600.00
02721               5.40   -29600.00
02722               6.80   -30400.00
02723              10.40   -29600.00
02724               5.80   -30400.00
02725               8.00   -30400.00
02726               9.40   -30400.00
02727               8.60   -31200.00
02728               9.60   -31200.00
02729               9.00   -32000.00
02730               9.00   -32000.00
02731               9.00   -32000.00
02732               9.80   -32000.00
02733               9.40   -32000.00
02734               9.40   -32000.00
02735              10.80   -32000.00
02736               9.80   -32000.00
02737              10.80   -32000.00
02738              10.20   -32000.00
02739              10.20   -32000.00
02740              11.40   -32000.00
02741              10.00   -32000.00
02742              11.40   -32000.00
02743              11.00   -32000.00
02744              10.00   -32000.00
02745              11.00   -32800.00
02746              10.00   -32000.00
02747               9.80   -32000.00
02748               9.40   -32000.00
02749               9.60   -32000.00
02750               9.80   -32000.00
02751               9.00   -31200.00
02752               9.20   -31200.00
02753               9.00   -31200.00
02754               9.00   -30400.00
02755               8.60   -30400.00
02756               8.20   -30400.00
02757               8.40   -30400.00
02758               7.60   -29600.00
02759               7.60   -29600.00
02760               7.60   -29600.00
02761               7.00   -29600.00
02762               7.00   -28800.00
02763               7.40   -28800.00
02764               6.80   -28800.00
02765               6.80   -28000.00
02766               6.00   -28800.00
02767               6.00   -28000.00
02768               6.20   -27200.00
02769               6.20   -27200.00
02770               5.60   -27200.00
02771               5.20   -26400.00
02772               5.40   -26400.00
02773               5.20   -26400.00
02774               5.00   -26400.00
02775               5.20   -24800.00
02776               4.40   -24800.00
02777               5.00   -24000.00
02778               5.00   -24000.00
02779               3.80   -24000.00
02780               4.40   -24000.00
02781               4.20   -23200.00
02782               3.60   -22400.00
02783               3.40   -22400.00
02784               3.80   -21600.00
02785               3.80   -21600.00
02786               3.40   -20800.00
02787               3.40   -20000.00
02788               3.20   -20000.00
02789               2.60   -18400.00
02790               2.80   -19200.00
02791               3.00   -18400.00
02792               2.60   -17600.00
02793               2.00   -16800.00
02794               2.60   -16800.00
02795               2.00   -16000.00
02796               1.80   -15200.00
02797               2.60   -14400.00
02798               2.00   -14400.00
02799               1.40   -14400.00
02800               2.00   -13600.00
02801               1.20   -12800.00
02802               1.40   -12800.00
02803               1.20   -12000.00
02804               1.20   -11200.00
02805               1.80   -11200.00
02806               1.20   -10400.00
02807               1.00    -9600.00
02808               1.00    -8800.00
02809               1.00    -8000.00
02810               0.40    -8000.00
02811               0.40    -7200.00
02812               0.40    -6400.00
02813               0.20    -6400.00
02814               0.40    -5600.00
02815               0.40    -4800.00
02816               0.20    -4800.00
02817               0.20    -4000.00
02818               0.60    -3200.00
02819               0.20    -2400.00
02820              -0.20    -1600.00
02821              -0.40    -1600.00
02822              -0.60     -800.00
02823              -0.20        0.00
02824              -0.20        0.00
02825              -0.20     1600.00
02826               2.00     1600.00
02827               1.40     1600.00
02828              -2.80     2400.00
02829              -0.20     3200.00
02830               0.60     4000.00
02831              -1.60     4000.00
02832               3.60     4800.00
02833              25.00     5600.00
02834              11.60     7200.00
02835             -25.00     8000.00
02836              -3.60     8000.00
02837              25.00     8000.00
02838             -25.00     8000.00
02839               6.80     9600.00
02840              25.00    10400.00
02841             -25.00    10400.00
02842              25.00    11200.00
02843              25.00    11200.00
02844             -25.00    12000.00
02845              25.00    12800.00
02846             -25.00    12800.00
02847               1.20    13600.00
02848              25.00    14400.00
02849             -25.00    14400.00
02850              25.00    16000.00
02851               7.00    16000.00
02852             -25.00    16000.00
02853              25.00    17600.00
02854              -1.20    17600.00
02855             -25.00    18400.00
02856              11.60    18400.00
02857              18.60    19200.00
02858             -25.00    19200.00
02859              20.20    20800.00
02860               9.20    20800.00
02861             -25.00    21600.00
02862              23.60    21600.00
02863             -18.80    22400.00
02864             -11.80    22400.00
02865               8.40    22400.00
02866              -9.60    23200.00
02867              -9.80    24000.00
02868              10.60    24000.00
02869             -13.20    24000.00
02870             -11.40    24800.00
02871               8.40    25600.00
02872             -18.80    25600.00
02873              -1.40    25600.00
02874              -0.40    26400.00
02875             -11.00    27200.00
02876              -4.60    27200.00
02877              -3.80    28000.00
02878              -9.40    28000.00
02879              -6.80    28000.00
02880              -2.20    28800.00
02881             -10.60    28800.00
02882              -6.60    28800.00
02883              -4.80    28800.00
02884             -11.20    29600.00
02885              -4.60    29600.00
02886              -6.00    30400.00
02887             -11.40    30400.00
02888              -5.00    31200.00
02889              -9.40    31200.00
02890             -10.60    31200.00
02891              -6.60    31200.00
02892             -10.20    32800.00
02893              -8.60    31200.00
02894              -8.20    31200.00
02895              -9.80    32000.00
02896             -10.20    32800.00
02897             -10.00    32000.00
02898              -9.80    32800.00
02899             -10.80    32800.00
02900              -9.40    32800.00
02901             -11.00    32800.00
02902             -11.00    32000.00
02903              -9.40    32800.00
02904             -12.40    32800.00
02905             -10.40    32000.00
02906             -11.40    32800.00
02907             -12.20    32800.00
02908              -9.40    32800.00
02909             -12.40    32800.00
02910             -11.40    32800.00
02911             -10.20    32800.00
02912             -11.60    32800.00
02913             -10.60    32800.00
02914             -11.00    32000.00
02915             -10.40    32000.00
02916             -10.60    32800.00
02917             -10.20    32000.00
02918              -9.80    32000.00
02919             -10.00    32000.00
02920              -9.40    32800.00
02921              -9.80    32000.00
02922              -9.00    31200.00
02923              -9.20    31200.00
02924              -9.20    30400.00
02925              -7.60    31200.00
02926              -8.20    30400.00
02927              -8.20    29600.00
02928              -7.60    30400.00
02929              -8.20    28800.00
02930              -7.00    29600.00
02931              -7.40    29600.00
02932              -7.60    28800.00
02933              -7.00    28800.00
02934              -7.40    28000.00
02935              -6.60    28000.00
02936              -6.20    28000.00
02937              -6.80    27200.00
02938              -6.00    27200.00
02939              -6.00    27200.00
02940              -5.40    26400.00
02941              -5.80    26400.00
02942              -6.00    25600.00
02943              -5.20    24800.00
02944              -5.20    24800.00
02945              -4.80    24000.00
02946              -5.40    24000.00
02947              -5.00    24000.00
02948              -4.40    24000.00
02949              -4.60    22400.00
02950              -4.20    22400.00
02951              -4.40    22400.00
02952              -4.40    21600.00
02953              -3.60    21600.00
02954              -4.20    20800.00
02955              -4.00    19200.00
02956              -3.80    19200.00
02957              -3.60    18400.00
02958              -3.20    18400.00
02959              -3.40    17600.00
02960              -3.00    17600.00
02961              -3.40    16000.00
02962              -3.00    16000.00
02963              -2.40    16000.00
02964              -3.00    15200.00
02965              -2.60    15200.00
02966              -2.40    14400.00
02967              -2.20    13600.00
02968              -2.20    13600.00
02969              -2.20    12800.00
02970              -2.20    12000.00
02971              -2.00    12000.00
02972              -2.20    11200.00
02973              -2.00    10400.00
02974              -2.20     9600.00
02975              -1.00     9600.00
02976              -1.80     8800.00
02977              -1.00     8000.00
02978              -1.20     8000.00
02979              -1.80     7200.00
02980              -1.20     6400.00
02981              -1.00     5600.00
02982              -1.20     4800.00
02983              -0.60     4800.00
02984              -1.00     4000.00
02985              -0.60     3200.00
02986              -0.80     2400.00
02987              -1.00     2400.00
02988              -0.60     1600.00
02989               0.00      800.00
02990              -0.60        0.00
02991               0.00     -800.00
02992               1.40     -800.00
02993               3.60    -1600.00
02994              -1.20    -1600.00
02995               0.40    -1600.00
02996               1.60    -3200.00
02997               0.60    -3200.00
02998               0.40    -4000.00
02999               5.20    -4000.00
03000              19.00    -4800.00
03001              18.80    -7200.00
03002             -25.00    -7200.00
03003             -15.00    -8000.00
03004              25.00    -8000.00
03005             -13.80    -8800.00
03006             -25.00    -8000.00
03007              25.00    -9600.00
03008              21.60   -10400.00
03009             -25.00   -10400.00
03010              25.00   -11200.00
03011               0.40   -11200.00
03012             -25.00   -12800.00
03013              25.00   -12800.00
03014             -25.00   -12800.00
03015              18.00   -14400.00
03016               2.00   -14400.00
03017             -21.80   -15200.00
03018              25.00   -16000.00
03019             -18.20   -16000.00
03020             -12.00   -17600.00
03021              25.00   -16800.00
03022              -7.80   -17600.00
03023             -20.40   -17600.00
03024              25.00   -18400.00
03025               0.40   -19200.00
03026             -21.20   -20000.00
03027              25.00   -20000.00
03028              -5.40   -20000.00
03029              -7.00   -20800.00
03030              21.80   -21600.00
03031              -9.20   -22400.00
03032               1.20   -22400.00
03033              15.60   -23200.00
03034              -2.60   -23200.00
03035               2.60   -24000.00
03036              17.20   -24000.00
03037              -7.00   -24000.00
03038               6.80   -24800.00
03039              12.40   -24800.00
03040              -5.40   -25600.00
03041              10.60   -26400.00
03042               7.80   -26400.00
03043               1.00   -26400.00
03044               7.60   -27200.00
03045               8.40   -27200.00
03046               2.20   -28000.00
03047               8.20   -28000.00
03048               8.20   -27200.00
03049               2.20   -28800.00
03050               9.20   -28800.00
03051               7.00   -28800.00
03052               4.40   -29600.00
03053              10.60   -28800.00
03054               6.80   -29600.00
03055               5.40   -29600.00
03056              10.60   -30400.00
03057               6.80   -30400.00
03058               7.00   -30400.00
03059               9.80   -31200.00
03060               8.40   -30400.00
03061               9.40   -30400.00
03062               8.80   -31200.00
03063               9.00   -32000.00
03064               9.00   -32000.00
03065               9.80   -31200.00
03066               9.80   -32000.00
03067               9.20   -32000.00
03068              10.80   -32000.00
03069               9.80   -32000.00
03070              10.20   -32000.00
03071              10.60   -32000.00
03072               9.80   -32000.00
03073              11.60   -32000.00
03074              10.00   -32000.00
03075              10.80   -32000.00
03076              11.40   -32000.00
03077              10.00   -32000.00
03078              11.00   -32000.00
03079              10.60   -32000.00
03080              10.00   -32000.00
03081              10.00   -32000.00
03082               9.80   -32000.00
03083              10.00   -32000.00
03084               9.00   -31200.00
03085               9.40   -31200.00
03086               9.00   -30400.00
03087               9.00   -30400.00
03088               9.20   -30400.00
03089               8.20   -30400.00
03090               8.40   -30400.00
03091               8.20   -29600.00
03092               7.80   -29600.00
03093               7.60   -29600.00
03094               7.60   -29600.00
03095               7.40   -29600.00
03096               7.00   -28800.00
03097               6.80   -28800.00
03098               6.80   -28800.00
03099               6.20   -28000.00
03100               6.20   -28000.00
03101               6.60   -28000.00
03102               6.00   -27200.00
03103               5.40   -27200.00
03104               5.20   -27200.00
03105               5.40   -26400.00
03106               5.20   -26400.00
03107               5.20   -25600.00
03108               5.00   -25600.00
03109               4.60   -25600.00
03110               5.00   -24000.00
03111               4.60   -24000.00
03112               4.40   -24000.00
03113               4.60   -23200.00
03114               3.20   -23200.00
03115               3.80   -23200.00
03116               4.40   -22400.00
03117               2.80   -21600.00
03118               3.00   -20800.00
03119               3.40   -20800.00
03120               3.80   -20000.00
03121               2.60   -19200.00
03122               2.60   -19200.00
03123               3.20   -18400.00
03124               2.60   -17600.00
03125               2.80   -17600.00
03126               2.60   -17600.00
03127               2.00   -16800.00
03128               2.60   -16800.00
03129               2.20   -16000.00
03130               1.80   -15200.00
03131               1.20   -14400.00
03132               1.40   -14400.00
03133               2.20   -13600.00
03134               1.20   -12800.00
03135               1.60   -12800.00
03136               2.00   -12800.00
03137               1.00   -11200.00
03138               1.00   -11200.00
03139               1.00   -10400.00
03140               0.40   -10400.00
03141               1.40    -8800.00
03142               1.80    -8800.00
03143               0.20    -8000.00
03144               1.00    -7200.00
03145               1.00    -6400.00
03146              -0.60    -6400.00
03147              -0.40    -4800.00
03148               1.00    -4800.00
03149               0.40    -4000.00
03150               0.40    -4000.00
03151               1.00    -3200.00
03152               0.20    -3200.00
03153              -0.20    -1600.00
03154               0.40    -1600.00
03155              -0.60     -800.00
03156              -0.60        0.00
03157               0.20        0.00
03158               0.20      800.00
03159               2.00     1600.00
03160               3.20     1600.00
03161              -2.60     2400.00
03162              -0.40     3200.00
03163               0.40     3200.00
03164              -2.20     4000.00
03165               1.20     4800.00
03166              17.80     5600.00
03167              25.00     7200.00
03168             -25.00     7200.00
03169             -20.40     8000.00
03170              25.00     8000.00
03171             -22.80     8800.00
03172             -20.60     8800.00
03173              25.00     9600.00
03174             -25.00     9600.00
03175              -4.80    11200.00
03176              25.00    11200.00
03177             -25.00    11200.00
03178              25.00    12800.00
03179               0.60    12800.00
03180             -25.00    13600.00
03181              25.00    14400.00
03182             -25.00    14400.00
03183              23.80    15200.00
03184              25.00    15200.00
03185             -25.00    16000.00
03186              25.00    16800.00
03187              16.60    17600.00
03188             -25.00    17600.00
03189              -2.80    18400.00
03190              25.00    18400.00
03191             -25.00    19200.00
03192               1.40    19200.00
03193              25.00    20000.00
03194             -25.00    20800.00
03195              17.20    21600.00
03196              -7.00    22400.00
03197             -20.20    22400.00
03198               8.40    22400.00
03199              -4.60    24000.00
03200             -13.40    24000.00
03201               8.20    24000.00
03202              -5.00    24000.00
03203             -18.60    25600.00
03204              10.00    24800.00
03205             -13.80    25600.00
03206              -7.00    26400.00
03207               3.40    25600.00
03208             -11.00    27200.00
03209              -6.20    27200.00
03210              -3.40    28000.00
03211              -7.60    28000.00
03212              -9.00    28000.00
03213              -1.40    28000.00
03214              -9.20    28800.00
03215              -9.00    28800.00
03216              -3.40    28800.00
03217             -10.00    29600.00
03218              -7.40    29600.00
03219              -3.60    29600.00
03220             -11.00    30400.00
03221              -6.20    31200.00
03222              -7.00    30400.00
03223             -11.20    31200.00
03224              -7.00    31200.00
03225              -9.40    31200.00
03226              -9.20    32800.00
03227              -8.00    32000.00
03228              -9.60    32000.00
03229             -10.20    32000.00
03230             -10.20    32000.00
03231              -9.20    32800.00
03232             -10.40    32800.00
03233              -9.40    32800.00
03234             -10.60    32800.00
03235             -11.60    32800.00
03236              -9.40    32000.00
03237             -11.60    32800.00
03238             -10.80    32000.00
03239             -11.40    32800.00
03240             -12.40    32800.00
03241              -9.40    32800.00
03242             -12.20    32000.00
03243             -12.40    32000.00
03244             -10.60    32800.00
03245             -11.60    33600.00
03246             -10.60    32000.00
03247             -11.80    32800.00
03248             -10.60    32000.00
03249              -9.80    32800.00
03250             -10.80    32000.00
03251              -9.80    32800.00
03252              -9.40    31200.00
03253             -10.00    32000.00
03254              -9.40    31200.00
03255              -9.20    31200.00
03256              -9.20    31200.00
03257              -9.40    31200.00
03258              -8.20    31200.00
03259              -8.00    30400.00
03260              -8.40    30400.00
03261              -7.80    30400.00
03262              -7.60    30400.00
03263              -7.80    29600.00
03264              -7.40    28800.00
03265              -7.00    28800.00
03266              -7.40    28800.00
03267              -7.40    28000.00
03268              -6.00    28000.00
03269              -6.60    28000.00
03270              -7.00    27200.00
03271              -5.80    27200.00
03272              -6.00    27200.00
03273              -6.00    27200.00
03274              -5.40    26400.00
03275              -6.00    25600.00
03276              -5.20    25600.00
03277              -5.00    24800.00
03278              -5.20    24800.00
03279              -5.00    24800.00
03280              -5.20    24000.00
03281              -4.80    24000.00
03282              -4.60    24000.00
03283              -4.20    22400.00
03284              -4.40    22400.00
03285              -4.20    21600.00
03286              -3.40    21600.00
03287              -4.40    20800.00
03288              -3.80    20800.00
03289              -3.60    20000.00
03290              -3.80    19200.00
03291              -3.00    18400.00
03292              -3.40    18400.00
03293              -3.60    17600.00
03294              -3.00    17600.00
03295              -2.60    16800.00
03296              -2.60    16000.00
03297              -2.80    15200.00
03298              -2.60    15200.00
03299              -2.80    14400.00
03300              -2.20    13600.00
03301              -2.60    13600.00
03302              -2.60    12800.00
03303              -2.40    12000.00
03304              -2.00    12000.00
03305              -1.60    11200.00
03306              -2.00    11200.00
03307              -2.40     9600.00
03308              -1.40     9600.00
03309              -1.80     8800.00
03310              -2.00     8000.00
03311              -1.20     8000.00
03312              -1.80     7200.00
03313              -1.40     6400.00
03314              -1.00     7200.00
03315              -1.40     5600.00
03316              -1.00     4800.00
03317              -1.20     4000.00
03318              -1.00     3200.00
03319              -0.60     3200.00
03320              -1.20     2400.00
03321              -1.20     1600.00
03322              -0.40     1600.00
03323              -0.40      800.00
03324               0.20     -800.00
03325               1.00     -800.00
03326               3.40     -800.00
03327               0.20    -1600.00
03328              -0.60    -1600.00
03329               1.20    -3200.00
03330               1.20    -3200.00
03331               0.00    -4000.00
03332               2.80    -4000.00
03333              15.00    -4800.00
03334              25.00    -6400.00
03335             -25.00    -7200.00
03336             -25.00    -8000.00
03337              25.00    -8000.00
03338               1.20    -8000.00
03339             -25.00    -8000.00
03340              25.00    -9600.00
03341              25.00    -9600.00
03342             -25.00   -10400.00
03343              25.00   -11200.00
03344              25.00   -11200.00
03345             -25.00   -11200.00
03346              25.00   -12800.00
03347             -12.20   -13600.00
03348               1.40   -13600.00
03349              19.60   -14400.00
03350             -25.00   -14400.00
03351              25.00   -16000.00
03352              -0.40   -16000.00
03353             -24.60   -16800.00
03354              25.00   -16800.00
03355               5.20   -16800.00
03356             -25.00   -17600.00
03357              19.60   -18400.00
03358              15.60   -19200.00
03359             -25.00   -19200.00
03360              25.00   -19200.00
03361               8.20   -20800.00
03362             -15.80   -20800.00
03363              22.20   -22400.00
03364              -3.60   -21600.00
03365              -5.20   -22400.00
03366              15.60   -22400.00
03367               2.00   -23200.00
03368              -3.00   -24000.00
03369              18.60   -24000.00
03370              -3.40   -24800.00
03371               0.40   -24800.00
03372              15.80   -25600.00
03373              -5.00   -25600.00
03374               7.60   -25600.00
03375              10.60   -25600.00
03376               0.80   -26400.00
03377               6.80   -26400.00
03378               8.40   -27200.00
03379               2.20   -27200.00
03380               7.40   -28000.00
03381               8.40   -28000.00
03382               2.80   -28000.00
03383               8.60   -28800.00
03384               7.40   -28800.00
03385               4.40   -28800.00
03386               9.40   -28800.00
03387               8.20   -29600.00
03388               5.40   -29600.00
03389              10.00   -29600.00
03390               7.40   -30400.00
03391               6.40   -30400.00
03392               9.80   -30400.00
03393               8.60   -31200.00
03394               9.00   -30400.00
03395               9.20   -31200.00
03396               8.80   -32000.00
03397               8.40   -32000.00
03398               9.40   -32000.00
03399               9.80   -32000.00
03400               9.00   -32000.00
03401              10.80   -32000.00
03402              10.40   -32000.00
03403              10.00   -32000.00
03404              11.00   -32000.00
03405               9.80   -32000.00
03406              11.40   -32000.00
03407              11.00   -32000.00
03408              10.60   -32000.00
03409              11.40   -32000.00
03410              10.60   -32000.00
03411              10.60   -32000.00
03412              10.80   -32000.00
03413              10.20   -32000.00
03414              10.20   -32000.00
03415               9.20   -32000.00
03416              10.00   -32000.00
03417               9.80   -31200.00
03418               8.80   -31200.00
03419               9.20   -32000.00
03420               9.40   -31200.00
03421               8.40   -30400.00
03422               8.20   -30400.00
03423               8.60   -30400.00
03424               7.40   -30400.00
03425               7.40   -29600.00
03426               8.20   -29600.00
03427               7.20   -29600.00
03428               7.60   -28800.00
03429               7.40   -28800.00
03430               6.20   -28800.00
03431               7.20   -28800.00
03432               6.60   -28800.00
03433               6.00   -28000.00
03434               6.80   -27200.00
03435               5.80   -27200.00
03436               5.80   -27200.00
03437               5.40   -26400.00
03438               5.20   -27200.00
03439               5.80   -26400.00
03440               4.80   -25600.00
03441               4.40   -25600.00
03442               4.60   -24800.00
03443               4.40   -24000.00
03444               4.20   -24000.00
03445               4.40   -24000.00
03446               4.20   -23200.00
03447               3.60   -23200.00
03448               4.00   -23200.00
03449               3.60   -22400.00
03450               3.40   -22400.00
03451               3.60   -20800.00
03452               3.00   -20800.00
03453               3.00   -20000.00
03454               3.40   -20000.00
03455               2.40   -20000.00
03456               2.60   -18400.00
03457               2.80   -18400.00
03458               2.60   -18400.00
03459               2.60   -16800.00
03460               2.60   -17600.00
03461               2.20   -16800.00
03462               2.00   -16000.00
03463               2.00   -16000.00
03464               2.00   -14400.00
03465               1.80   -14400.00
03466               1.60   -14400.00
03467               1.20   -12800.00
03468               1.40   -12800.00
03469               1.20   -12800.00
03470               1.00   -11200.00
03471               1.80   -10400.00
03472               1.20   -10400.00
03473               0.80    -9600.00
03474               1.20    -9600.00
03475               0.40    -8800.00
03476               0.40    -8000.00
03477               1.20    -8000.00
03478               0.40    -7200.00
03479               0.20    -6400.00
03480               0.60    -5600.00
03481               0.20    -4800.00
03482               0.20    -4000.00
03483               0.60    -4000.00
03484              -0.20    -3200.00
03485               0.20    -2400.00
03486              -0.20    -2400.00
03487               0.20    -1600.00
03488              -0.40     -800.00
03489              -1.20     -800.00
03490               1.20        0.00
03491               0.60      800.00
03492              -1.00     1600.00
03493               3.60     2400.00
03494              -1.40     2400.00
03495              -2.80     3200.00
03496               1.20     3200.00
03497               1.00     3200.00
03498              -1.40     4800.00
03499              13.00     5600.00
03500              25.00     7200.00
03501             -25.00     8000.00
03502             -25.00     8000.00
03503              25.00     8000.00
03504              -6.40     8000.00
03505             -25.00     8800.00
03506              25.00     9600.00
03507             -16.20     9600.00
03508             -25.00    11200.00
03509              25.00    11200.00
03510             -25.00    11200.00
03511               6.80    12800.00
03512              25.00    12800.00
03513             -25.00    12800.00
03514              25.00    14400.00
03515             -25.00    14400.00
03516             -17.00    15200.00
03517              25.00    16000.00
03518             -25.00    15200.00
03519              12.40    16800.00
03520              25.00    17600.00
03521             -25.00    17600.00
03522             -14.20    18400.00
03523              25.00    18400.00
03524             -24.40    19200.00
03525             -17.40    20000.00
03526              25.00    20000.00
03527             -25.00    20800.00
03528               4.40    21600.00
03529               6.60    22400.00
03530             -25.00    22400.00
03531               6.80    22400.00
03532               0.40    24000.00
03533             -14.60    23200.00
03534               2.60    24000.00
03535               2.20    24000.00
03536             -21.80    24800.00
03537               6.80    25600.00
03538              -7.00    25600.00
03539             -12.60    25600.00
03540               5.00    27200.00
03541              -9.40    26400.00
03542              -7.60    27200.00
03543              -3.40    27200.00
03544              -6.20    27200.00
03545             -10.20    28000.00
03546              -2.20    28000.00
03547              -7.60    28800.00
03548              -9.80    28800.00
03549              -3.40    28800.00
03550              -9.40    28800.00
03551              -8.60    30400.00
03552              -2.40    29600.00
03553             -11.00    29600.00
03554              -7.60    30400.00
03555              -5.40    30400.00
03556             -12.20    31200.00
03557              -7.00    31200.00
03558              -8.00    31200.00
03559             -10.00    32000.00
03560              -7.60    31200.00
03561              -9.00    32000.00
03562             -10.80    32000.00
03563             -10.80    32800.00
03564              -8.80    32000.00
03565             -10.20    32000.00
03566             -10.00    32800.00
03567              -9.00    32800.00
03568             -11.80    32800.00
03569              -9.80    32800.00
03570             -11.00    32800.00
03571             -12.40    32000.00
03572             -10.00    32800.00
03573             -12.60    32800.00
03574             -10.60    32800.00
03575             -11.00    32800.00
03576             -12.60    32800.00
03577             -10.20    32800.00
03578             -11.40    32800.00
03579             -11.40    32800.00
03580             -11.20    32800.00
03581             -10.80    32000.00
03582             -10.60    32000.00
03583             -10.40    32000.00
03584              -9.40    32000.00
03585             -10.20    32800.00
03586              -9.40    31200.00
03587              -9.40    31200.00
03588              -9.80    31200.00
03589              -8.40    31200.00
03590              -9.40    31200.00
03591              -9.00    31200.00
03592              -7.40    30400.00
03593              -8.60    30400.00
03594              -8.60    30400.00
03595              -7.80    28800.00
03596              -7.60    29600.00
03597              -7.40    28800.00
03598              -7.60    28800.00
03599              -6.80    28800.00
03600              -6.80    28000.00
03601              -6.80    28800.00
03602              -6.80    28000.00
03603              -6.60    27200.00
03604              -6.00    27200.00
03605              -6.00    27200.00
03606              -5.40    27200.00
03607              -5.40    25600.00
03608              -7.00    25600.00
03609              -5.00    25600.00
03610              -4.40    24800.00
03611              -6.00    24800.00
03612              -5.00    24800.00
03613              -5.00    24000.00
03614              -5.00    24000.00
03615              -3.80    22400.00
03616              -3.80    22400.00
03617              -4.80    21600.00
03618              -4.40    21600.00
03619              -3.80    21600.00
03620              -4.60    20800.00
03621              -3.80    20000.00
03622              -3.00    19200.00
03623              -4.40    19200.00
03624              -3.00    18400.00
03625              -3.00    18400.00
03626              -4.20    17600.00
03627              -3.40    17600.00
03628              -2.80    16000.00
03629              -2.80    16000.00
03630              -2.60    16000.00
03631              -2.80    15200.00
03632              -2.40    14400.00
03633              -2.40    14400.00
03634              -2.80    13600.00
03635              -2.20    12800.00
03636              -2.20    12000.00
03637              -2.20    12000.00
03638              -1.80    11200.00
03639              -2.80    11200.00
03640              -2.80    10400.00
03641              -1.80     9600.00
03642              -1.40     8800.00
03643              -2.00     8000.00
03644              -0.60     8000.00
03645              -1.80     7200.00
03646              -1.80     6400.00
03647              -0.60     5600.00
03648              -1.60     5600.00
03649              -1.20     4800.00
03650              -1.00     4800.00
03651              -1.00     3200.00
03652              -0.60     2400.00
03653              -1.40     2400.00
03654              -1.40     1600.00
03655              -0.60      800.00
03656              -0.60        0.00
03657               0.00        0.00
03658               0.60        0.00
03659               3.20     -800.00
03660               1.20    -1600.00
03661              -1.20    -1600.00
03662               1.40    -2400.00
03663               1.20    -3200.00
03664               0.20    -3200.00
03665               2.00    -4000.00
03666              11.00    -4800.00
03667              25.00    -6400.00
03668             -18.20    -7200.00
03669             -25.00    -8000.00
03670              18.20    -8000.00
03671              14.20    -8800.00
03672             -25.00    -8000.00
03673              11.80    -8000.00
03674              25.00   -10400.00
03675             -25.00    -9600.00
03676              12.20   -11200.00
03677              25.00   -11200.00
03678             -25.00   -11200.00
03679              25.00   -12800.00
03680              10.20   -12800.00
03681             -15.40   -13600.00
03682              25.00   -14400.00
03683             -25.00   -15200.00
03684              24.20   -15200.00
03685              18.00   -16000.00
03686             -25.00   -16800.00
03687              24.40   -16800.00
03688              17.80   -17600.00
03689             -25.00   -17600.00
03690               7.60   -18400.00
03691              25.00   -18400.00
03692             -25.00   -19200.00
03693              16.20   -20000.00
03694              21.40   -20800.00
03695             -20.20   -20800.00
03696              18.00   -20800.00
03697               4.40   -22400.00
03698             -10.20   -22400.00
03699              13.20   -22400.00
03700               7.60   -23200.00
03701              -5.80   -23200.00
03702              16.20   -24000.00
03703               3.20   -24000.00
03704              -5.60   -24800.00
03705              16.20   -25600.00
03706              -1.20   -25600.00
03707               2.80   -26400.00
03708              12.60   -25600.00
03709               2.00   -26400.00
03710               3.40   -26400.00
03711               9.80   -27200.00
03712               3.60   -27200.00
03713               5.00   -28000.00
03714              10.80   -28000.00
03715               3.60   -28000.00
03716               5.80   -28800.00
03717               9.80   -28800.00
03718               3.60   -29600.00
03719               7.60   -28800.00
03720              10.00   -29600.00
03721               4.40   -29600.00
03722               9.40   -30400.00
03723               9.00   -30400.00
03724               5.80   -30400.00
03725               9.20   -30400.00
03726               9.00   -31200.00
03727               8.60   -31200.00
03728               9.20   -32000.00
03729               9.00   -32000.00
03730               9.00   -31200.00
03731               9.20   -32000.00
03732              10.40   -32000.00
03733               9.40   -32000.00
03734              10.20   -32000.00
03735              10.20   -32000.00
03736              10.00   -32000.00
03737              11.00   -32000.00
03738              10.00   -32000.00
03739              11.40   -32000.00
03740              11.40   -32800.00
03741              10.60   -32000.00
03742              11.80   -32000.00
03743              10.40   -32000.00
03744              10.60   -32000.00
03745              10.80   -32000.00
03746              10.00   -32000.00
03747              10.00   -32000.00
03748               9.40   -32000.00
03749               9.80   -32000.00
03750               9.40   -31200.00
03751               9.60   -32000.00
03752               9.40   -31200.00
03753               9.00   -30400.00
03754               9.00   -31200.00
03755               8.40   -30400.00
03756               8.00   -30400.00
03757               8.40   -30400.00
03758               8.00   -29600.00
03759               8.20   -29600.00
03760               7.60   -29600.00
03761               7.40   -29600.00
03762               6.80   -28800.00
03763               6.40   -28800.00
03764               7.00   -28800.00
03765               6.80   -28800.00
03766               5.80   -28000.00
03767               6.20   -27200.00
03768               6.00   -27200.00
03769               5.80   -27200.00
03770               5.00   -27200.00
03771               5.80   -26400.00
03772               5.80   -26400.00
03773               4.60   -26400.00
03774               4.60   -25600.00
03775               5.20   -25600.00
03776               4.00   -24000.00
03777               4.60   -24000.00
03778               4.40   -24000.00
03779               4.20   -24000.00
03780               3.20   -23200.00
03781               4.20   -23200.00
03782               4.20   -22400.00
03783               3.00   -21600.00
03784               3.80   -21600.00
03785               3.60   -20800.00
03786               2.60   -20800.00
03787               3.40   -20000.00
03788               3.40   -19200.00
03789               2.40   -18400.00
03790               2.60   -18400.00
03791               3.00   -17600.00
03792               2.60   -17600.00
03793               1.80   -16800.00
03794               2.60   -16800.00
03795               2.60   -16000.00
03796               2.00   -16000.00
03797               2.20   -15200.00
03798               1.80   -14400.00
03799               1.40   -13600.00
03800               1.40   -12800.00
03801               2.00   -12800.00
03802               2.00   -12000.00
03803               1.00   -11200.00
03804               1.20   -11200.00
03805               1.80   -10400.00
03806               0.60    -9600.00
03807               1.00    -9600.00
03808               1.80    -8800.00
03809               0.40    -8000.00
03810               0.60    -7200.00
03811               1.00    -7200.00
03812               0.20    -6400.00
03813               0.00    -6400.00
03814               1.40    -4800.00
03815               0.60    -4800.00
03816              -0.40    -4000.00
03817               0.20    -3200.00
03818               0.40    -3200.00
03819              -0.20    -2400.00
03820              -0.20    -1600.00
03821               0.00    -1600.00
03822              -0.20        0.00
03823              -0.20        0.00
03824              -0.40        0.00
03825              -0.20     1600.00
03826               3.00     1600.00
03827              -1.20     2400.00
03828              -1.40     2400.00
03829               0.40     3200.00
03830              -0.20     4000.00
03831              -2.00     4800.00
03832               8.40     5600.00
03833              25.00     6400.00
03834             -18.20     7200.00
03835             -25.00     8000.00
03836              17.20     8000.00
03837               9.00     8000.00
03838             -25.00     8800.00
03839              25.00     9600.00
03840              25.00     9600.00
03841             -25.00    10400.00
03842              25.00    11200.00
03843             -24.60    11200.00
03844             -25.00    12800.00
03845              25.00    12800.00
03846             -25.00    13600.00
03847              25.00    14400.00
03848              -3.20    14400.00
03849             -25.00    14400.00
03850              25.00    15200.00
03851             -25.00    16000.00
03852             -14.00    17600.00
03853              25.00    16800.00
03854             -24.40    18400.00
03855             -24.80    17600.00
03856              25.00    18400.00
03857              -6.20    19200.00
03858             -25.00    20000.00
03859              25.00    20000.00
03860             -21.00    21600.00
03861             -10.00    21600.00
03862              18.00    21600.00
03863             -25.00    22400.00
03864               1.40    22400.00
03865               3.80    22400.00
03866             -13.80    23200.00
03867              -2.40    24000.00
03868               8.40    24000.00
03869             -21.20    24800.00
03870               1.40    25600.00
03871              -0.20    25600.00
03872             -18.20    25600.00
03873               4.40    25600.00
03874              -6.60    26400.00
03875              -9.00    26400.00
03876              -2.80    27200.00
03877              -5.20    28000.00
03878             -10.40    28000.00
03879              -3.60    28000.00
03880              -5.40    28800.00
03881             -10.80    28800.00
03882              -3.80    29600.00
03883              -7.00    28800.00
03884             -10.80    29600.00
03885              -2.60    29600.00
03886              -9.00    30400.00
03887              -9.40    30400.00
03888              -4.40    30400.00
03889             -11.00    30400.00
03890              -8.20    31200.00
03891              -7.60    31200.00
03892             -10.20    32000.00
03893              -8.20    32800.00
03894              -8.60    32000.00
03895             -10.00    32800.00
03896             -10.60    32000.00
03897              -9.20    32000.00
03898             -10.00    32800.00
03899             -10.80    32800.00
03900              -9.40    32000.00
03901             -11.80    32800.00
03902             -10.20    32000.00
03903             -10.60    32800.00
03904             -12.60    32000.00
03905              -9.40    32800.00
03906             -12.60    32800.00
03907             -11.40    32800.00
03908              -9.40    32800.00
03909             -13.80    32800.00
03910             -11.00    32000.00
03911             -10.60    32800.00
03912             -11.80    32000.00
03913             -10.80    32800.00
03914             -10.80    32800.00
03915             -11.00    32000.00
03916             -10.60    32800.00
03917              -9.20    32000.00
03918             -11.00    32000.00
03919              -9.80    31200.00
03920              -8.40    31200.00
03921             -10.60    31200.00
03922              -8.40    31200.00
03923              -8.60    31200.00
03924              -9.80    30400.00
03925              -7.00    30400.00
03926              -7.80    30400.00
03927              -8.60    30400.00
03928              -7.40    30400.00
03929              -8.20    29600.00
03930              -7.40    28800.00
03931              -7.00    28800.00
03932              -7.60    28800.00
03933              -7.40    28800.00
03934              -6.40    28000.00
03935              -6.40    28000.00
03936              -6.80    27200.00
03937              -6.00    27200.00
03938              -6.00    27200.00
03939              -6.00    26400.00
03940              -5.20    27200.00
03941              -6.00    25600.00
03942              -5.40    25600.00
03943              -4.80    25600.00
03944              -5.20    24800.00
03945              -5.00    24000.00
03946              -5.20    24800.00
03947              -4.80    24000.00
03948              -4.40    23200.00
03949              -4.40    22400.00
03950              -4.40    21600.00
03951              -4.20    22400.00
03952              -3.40    21600.00
03953              -4.20    20800.00
03954              -4.20    20800.00
03955              -3.60    19200.00
03956              -4.00    19200.00
03957              -3.40    18400.00
03958              -3.00    18400.00
03959              -3.40    17600.00
03960              -3.00    16800.00
03961              -3.40    16800.00
03962              -3.00    16000.00
03963              -2.80    15200.00
03964              -3.40    16000.00
03965              -2.40    14400.00
03966              -2.60    14400.00
03967              -2.60    12800.00
03968              -2.20    12800.00
03969              -2.20    12800.00
03970              -2.20    12000.00
03971              -2.00    12000.00
03972              -2.20    11200.00
03973              -2.20     9600.00
03974              -2.20     9600.00
03975              -1.20     9600.00
03976              -2.20     8800.00
03977              -1.40     8000.00
03978              -1.20     7200.00
03979              -1.40     6400.00
03980              -0.80     5600.00
03981              -1.40     5600.00
03982              -1.40     4800.00
03983              -1.00     4800.00
03984              -1.40     3200.00
03985              -0.40     3200.00
03986              -0.60     2400.00
03987              -1.20     2400.00
03988              -0.60     1600.00
03989              -0.40        0.00
03990              -0.60      800.00
03991               0.60        0.00
03992               2.00     -800.00
03993               2.20    -1600.00
03994              -1.00    -1600.00
03995               1.20    -2400.00
03996               1.00    -3200.00
03997               0.40    -3200.00
03998               1.00    -4000.00
03999               7.80    -4000.00
04000              25.00    -6400.00
04001              -2.00    -6400.00
04002             -25.00    -8000.00
04003               6.80    -8800.00
04004              23.00    -8000.00
04005             -25.00    -8000.00
04006             -10.00    -8000.00
04007              25.00   -10400.00
04008             -25.00   -10400.00
04009             -25.00   -10400.00
04010              25.00   -11200.00
04011             -25.00   -11200.00
04012               2.00   -12800.00
04013              25.00   -12800.00
04014             -25.00   -12800.00
04015              25.00   -14400.00
04016             -25.00   -14400.00
04017               6.80   -15200.00
04018              25.00   -16000.00
04019             -25.00   -16000.00
04020              11.60   -16800.00
04021              25.00   -17600.00
04022             -22.00   -17600.00
04023              -4.40   -18400.00
04024              25.00   -19200.00
04025             -22.20   -19200.00
04026               1.20   -20000.00
04027              25.00   -20000.00
04028             -19.40   -20000.00
04029               9.60   -20800.00
04030              12.60   -22400.00
04031             -12.40   -22400.00
04032              10.00   -22400.00
04033              12.00   -22400.00
04034              -6.80   -24000.00
04035              11.00   -24000.00
04036               8.60   -24000.00
04037              -8.60   -24000.00
04038              14.60   -25600.00
04039               4.20   -25600.00
04040              -1.00   -25600.00
04041              12.40   -26400.00
04042               3.40   -26400.00
04043               2.00   -26400.00
04044               9.40   -27200.00
04045               5.80   -28000.00
04046               3.60   -27200.00
04047              10.40   -28000.00
04048               5.20   -28800.00
04049               3.80   -28800.00
04050              10.00   -29600.00
04051               4.40   -29600.00
04052               6.60   -29600.00
04053              10.80   -29600.00
04054               5.20   -29600.00
04055               7.80   -29600.00
04056               9.80   -30400.00
04057               6.00   -30400.00
04058               9.20   -30400.00
04059               9.40   -31200.00
04060               8.40   -31200.00
04061               9.60   -31200.00
04062               8.60   -32000.00
04063               8.60   -32000.00
04064               9.40   -32000.00
04065              10.00   -32000.00
04066               9.60   -32000.00
04067              10.20   -31200.00
04068              10.60   -32000.00
04069               9.40   -32000.00
04070              11.60   -32000.00
04071               9.80   -32000.00
04072              10.60   -32000.00
04073              12.20   -32000.00
04074              10.00   -32000.00
04075              11.80   -32000.00
04076              10.80   -32000.00
04077              10.00   -32000.00
04078              11.60   -32000.00
04079              10.20   -32000.00
04080              10.00   -32000.00
04081              10.20   -32000.00
04082               9.60   -32000.00
04083               9.20   -32000.00
04084               9.80   -32000.00
04085               9.80   -31200.00
04086               8.60   -31200.00
04087               9.20   -30400.00
04088               8.40   -30400.00
04089               8.20   -30400.00
04090               8.60   -29600.00
04091               7.60   -29600.00
04092               8.00   -29600.00
04093               7.60   -29600.00
04094               6.60   -29600.00
04095               7.00   -28800.00
04096               6.80   -28800.00
04097               6.80   -28800.00
04098               7.00   -28800.00
04099               6.20   -28800.00
04100               5.80   -28000.00
04101               6.00   -27200.00
04102               6.00   -27200.00
04103               5.20   -27200.00
04104               5.60   -26400.00
04105               5.80   -26400.00
04106               4.40   -25600.00
04107               5.00   -25600.00
04108               5.20   -25600.00
04109               4.20   -25600.00
04110               5.00   -24000.00
04111               4.20   -24000.00
04112               4.00   -23200.00
04113               4.40   -23200.00
04114               3.40   -23200.00
04115               3.60   -22400.00
04116               3.80   -22400.00
04117               3.40   -20800.00
04118               3.40   -20800.00
04119               3.60   -20000.00
04120               3.20   -20000.00
04121               2.80   -19200.00
04122               2.80   -18400.00
04123               2.60   -18400.00
04124               2.60   -17600.00
04125               2.80   -17600.00
04126               2.60   -16800.00
04127               2.60   -16800.00
04128               2.20   -16000.00
04129               1.80   -15200.00
04130               2.20   -16000.00
04131               2.00   -14400.00
04132               1.80   -14400.00
04133               2.00   -13600.00
04134               1.80   -12800.00
04135               1.20   -12000.00
04136               1.40   -11200.00
04137               1.80   -11200.00
04138               1.60   -10400.00
04139               1.20   -10400.00
04140               1.20    -9600.00
04141               0.80    -9600.00
04142               0.60    -8000.00
04143               1.00    -8000.00
04144               0.60    -7200.00
04145               0.60    -6400.00
04146               0.40    -6400.00
04147               0.40    -4800.00
04148               0.40    -4800.00
04149               0.20    -4000.00
04150              -0.20    -3200.00
04151               0.40    -3200.00
04152               0.20    -1600.00
04153               0.00    -1600.00
04154               0.20    -1600.00
04155              -0.20     -800.00
04156              -0.40        0.00
04157              -0.20      800.00
04158               0.20      800.00
04159               2.20     1600.00
04160               0.60     2400.00
04161              -2.80     2400.00
04162              -0.20     3200.00
04163               0.40     4800.00
04164              -2.00     4800.00
04165               4.80     4800.00
04166              25.00     7200.00
04167               1.20     7200.00
04168             -25.00     8000.00
04169               5.00     8000.00
04170              21.00     8000.00
04171             -25.00     8000.00
04172              23.20     9600.00
04173              25.00     9600.00
04174             -25.00    11200.00
04175              25.00    11200.00
04176              21.60    12000.00
04177             -25.00    12000.00
04178              25.00    12800.00
04179             -25.00    12800.00
04180              23.40    14400.00
04181              25.00    13600.00
04182             -25.00    15200.00
04183              25.00    15200.00
04184             -13.20    15200.00
04185             -25.00    16000.00
04186              25.00    16000.00
04187             -10.20    17600.00
04188             -25.00    17600.00
04189              18.60    18400.00
04190              10.80    19200.00
04191             -25.00    20000.00
04192              25.00    20800.00
04193              -2.20    20800.00
04194             -24.60    21600.00
04195              24.60    22400.00
04196             -23.20    22400.00
04197              -7.00    22400.00
04198               7.40    22400.00
04199             -12.40    23200.00
04200              -7.00    24000.00
04201              11.60    24800.00
04202             -17.20    24800.00
04203              -6.20    24800.00
04204               6.20    25600.00
04205             -19.40    25600.00
04206               2.00    26400.00
04207              -3.40    27200.00
04208             -10.80    27200.00
04209              -3.00    27200.00
04210              -4.60    28000.00
04211             -10.00    28000.00
04212              -4.60    28000.00
04213              -3.60    28000.00
04214             -11.00    28800.00
04215              -5.00    28800.00
04216              -5.80    28800.00
04217             -10.80    28800.00
04218              -3.60    30400.00
04219              -7.00    30400.00
04220             -10.60    30400.00
04221              -4.60    31200.00
04222             -10.00    31200.00
04223              -9.40    31200.00
04224              -7.60    31200.00
04225             -10.60    32000.00
04226              -8.20    32000.00
04227              -8.60    32000.00
04228             -10.20    32800.00
04229             -10.20    31200.00
04230             -10.00    32800.00
04231              -9.40    32800.00
04232             -10.60    32000.00
04233             -10.00    32800.00
04234             -11.40    32800.00
04235             -10.80    32800.00
04236             -10.00    32800.00
04237             -12.80    32800.00
04238             -10.00    33600.00
04239             -11.80    32800.00
04240             -11.80    32800.00
04241             -10.00    32800.00
04242             -12.60    32800.00
04243             -10.80    32800.00
04244             -11.00    32800.00
04245             -11.40    32000.00
04246             -10.60    32000.00
04247             -11.20    32800.00
04248             -10.40    32800.00
04249             -10.40    32000.00
04250             -10.00    32800.00
04251             -10.00    32000.00
04252             -10.00    31200.00
04253              -9.20    32000.00
04254              -9.60    31200.00
04255              -8.60    31200.00
04256              -9.20    32000.00
04257              -9.20    31200.00
04258              -7.40    30400.00
04259              -8.20    31200.00
04260              -8.60    30400.00
04261              -7.20    30400.00
04262              -8.00    29600.00
04263              -7.40    28800.00
04264              -6.80    29600.00
04265              -7.60    28800.00
04266              -7.00    28800.00
04267              -6.80    28800.00
04268              -6.20    28000.00
04269              -6.20    28000.00
04270              -6.20    27200.00
04271              -6.00    27200.00
04272              -5.80    27200.00
04273              -5.40    26400.00
04274              -5.80    25600.00
04275              -5.00    25600.00
04276              -5.20    25600.00
04277              -5.00    24800.00
04278              -4.60    24800.00
04279              -5.60    24000.00
04280              -4.40    24000.00
04281              -4.40    23200.00
04282              -5.00    23200.00
04283              -3.80    22400.00
04284              -4.60    22400.00
04285              -4.40    21600.00
04286              -3.00    21600.00
04287              -4.40    20800.00
04288              -4.20    19200.00
04289              -3.40    19200.00
04290              -4.20    18400.00
04291              -3.60    17600.00
04292              -3.00    17600.00
04293              -3.80    17600.00
04294              -3.00    16800.00
04295              -2.60    16800.00
04296              -3.80    16000.00
04297              -3.00    15200.00
04298              -2.20    14400.00
04299              -3.60    14400.00
04300              -1.60    13600.00
04301              -2.00    12800.00
04302              -3.40    12800.00
04303              -2.20    12000.00
04304              -2.60    11200.00
04305              -2.40    11200.00
04306              -1.60    10400.00
04307              -2.20     9600.00
04308              -1.20     9600.00
04309              -2.20     8000.00
04310              -1.40     8000.00
04311              -1.20     8000.00
04312              -2.00     7200.00
04313              -1.20     6400.00
04314              -0.60     5600.00
04315              -1.80     4800.00
04316              -1.20     4800.00
04317              -1.00     4000.00
04318              -0.40     3200.00
04319              -0.60     2400.00
04320              -1.20     1600.00
04321              -0.60     1600.00
04322              -0.20      800.00
04323              -0.60        0.00
04324               0.60        0.00
04325               2.00     -800.00
04326               3.60    -1600.00
04327              -1.20     -800.00
04328               0.20    -2400.00
04329               1.20    -3200.00
04330               0.40    -3200.00
04331               0.40    -4000.00
04332               6.20    -4800.00
04333              22.20    -6400.00
04334              12.20    -7200.00
04335             -25.00    -8000.00
04336              -7.00    -8000.00
04337              25.00    -8000.00
04338             -22.00    -8000.00
04339             -25.00    -8800.00
04340              25.00    -9600.00
04341               0.40    -9600.00
04342             -25.00   -10400.00
04343              25.00   -11200.00
04344             -21.00   -11200.00
04345             -25.00   -12800.00
04346              25.00   -12800.00
04347             -25.00   -13600.00
04348              25.00   -13600.00
04349              -8.60   -14400.00
04350             -13.20   -15200.00
04351              25.00   -16000.00
04352             -25.00   -16000.00
04353              -4.20   -16800.00
04354              25.00   -16800.00
04355             -14.00   -17600.00
04356             -15.80   -18400.00
04357              25.00   -19200.00
04358              -8.60   -18400.00
04359             -13.80   -20000.00
04360              25.00   -20000.00
04361             -11.60   -20800.00
04362              -1.00   -21600.00
04363              18.80   -21600.00
04364             -10.80   -22400.00
04365               3.40   -22400.00
04366              14.60   -22400.00
04367              -4.20   -23200.00
04368               4.20   -23200.00
04369              15.80   -24000.00
04370              -7.80   -25600.00
04371               8.40   -24800.00
04372              10.20   -25600.00
04373              -4.40   -25600.00
04374              10.20   -25600.00
04375               7.40   -26400.00
04376               1.40   -26400.00
04377               7.80   -27200.00
04378               8.40   -28000.00
04379               2.00   -27200.00
04380               9.00   -28800.00
04381               7.20   -28800.00
04382               2.80   -28800.00
04383               9.80   -29600.00
04384               6.00   -28800.00
04385               5.40   -28800.00
04386              10.60   -28800.00
04387               6.00   -29600.00
04388               6.20   -29600.00
04389              10.20   -30400.00
04390               6.20   -30400.00
04391               7.80   -30400.00
04392               9.80   -30400.00
04393               8.20   -31200.00
04394               9.80   -31200.00
04395               9.20   -31200.00
04396               8.60   -32000.00
04397               9.20   -32000.00
04398              10.20   -32000.00
04399               9.20   -32000.00
04400               9.80   -32000.00
04401              11.40   -32000.00
04402               9.60   -32800.00
04403              11.00   -32000.00
04404              10.80   -32000.00
04405              10.00   -32000.00
04406              12.20   -32800.00
04407              10.20   -32000.00
04408              10.80   -32000.00
04409              11.60   -32000.00
04410              10.20   -32000.00
04411              10.80   -32000.00
04412              10.80   -32000.00
04413              10.00   -32000.00
04414              10.00   -32000.00
04415              10.00   -32000.00
04416               9.40   -32000.00
04417               9.20   -30400.00
04418               9.80   -32000.00
04419               8.40   -31200.00
04420               9.00   -31200.00
04421               9.00   -30400.00
04422               7.40   -31200.00
04423               8.40   -30400.00
04424               8.00   -30400.00
04425               7.00   -30400.00
04426               8.20   -29600.00
04427               7.40   -29600.00
04428               7.00   -28800.00
04429               7.20   -28800.00
04430               6.80   -28800.00
04431               6.20   -28800.00
04432               6.80   -28800.00
04433               5.80   -28000.00
04434               6.20   -27200.00
04435               6.60   -27200.00
04436               5.00   -27200.00
04437               4.40   -27200.00
04438               5.80   -26400.00
04439               5.20   -26400.00
04440               4.40   -25600.00
04441               5.40   -24800.00
04442               4.20   -25600.00
04443               4.20   -24000.00
04444               5.00   -24000.00
04445               4.20   -23200.00
04446               3.80   -23200.00
04447               4.40   -23200.00
04448               3.60   -23200.00
04449               3.20   -22400.00
04450               3.80   -21600.00
04451               3.40   -20800.00
04452               3.00   -20800.00
04453               3.60   -20000.00
04454               2.80   -20000.00
04455               2.80   -19200.00
04456               2.80   -18400.00
04457               2.80   -18400.00
04458               3.40   -17600.00
04459               2.60   -17600.00
04460               2.60   -16800.00
04461               2.80   -16000.00
04462               1.80   -16000.00
04463               2.20   -16000.00
04464               2.20   -14400.00
04465               1.40   -14400.00
04466               1.80   -13600.00
04467               2.00   -12800.00
04468               1.40   -12800.00
04469               1.20   -12000.00
04470               1.20   -11200.00
04471               1.40   -10400.00
04472               1.20   -10400.00
04473               1.20    -9600.00
04474               1.00    -9600.00
04475               0.40    -8000.00
04476               1.20    -8000.00
04477               0.60    -7200.00
04478               0.60    -7200.00
04479               0.40    -6400.00
04480               0.40    -5600.00
04481               0.20    -4800.00
04482               0.00    -4800.00
04483               0.20    -4000.00
04484               0.20    -3200.00
04485              -0.20    -3200.00
04486               0.00    -1600.00
04487              -0.40     -800.00
04488              -0.20     -800.00
04489              -0.40        0.00
04490              -0.20        0.00
04491               0.20      800.00
04492               1.80     1600.00
04493               1.80     2400.00
04494              -2.80     2400.00
04495              -0.40     2400.00
04496               0.40     3200.00
04497              -1.60     3200.00
04498               2.20     4800.00
04499              21.40     7200.00
04500              18.60     7200.00
04501             -25.00     7200.00
04502             -11.40     8000.00
04503              25.00     8000.00
04504             -25.00     8000.00
04505              -6.00     8800.00
04506              25.00     9600.00
04507             -25.00     9600.00
04508              21.40    11200.00
04509              25.00    11200.00
04510             -25.00    12000.00
04511              25.00    12800.00
04512             -22.80    12800.00
04513             -15.80    13600.00
04514              25.00    14400.00
04515             -25.00    15200.00
04516              25.00    15200.00
04517              22.20    16000.00
04518             -25.00    16000.00
04519              25.00    16800.00
04520               6.60    17600.00
04521             -25.00    18400.00
04522               5.80    18400.00
04523              23.00    18400.00
04524             -25.00    19200.00
04525              13.20    20000.00
04526              17.20    20800.00
04527             -25.00    21600.00
04528              22.40    21600.00
04529             -14.60    21600.00
04530             -15.60    22400.00
04531               9.40    22400.00
04532              -7.60    23200.00
04533             -11.00    24000.00
04534              10.40    24000.00
04535             -10.20    24800.00
04536             -14.80    24800.00
04537              10.00    25600.00
04538             -17.00    25600.00
04539              -3.60    26400.00
04540               1.80    26400.00
04541             -11.00    27200.00
04542              -5.00    27200.00
04543              -3.80    27200.00
04544              -9.20    28000.00
04545              -7.60    28000.00
04546              -1.80    28000.00
04547             -10.20    28800.00
04548              -7.40    28800.00
04549              -3.80    28800.00
04550             -11.40    29600.00
04551              -6.00    29600.00
04552              -4.60    29600.00
04553             -11.80    30400.00
04554              -5.40    30400.00
04555              -7.60    31200.00
04556             -11.00    31200.00
04557              -6.60    30400.00
04558              -9.80    31200.00
04559              -9.40    31200.00
04560              -8.40    31200.00
04561              -9.80    32000.00
04562             -10.60    32000.00
04563             -10.00    32800.00
04564              -9.20    32000.00
04565             -10.20    32000.00
04566              -9.20    32800.00
04567             -10.80    32800.00
04568             -12.00    32800.00
04569              -9.00    32800.00
04570             -12.60    32800.00
04571             -11.40    33600.00
04572             -10.20    32000.00
04573             -13.20    32800.00
04574              -9.80    32800.00
04575             -12.00    32800.00
04576             -12.20    32000.00
04577             -10.40    32000.00
04578             -11.40    32800.00
04579             -11.00    32800.00
04580             -11.00    32000.00
04581             -10.00    32800.00
04582             -10.60    32000.00
04583             -10.00    32000.00
04584              -9.00    32000.00
04585             -10.80    32000.00
04586              -9.20    32800.00
04587              -9.40    31200.00
04588              -9.20    31200.00
04589              -8.60    31200.00
04590              -9.40    30400.00
04591              -8.20    30400.00
04592              -7.20    30400.00
04593              -8.60    30400.00
04594              -7.40    30400.00
04595              -7.60    29600.00
04596              -7.60    30400.00
04597              -7.00    29600.00
04598              -7.20    28800.00
04599              -7.40    28800.00
04600              -6.80    28000.00
04601              -6.00    28000.00
04602              -6.80    27200.00
04603              -6.60    28000.00
04604              -6.00    27200.00
04605              -6.00    27200.00
04606              -5.20    27200.00
04607              -6.00    25600.00
04608              -6.20    25600.00
04609              -4.60    24800.00
04610              -5.20    24800.00
04611              -5.20    24800.00
04612              -5.00    24000.00
04613              -5.00    24000.00
04614              -4.40    23200.00
04615              -4.40    23200.00
04616              -4.40    22400.00
04617              -4.40    22400.00
04618              -4.00    21600.00
04619              -3.80    20800.00
04620              -4.40    20000.00
04621              -3.80    20000.00
04622              -3.80    19200.00
04623              -3.80    19200.00
04624              -3.40    18400.00
04625              -3.80    17600.00
04626              -3.00    17600.00
04627              -3.40    16800.00
04628              -3.40    16000.00
04629              -2.40    16000.00
04630              -3.00    15200.00
04631              -2.60    15200.00
04632              -2.80    14400.00
04633              -2.60    14400.00
04634              -2.20    13600.00
04635              -2.60    12800.00
04636              -3.00    12000.00
04637              -2.00    11200.00
04638              -2.20    11200.00
04639              -2.00    10400.00
04640              -2.20     9600.00
04641              -1.20     9600.00
04642              -2.20     8800.00
04643              -1.40     8000.00
04644              -1.00     8000.00
04645              -1.40     7200.00
04646              -1.40     6400.00
04647              -1.00     5600.00
04648              -1.40     5600.00
04649              -1.00     5600.00
04650              -1.00     4000.00
04651              -0.60     2400.00
04652              -0.60     3200.00
04653              -1.20     2400.00
04654              -1.00     1600.00
04655               0.00     1600.00
04656              -0.20        0.00
04657               0.20     -800.00
04658               1.20     -800.00
04659               3.80    -1600.00
04660              -0.40    -1600.00
04661              -0.40    -1600.00
04662               2.00    -1600.00
04663               1.00    -3200.00
04664              -0.20    -4000.00
04665               4.40    -4800.00
04666              17.40    -5600.00
04667              22.60    -7200.00
04668             -25.00    -7200.00
04669             -21.20    -8000.00
04670              25.00    -8000.00
04671              -7.20    -8000.00
04672             -25.00    -8000.00
04673              25.00    -9600.00
04674              25.00   -10400.00
04675             -25.00   -10400.00
04676              25.00   -11200.00
04677              17.20   -11200.00
04678             -25.00   -12000.00
04679              25.00   -12800.00
04680             -22.20   -12800.00
04681              11.60   -13600.00
04682               9.20   -14400.00
04683             -25.00   -15200.00
04684              25.00   -15200.00
04685             -13.00   -16000.00
04686             -17.40   -16800.00
04687              25.00   -16800.00
04688              -2.20   -17600.00
04689             -21.80   -17600.00
04690              25.00   -18400.00
04691               7.80   -19200.00
04692             -25.00   -20000.00
04693              25.00   -20000.00
04694              -0.40   -20800.00
04695             -12.40   -20800.00
04696              21.80   -22400.00
04697              -6.60   -21600.00
04698              -1.80   -22400.00
04699              15.80   -23200.00
04700               0.60   -24000.00
04701              -0.60   -24000.00
04702              17.40   -24000.00
04703              -6.00   -24000.00
04704               2.80   -24800.00
04705              13.00   -25600.00
04706              -5.60   -25600.00
04707               9.00   -26400.00
04708              10.00   -26400.00
04709               1.80   -26400.00
04710               7.00   -26400.00
04711               9.00   -27200.00
04712               1.80   -27200.00
04713               6.60   -28000.00
04714               8.60   -28800.00
04715               2.00   -28800.00
04716               8.80   -28800.00
04717               8.40   -28800.00
04718               4.40   -29600.00
04719              10.60   -29600.00
04720               8.20   -28800.00
04721               5.20   -30400.00
04722               9.80   -30400.00
04723               6.60   -30400.00
04724               6.60   -30400.00
04725              10.00   -30400.00
04726               8.60   -30400.00
04727              10.00   -31200.00
04728               9.80   -31200.00
04729               9.00   -32000.00
04730               9.00   -31200.00
04731               9.80   -32000.00
04732               9.20   -31200.00
04733               9.20   -32000.00
04734              11.40   -31200.00
04735              10.00   -32000.00
04736              10.60   -32000.00
04737              11.40   -32000.00
04738              10.00   -32000.00
04739              11.80   -32000.00
04740              10.60   -32000.00
04741              10.40   -32000.00
04742              11.60   -32000.00
04743              10.00   -32000.00
04744              10.20   -32000.00
04745              10.80   -32000.00
04746              10.40   -32000.00
04747              10.00   -32000.00
04748               9.80   -32000.00
04749               9.80   -32000.00
04750               9.00   -32000.00
04751               9.20   -30400.00
04752               9.00   -31200.00
04753               8.60   -30400.00
04754               9.00   -30400.00
04755               8.20   -30400.00
04756               8.60   -30400.00
04757               7.60   -30400.00
04758               7.40   -29600.00
04759               8.20   -29600.00
04760               7.40   -29600.00
04761               6.80   -28800.00
04762               6.80   -28800.00
04763               6.60   -28800.00
04764               6.60   -28800.00
04765               6.80   -28800.00
04766               6.00   -28000.00
04767               6.60   -28000.00
04768               5.80   -27200.00
04769               5.40   -27200.00
04770               5.20   -26400.00
04771               5.60   -26400.00
04772               5.20   -26400.00
04773               4.60   -25600.00
04774               5.00   -24800.00
04775               4.80   -24800.00
04776               4.60   -24000.00
04777               4.60   -24800.00
04778               4.20   -24000.00
04779               4.40   -23200.00
04780               3.60   -23200.00
04781               4.00   -22400.00
04782               3.80   -22400.00
04783               3.60   -22400.00
04784               4.00   -20800.00
04785               3.60   -20800.00
04786               3.40   -20000.00
04787               3.40   -20000.00
04788               2.60   -19200.00
04789               2.80   -18400.00
04790               2.80   -18400.00
04791               2.60   -17600.00
04792               2.60   -17600.00
04793               2.60   -16800.00
04794               2.60   -16000.00
04795               2.40   -16000.00
04796               2.20   -15200.00
04797               2.20   -14400.00
04798               1.80   -14400.00
04799               1.80   -13600.00
04800               1.80   -12800.00
04801               1.80   -12800.00
04802               1.40   -12000.00
04803               1.20   -11200.00
04804               1.80   -11200.00
04805               1.40   -10400.00
04806               1.20    -9600.00
04807               1.00    -8800.00
04808               0.60    -8800.00
04809               0.60    -8000.00
04810               0.60    -8000.00
04811               0.40    -7200.00
04812               0.60    -6400.00
04813               0.40    -5600.00
04814               0.40    -4800.00
04815               0.40    -4000.00
04816               0.20    -4000.00
04817               0.20    -3200.00
04818               0.20    -2400.00
04819              -0.40    -2400.00
04820              -0.40     -800.00
04821              -0.40     -800.00
04822              -0.20     -800.00
04823              -0.40        0.00
04824              -0.20     1600.00
04825               1.00     1600.00
04826               3.00     1600.00
04827              -3.00     2400.00
04828              -1.20     3200.00
04829               1.00     3200.00
04830              -1.20     4000.00
04831               0.00     4800.00
04832              15.20     5600.00
04833              25.00     6400.00
04834             -25.00     8000.00
04835             -25.00     8000.00
04836              25.00     8800.00
04837             -15.80     8000.00
04838             -25.00     8800.00
04839              25.00     9600.00
04840             -25.00     9600.00
04841             -24.40    11200.00
04842              25.00    11200.00
04843             -25.00    12000.00
04844              25.00    12800.00
04845              17.00    12800.00
04846             -25.00    14400.00
04847              25.00    14400.00
04848             -25.00    14400.00
04849               7.40    15200.00
04850              25.00    16000.00
04851             -25.00    16000.00
04852              24.20    16800.00
04853              23.40    17600.00
04854             -25.00    17600.00
04855              -7.60    19200.00
04856              25.00    19200.00
04857             -25.00    19200.00
04858              -5.80    20800.00
04859              25.00    20800.00
04860             -25.00    21600.00
04861              13.80    21600.00
04862              -1.80    21600.00
04863             -23.60    22400.00
04864               9.40    22400.00
04865              -3.00    24000.00
04866             -15.00    24000.00
04867               6.80    24800.00
04868              -1.40    24800.00
04869             -20.60    24800.00
04870               9.40    24800.00
04871             -12.20    25600.00
04872             -10.60    25600.00
04873               5.00    26400.00
04874             -10.60    27200.00
04875              -7.00    27200.00
04876              -3.00    27200.00
04877              -7.40    27200.00
04878              -9.80    28000.00
04879              -1.80    28800.00
04880              -8.60    28800.00
04881              -9.80    28800.00
04882              -3.40    28800.00
04883             -10.20    28800.00
04884              -7.80    30400.00
04885              -3.00    29600.00
04886             -11.00    30400.00
04887              -7.00    30400.00
04888              -6.00    31200.00
04889             -11.60    31200.00
04890              -7.20    31200.00
04891              -9.00    31200.00
04892              -9.80    32800.00
04893              -8.20    32000.00
04894              -9.20    32000.00
04895             -10.80    32000.00
04896             -10.60    32000.00
04897              -9.40    32800.00
04898             -11.00    32000.00
04899             -10.00    32800.00
04900              -9.80    32000.00
04901             -11.80    32800.00
04902              -9.20    32800.00
04903             -11.80    32800.00
04904             -11.80    32800.00
04905             -10.00    32800.00
04906             -13.20    32000.00
04907              -9.80    32800.00
04908             -11.40    32800.00
04909             -12.60    32000.00
04910             -10.20    32800.00
04911             -11.40    32800.00
04912             -11.00    32800.00
04913             -10.80    32000.00
04914             -10.20    32800.00
04915             -10.40    32800.00
04916             -10.20    32000.00
04917              -9.20    32800.00
04918             -10.20    32000.00
04919              -9.80    32000.00
04920              -9.20    32000.00
04921              -9.00    31200.00
04922              -9.00    31200.00
04923              -9.80    31200.00
04924              -7.80    31200.00
04925              -7.40    30400.00
04926              -8.80    31200.00
04927              -7.80    30400.00
04928              -7.40    30400.00
04929              -7.80    29600.00
04930              -7.40    29600.00
04931              -6.80    28800.00
04932              -7.20    28800.00
04933              -7.00    28800.00
04934              -5.80    28000.00
04935              -6.40    28000.00
04936              -6.80    28000.00
04937              -5.80    27200.00
04938              -5.80    27200.00
04939              -5.80    26400.00
04940              -6.00    25600.00
04941              -6.00    25600.00
04942              -4.60    25600.00
04943              -5.60    24800.00
04944              -5.20    24800.00
04945              -4.60    24000.00
04946              -6.00    24000.00
04947              -4.80    24000.00
04948              -4.20    22400.00
04949              -4.60    22400.00
04950              -4.40    22400.00
04951              -3.80    21600.00
04952              -4.20    21600.00
04953              -4.40    20800.00
04954              -3.80    20000.00
04955              -4.20    20800.00
04956              -4.20    19200.00
04957              -3.40    18400.00
04958              -3.40    18400.00
04959              -3.40    17600.00
04960              -3.60    17600.00
04961              -3.00    16000.00
04962              -2.60    16000.00
04963              -3.40    15200.00
04964              -2.60    15200.00
04965              -2.40    14400.00
04966              -3.00    14400.00
04967              -2.00    13600.00
04968              -2.20    12800.00
04969              -2.80    12800.00
04970              -1.40    12000.00
04971              -1.80    11200.00
04972              -2.20    11200.00
04973              -2.60     9600.00
04974              -1.80     9600.00
04975              -1.40     8800.00
04976              -2.20     8000.00
04977              -1.00     8000.00
04978              -1.20     7200.00
04979              -1.80     7200.00
04980              -0.60     6400.00
04981              -1.20     5600.00
04982              -1.00     5600.00
04983              -0.40     4000.00
04984              -0.60     3200.00
04985              -1.00     3200.00
04986              -1.20     2400.00
04987              -0.60     1600.00
04988              -0.60      800.00
04989              -0.40      800.00
04990               0.40        0.00
04991               0.20        0.00
04992               3.60    -1600.00
04993               1.00    -1600.00
04994              -1.20    -1600.00
04995               1.80    -2400.00
04996               1.60    -3200.00
04997               0.20    -3200.00
04998               2.60    -4000.00
04999              13.20    -4800.00
05000              25.00    -6400.00
