Unit:(mV)
                     CH1         CH2
Frequency              ? 299.920 kHz
00001             -25.00    -8000.00
00002             -25.00    -8000.00
00003              24.20    -8000.00
00004               4.20    -8000.00
00005             -25.00    -8000.00
00006              25.00    -9600.00
00007              25.00   -10400.00
00008             -25.00   -10400.00
00009              25.00   -11200.00
00010              25.00   -11200.00
00011             -25.00   -11200.00
00012              25.00   -12800.00
00013             -12.60   -12800.00
00014              10.20   -13600.00
00015               8.20   -14400.00
00016             -25.00   -15200.00
00017              25.00   -16000.00
00018              -8.80   -16000.00
00019             -25.00   -16800.00
00020              25.00   -16800.00
00021               1.80   -17600.00
00022             -25.00   -17600.00
00023              21.00   -19200.00
00024              13.80   -19200.00
00025             -25.00   -19200.00
00026              24.20   -20000.00
00027               5.40   -20800.00
00028             -13.40   -20800.00
00029              14.20   -21600.00
00030              -7.40   -22400.00
00031              -0.40   -22400.00
00032               6.80   -23200.00
00033              -3.80   -23200.00
00034               3.40   -24000.00
00035              10.00   -24000.00
00036             -11.20   -24800.00
00037               5.20   -25600.00
00038               8.60   -25600.00
00039             -12.20   -25600.00
00040               9.00   -26400.00
00041               5.00   -27200.00
00042              -5.40   -27200.00
00043               4.40   -27200.00
00044               3.60   -27200.00
00045              -2.60   -28800.00
00046               3.00   -28800.00
00047               3.60   -28800.00
00048              -1.80   -28800.00
00049               3.00   -28800.00
00050               1.80   -29600.00
00051               0.00   -29600.00
00052               4.20   -30400.00
00053               1.00   -30400.00
00054               0.20   -29600.00
00055               3.60   -30400.00
00056              -1.00   -30400.00
00057               1.20   -31200.00
00058               3.00   -30400.00
00059              -0.20   -32000.00
00060               3.00   -32000.00
00061               2.00   -32000.00
00062               0.20   -32000.00
00063               2.00   -32000.00
00064               1.80   -32000.00
00065               0.60   -32800.00
00066               2.00   -32000.00
00067               2.00   -32800.00
00068               0.40   -32000.00
00069               1.80   -32800.00
00070               1.80   -32800.00
00071               0.20   -32800.00
00072               2.60   -32800.00
00073               1.20   -32000.00
00074               0.60   -32800.00
00075               2.60   -32800.00
00076               0.40   -32800.00
00077               1.80   -32800.00
00078               2.60   -32800.00
00079               0.60   -32800.00
00080               1.60   -32800.00
00081               1.80   -32000.00
00082               1.20   -32800.00
00083               1.20   -32000.00
00084               1.80   -32000.00
00085               1.40   -32000.00
00086               1.40   -32000.00
00087               1.60   -30400.00
00088               1.20   -31200.00
00089               1.60   -30400.00
00090               1.20   -30400.00
00091               1.20   -30400.00
00092               2.00   -30400.00
00093               1.20   -30400.00
00094               1.20   -29600.00
00095               2.20   -29600.00
00096               1.20   -29600.00
00097               1.00   -28800.00
00098               1.60   -28800.00
00099               1.20   -28800.00
00100               0.80   -28000.00
00101               1.60   -27200.00
00102               1.00   -27200.00
00103               1.00   -27200.00
00104               1.20   -27200.00
00105               1.60   -26400.00
00106               1.40   -26400.00
00107               1.60   -26400.00
00108               0.60   -25600.00
00109               1.00   -24800.00
00110               1.20   -24800.00
00111               0.60   -24000.00
00112               1.20   -24000.00
00113               1.00   -23200.00
00114               0.60   -23200.00
00115               1.00   -23200.00
00116               1.00   -22400.00
00117               0.60   -22400.00
00118               0.60   -20800.00
00119               1.00   -20800.00
00120               0.60   -20800.00
00121               0.40   -20000.00
00122               0.40   -19200.00
00123               0.60   -18400.00
00124               0.60   -18400.00
00125               0.60   -17600.00
00126               0.40   -17600.00
00127               0.40   -16800.00
00128               0.40   -16000.00
00129               0.20   -16000.00
00130               0.40   -16000.00
00131               0.40   -14400.00
00132               0.40   -14400.00
00133               0.20   -13600.00
00134               0.40   -12800.00
00135               0.20   -12000.00
00136              -0.20   -11200.00
00137               0.40   -11200.00
00138               0.20   -11200.00
00139              -0.20    -9600.00
00140              -0.40    -9600.00
00141              -0.20    -8800.00
00142               0.20    -8000.00
00143              -0.20    -8000.00
00144              -0.20    -7200.00
00145              -0.20    -7200.00
00146              -0.20    -6400.00
00147              -0.20    -4800.00
00148              -0.40    -4800.00
00149              -0.60    -4000.00
00150               0.20    -3200.00
00151               0.00    -3200.00
00152              -0.60    -3200.00
00153              -0.40    -1600.00
00154              -0.40     -800.00
00155              -0.40     -800.00
00156               0.20        0.00
00157              -0.20      800.00
00158               0.60     1600.00
00159               3.60     2400.00
00160              -0.60     2400.00
00161              -1.80     2400.00
00162               1.00     3200.00
00163               0.20     4000.00
00164              -1.00     4800.00
00165               9.40     5600.00
00166              25.00     7200.00
00167             -24.20     7200.00
00168             -25.00     8000.00
00169              21.40     8800.00
00170               6.40     8000.00
00171             -25.00     8800.00
00172              25.00     9600.00
00173               8.40     9600.00
00174             -25.00    11200.00
00175              25.00    11200.00
00176             -25.00    12000.00
00177              -5.40    12800.00
00178              25.00    12800.00
00179             -25.00    12800.00
00180              25.00    14400.00
00181             -25.00    14400.00
00182             -25.00    15200.00
00183              25.00    16000.00
00184             -25.00    16000.00
00185               4.40    16800.00
00186              25.00    16800.00
00187             -25.00    18400.00
00188             -17.80    18400.00
00189              25.00    19200.00
00190             -16.60    20000.00
00191             -20.40    20800.00
00192              25.00    20800.00
00193             -25.00    20800.00
00194               7.60    21600.00
00195               5.20    22400.00
00196             -22.80    22400.00
00197              15.40    24000.00
00198              -4.60    24000.00
00199             -11.00    24000.00
00200              13.20    24000.00
00201              -0.40    24800.00
00202             -19.60    24800.00
00203              16.40    25600.00
00204              -7.80    25600.00
00205             -12.40    26400.00
00206              13.60    27200.00
00207              -8.80    27200.00
00208              -4.20    27200.00
00209               4.20    28800.00
00210              -4.60    28000.00
00211              -4.20    28000.00
00212               3.00    28800.00
00213              -4.20    28800.00
00214              -3.60    30400.00
00215               1.00    30400.00
00216              -4.60    30400.00
00217              -1.80    31200.00
00218               2.00    31200.00
00219              -6.00    31200.00
00220              -0.40    31200.00
00221              -0.40    32000.00
00222              -6.60    32000.00
00223               1.00    32800.00
00224              -2.40    32000.00
00225              -3.40    32800.00
00226               0.80    32800.00
00227              -2.60    32800.00
00228              -3.00    33600.00
00229              -2.00    32800.00
00230              -2.80    33600.00
00231              -2.00    32800.00
00232              -1.80    33600.00
00233              -1.80    33600.00
00234              -2.80    33600.00
00235              -0.60    33600.00
00236              -2.20    33600.00
00237              -3.00    33600.00
00238              -0.60    33600.00
00239              -3.60    33600.00
00240              -1.00    33600.00
00241              -1.00    33600.00
00242              -3.80    33600.00
00243              -1.00    33600.00
00244              -2.20    33600.00
00245              -2.20    32800.00
00246              -2.00    33600.00
00247              -2.60    33600.00
00248              -2.20    32800.00
00249              -2.20    32800.00
00250              -1.80    33600.00
00251              -2.60    32800.00
00252              -2.00    32000.00
00253              -1.80    32800.00
00254              -2.20    32000.00
00255              -1.80    32000.00
00256              -3.00    32000.00
00257              -2.20    32000.00
00258              -1.00    31200.00
00259              -2.00    31200.00
00260              -2.20    30400.00
00261              -1.80    31200.00
00262              -2.80    30400.00
00263              -1.60    30400.00
00264              -2.00    30400.00
00265              -2.20    29600.00
00266              -2.00    28800.00
00267              -1.80    28800.00
00268              -1.80    28800.00
00269              -2.20    28000.00
00270              -2.00    28000.00
00271              -2.00    27200.00
00272              -1.80    27200.00
00273              -1.80    27200.00
00274              -2.60    26400.00
00275              -1.80    25600.00
00276              -1.40    25600.00
00277              -1.40    25600.00
00278              -1.00    24800.00
00279              -2.00    24800.00
00280              -1.60    24000.00
00281              -2.00    24000.00
00282              -1.80    24000.00
00283              -1.20    23200.00
00284              -1.80    22400.00
00285              -1.00    22400.00
00286              -1.40    21600.00
00287              -2.20    21600.00
00288              -1.00    20000.00
00289              -1.20    19200.00
00290              -2.00    19200.00
00291              -0.60    19200.00
00292               0.00    18400.00
00293              -2.20    17600.00
00294              -1.80    17600.00
00295               0.40    16000.00
00296              -1.40    16000.00
00297              -2.40    16000.00
00298              -0.40    15200.00
00299              -0.60    14400.00
00300              -2.20    14400.00
00301              -1.40    13600.00
00302               0.40    12800.00
00303              -1.20    12800.00
00304              -1.40    12000.00
00305               1.00    11200.00
00306              -1.20    11200.00
00307              -2.80     9600.00
00308               1.00     9600.00
00309              -0.40     8800.00
00310              -2.40     8000.00
00311               0.00     8000.00
00312               0.60     7200.00
00313              -1.40     6400.00
00314              -0.60     5600.00
00315               0.40     5600.00
00316              -1.20     4800.00
00317              -1.20     4000.00
00318               0.60     3200.00
00319              -0.20     3200.00
00320              -1.00     1600.00
00321               0.20     1600.00
00322               0.20      800.00
00323              -0.60      800.00
00324               0.40        0.00
00325               2.40     -800.00
00326               2.80    -1600.00
00327              -2.20    -1600.00
00328               0.40    -2400.00
00329               1.80    -3200.00
00330               0.40    -3200.00
00331               0.20    -4000.00
00332               7.80    -4000.00
00333              25.00    -5600.00
00334              -1.40    -7200.00
00335             -25.00    -8000.00
00336               5.20    -8000.00
00337              24.40    -8000.00
00338             -25.00    -8800.00
00339             -13.00    -8800.00
00340              25.00   -10400.00
00341             -25.00    -9600.00
00342             -25.00   -10400.00
00343              25.00   -11200.00
00344             -25.00   -12000.00
00345              -1.00   -12800.00
00346              21.80   -12800.00
00347             -17.00   -13600.00
00348              25.00   -14400.00
00349             -25.00   -14400.00
00350              15.40   -14400.00
00351              25.00   -16000.00
00352             -25.00   -16800.00
00353              16.20   -16800.00
00354              25.00   -17600.00
00355             -25.00   -17600.00
00356              -3.80   -18400.00
00357              25.00   -19200.00
00358             -25.00   -18400.00
00359               1.20   -20000.00
00360              25.00   -20000.00
00361             -18.60   -20800.00
00362               7.80   -21600.00
00363               3.60   -22400.00
00364              -8.60   -22400.00
00365               8.60   -22400.00
00366               1.00   -23200.00
00367              -3.00   -24000.00
00368              11.80   -24000.00
00369              -3.00   -24000.00
00370              -6.80   -25600.00
00371              14.60   -25600.00
00372              -7.00   -25600.00
00373              -1.20   -26400.00
00374              11.40   -26400.00
00375              -4.40   -27200.00
00376               0.00   -27200.00
00377               6.00   -27200.00
00378              -1.60   -28000.00
00379               0.40   -28000.00
00380               5.00   -28800.00
00381              -1.40   -28800.00
00382               1.00   -29600.00
00383               3.60   -29600.00
00384              -1.00   -29600.00
00385               2.60   -29600.00
00386               3.40   -30400.00
00387              -1.20   -30400.00
00388               3.40   -30400.00
00389               1.40   -32000.00
00390              -1.00   -32000.00
00391               3.00   -32000.00
00392               1.00   -32000.00
00393               1.40   -31200.00
00394               3.00   -32000.00
00395               0.20   -32000.00
00396               1.20   -32000.00
00397               2.00   -32000.00
00398               0.60   -32000.00
00399               1.80   -32000.00
00400               2.20   -32800.00
00401               1.40   -32800.00
00402               1.20   -32000.00
00403               2.20   -32800.00
00404               0.40   -32000.00
00405               1.40   -32800.00
00406               1.80   -32000.00
00407               0.40   -32800.00
00408               2.60   -32800.00
00409               1.40   -32800.00
00410               0.60   -32800.00
00411               2.60   -32000.00
00412               1.20   -32800.00
00413               1.20   -32800.00
00414               1.80   -32800.00
00415               1.80   -32000.00
00416               1.20   -32000.00
00417               1.80   -32000.00
00418               1.20   -32000.00
00419               1.20   -32000.00
00420               1.80   -32000.00
00421               1.20   -31200.00
00422               1.20   -30400.00
00423               1.80   -30400.00
00424               1.20   -30400.00
00425               1.40   -30400.00
00426               2.20   -30400.00
00427               1.00   -29600.00
00428               2.00   -30400.00
00429               1.20   -29600.00
00430               0.60   -29600.00
00431               1.80   -28800.00
00432               1.80   -28800.00
00433               0.60   -28800.00
00434               1.40   -28000.00
00435               1.00   -28000.00
00436               0.80   -27200.00
00437               1.20   -26400.00
00438               1.80   -27200.00
00439               1.00   -25600.00
00440               1.40   -26400.00
00441               0.60   -25600.00
00442               0.80   -25600.00
00443               1.80   -24800.00
00444               1.20   -24000.00
00445               0.60   -24000.00
00446               1.20   -24000.00
00447               0.40   -23200.00
00448               0.40   -23200.00
00449               1.20   -22400.00
00450               0.40   -21600.00
00451               0.60   -22400.00
00452               1.00   -20800.00
00453               0.40   -20800.00
00454               0.40   -20000.00
00455               0.60   -19200.00
00456               0.40   -19200.00
00457               1.00   -18400.00
00458               0.80   -17600.00
00459               0.20   -17600.00
00460               0.40   -16800.00
00461               0.40   -16000.00
00462               0.20   -16000.00
00463               0.60   -15200.00
00464               0.20   -14400.00
00465               0.20   -14400.00
00466               0.60   -14400.00
00467               0.20   -12800.00
00468              -0.20   -12800.00
00469              -0.20   -12800.00
00470              -0.20   -12000.00
00471              -0.20   -11200.00
00472              -0.40   -10400.00
00473              -0.20    -9600.00
00474              -0.20    -9600.00
00475               0.60    -8800.00
00476               0.40    -8000.00
00477               0.20    -8000.00
00478               0.40    -6400.00
00479              -0.60    -6400.00
00480              -0.40    -5600.00
00481               0.20    -5600.00
00482              -1.00    -4000.00
00483               0.40    -3200.00
00484               0.20    -4000.00
00485              -0.60    -2400.00
00486               0.40    -1600.00
00487              -0.40    -1600.00
00488              -1.00     -800.00
00489               0.20        0.00
00490              -0.20        0.00
00491               0.60     1600.00
00492               2.00     1600.00
00493               1.40     2400.00
00494              -1.20     2400.00
00495              -0.60     3200.00
00496               0.40     4000.00
00497               1.20     4000.00
00498               1.80     4800.00
00499              23.60     6400.00
00500              14.60     7200.00
00501             -25.00     8000.00
00502              -4.60     8800.00
00503              25.00     8800.00
00504             -25.00     8800.00
00505               5.80     9600.00
00506              25.00     9600.00
00507             -25.00    10400.00
00508              25.00    11200.00
00509              25.00    12000.00
00510             -25.00    12000.00
00511              25.00    12800.00
00512             -25.00    12800.00
00513              20.80    14400.00
00514              25.00    14400.00
00515             -25.00    15200.00
00516              25.00    16000.00
00517              -0.20    16000.00
00518             -25.00    16800.00
00519              25.00    16800.00
00520              -2.80    18400.00
00521             -25.00    18400.00
00522              18.00    19200.00
00523              17.00    20000.00
00524             -25.00    20000.00
00525              24.40    20800.00
00526               2.60    20800.00
00527             -18.00    21600.00
00528              22.60    22400.00
00529             -23.80    22400.00
00530               2.20    22400.00
00531               7.60    23200.00
00532             -14.80    24000.00
00533               3.80    24800.00
00534              13.20    24800.00
00535             -19.80    25600.00
00536               2.00    25600.00
00537              10.20    25600.00
00538             -21.20    27200.00
00539               9.00    26400.00
00540               2.20    27200.00
00541              -9.40    28000.00
00542               3.40    28000.00
00543              -1.00    28800.00
00544              -6.20    28800.00
00545               0.40    28800.00
00546              -0.40    28800.00
00547              -5.40    28800.00
00548               0.80    30400.00
00549              -1.40    30400.00
00550              -5.20    30400.00
00551               2.60    31200.00
00552              -2.60    31200.00
00553              -4.40    31200.00
00554               2.00    31200.00
00555              -5.00    32000.00
00556              -2.20    32000.00
00557               0.60    32800.00
00558              -4.60    32000.00
00559               0.20    32800.00
00560              -0.60    32800.00
00561              -3.80    32800.00
00562              -2.20    33600.00
00563              -2.60    32800.00
00564              -2.60    32800.00
00565              -1.80    33600.00
00566              -0.60    33600.00
00567              -2.20    33600.00
00568              -1.80    33600.00
00569              -0.60    33600.00
00570              -4.20    33600.00
00571              -1.20    32800.00
00572              -2.20    33600.00
00573              -3.40    33600.00
00574               0.60    33600.00
00575              -2.80    33600.00
00576              -2.20    33600.00
00577              -1.20    33600.00
00578              -2.80    33600.00
00579              -2.60    33600.00
00580              -2.60    33600.00
00581              -2.20    32800.00
00582              -2.20    33600.00
00583              -1.20    32800.00
00584              -2.00    32800.00
00585              -2.20    32800.00
00586              -1.20    32800.00
00587              -2.60    32000.00
00588              -2.00    32800.00
00589              -2.20    32000.00
00590              -3.60    31200.00
00591              -1.40    31200.00
00592              -1.40    31200.00
00593              -2.20    31200.00
00594              -1.20    31200.00
00595              -1.80    30400.00
00596              -2.00    30400.00
00597              -2.00    30400.00
00598              -2.80    28800.00
00599              -2.60    29600.00
00600              -1.80    28800.00
00601              -1.40    28800.00
00602              -1.80    28000.00
00603              -1.80    28000.00
00604              -1.80    28000.00
00605              -1.80    27200.00
00606              -1.80    27200.00
00607              -2.20    27200.00
00608              -2.00    26400.00
00609              -1.40    25600.00
00610              -2.00    25600.00
00611              -1.00    24800.00
00612              -1.20    24800.00
00613              -1.40    24000.00
00614              -1.20    24000.00
00615              -2.00    24000.00
00616              -1.80    24000.00
00617              -1.80    22400.00
00618              -2.00    22400.00
00619              -1.20    21600.00
00620              -1.40    20800.00
00621              -1.40    20800.00
00622              -1.40    20000.00
00623              -1.20    19200.00
00624              -1.00    19200.00
00625              -1.40    18400.00
00626              -1.00    17600.00
00627              -1.20    17600.00
00628              -1.20    16800.00
00629              -1.00    16000.00
00630              -1.20    16000.00
00631              -0.80    15200.00
00632              -1.20    15200.00
00633              -0.80    14400.00
00634              -1.00    13600.00
00635              -1.20    13600.00
00636              -1.20    12800.00
00637              -0.60    12000.00
00638              -1.00    12000.00
00639              -0.80    11200.00
00640              -1.00    10400.00
00641              -0.40     9600.00
00642              -1.00     9600.00
00643              -0.60     8800.00
00644              -0.60     8000.00
00645              -0.80     7200.00
00646              -0.80     6400.00
00647              -0.40     6400.00
00648              -0.60     4800.00
00649              -0.40     5600.00
00650              -0.60     4000.00
00651              -0.20     3200.00
00652              -0.40     2400.00
00653              -0.80     2400.00
00654              -0.80     1600.00
00655              -0.20     1600.00
00656              -0.40      800.00
00657               0.20        0.00
00658               1.00     -800.00
00659               3.60     -800.00
00660              -0.60    -1600.00
00661              -1.20    -1600.00
00662               1.40    -3200.00
00663               1.40    -3200.00
00664              -0.40    -3200.00
00665               3.60    -4000.00
00666              17.40    -4800.00
00667              22.80    -6400.00
00668             -25.00    -7200.00
00669             -23.00    -8000.00
00670              25.00    -8000.00
00671              -6.80    -8800.00
00672             -25.00    -9600.00
00673              25.00    -9600.00
00674              25.00   -10400.00
00675             -25.00   -10400.00
00676              25.00   -11200.00
00677              14.80   -11200.00
00678             -25.00   -12000.00
00679              25.00   -12800.00
00680             -21.00   -12800.00
00681              19.60   -14400.00
00682              -5.40   -14400.00
00683             -24.80   -16000.00
00684              25.00   -15200.00
00685             -23.60   -16000.00
00686             -18.00   -16800.00
00687              25.00   -16800.00
00688              -9.40   -17600.00
00689             -25.00   -17600.00
00690              25.00   -19200.00
00691               2.00   -19200.00
00692             -25.00   -20000.00
00693              25.00   -20000.00
00694              -4.40   -20000.00
00695              -8.40   -20800.00
00696              14.00   -22400.00
00697             -10.00   -22400.00
00698               2.60   -22400.00
00699               6.00   -23200.00
00700              -5.20   -24000.00
00701               5.80   -24000.00
00702               8.40   -24000.00
00703             -12.00   -24800.00
00704               9.40   -25600.00
00705               4.60   -25600.00
00706             -10.80   -26400.00
00707              11.40   -26400.00
00708               1.80   -26400.00
00709              -4.60   -27200.00
00710               6.00   -27200.00
00711               2.00   -27200.00
00712              -2.40   -28800.00
00713               4.60   -28800.00
00714               1.40   -28800.00
00715              -2.00   -28800.00
00716               4.40   -28800.00
00717               0.20   -29600.00
00718               0.00   -29600.00
00719               5.00   -29600.00
00720              -0.40   -29600.00
00721               1.00   -29600.00
00722               4.20   -31200.00
00723              -1.80   -30400.00
00724               1.80   -31200.00
00725               2.80   -31200.00
00726              -0.60   -32000.00
00727               3.00   -32000.00
00728               1.80   -32000.00
00729               0.00   -32000.00
00730               2.20   -32800.00
00731               1.40   -32000.00
00732               1.00   -32800.00
00733               2.00   -32800.00
00734               2.00   -32800.00
00735               0.60   -32800.00
00736               2.60   -32800.00
00737               1.40   -32800.00
00738               0.40   -32800.00
00739               2.80   -32000.00
00740               1.00   -32000.00
00741               1.00   -32800.00
00742               2.60   -32000.00
00743               0.60   -32800.00
00744               1.80   -32800.00
00745               2.00   -32800.00
00746               1.20   -32800.00
00747               1.40   -32000.00
00748               1.80   -32000.00
00749               1.40   -32000.00
00750               1.80   -32800.00
00751               2.00   -32000.00
00752               0.60   -32000.00
00753               1.80   -31200.00
00754               2.00   -32000.00
00755               1.00   -30400.00
00756               1.40   -31200.00
00757               1.40   -31200.00
00758               1.20   -30400.00
00759               2.00   -30400.00
00760               1.00   -30400.00
00761               1.20   -29600.00
00762               1.80   -29600.00
00763               1.40   -28800.00
00764               0.60   -28800.00
00765               2.00   -28800.00
00766               1.20   -28000.00
00767               1.00   -28800.00
00768               1.40   -28000.00
00769               2.00   -27200.00
00770               0.20   -27200.00
00771               1.00   -27200.00
00772               1.80   -26400.00
00773               0.40   -26400.00
00774               1.20   -26400.00
00775               1.20   -25600.00
00776               0.40   -25600.00
00777               1.20   -24800.00
00778               1.00   -24800.00
00779               1.00   -24000.00
00780               1.20   -24000.00
00781               0.20   -23200.00
00782               0.20   -22400.00
00783               1.20   -22400.00
00784               1.00   -21600.00
00785               0.40   -21600.00
00786               1.60   -20800.00
00787               1.00   -20000.00
00788               0.00   -20000.00
00789               0.40   -20000.00
00790               0.20   -18400.00
00791               0.60   -17600.00
00792               0.60   -17600.00
00793              -0.20   -16800.00
00794               0.40   -16000.00
00795               0.40   -16000.00
00796               0.40   -16000.00
00797               0.80   -14400.00
00798               0.40   -14400.00
00799               0.40   -14400.00
00800               0.40   -13600.00
00801              -0.40   -12800.00
00802              -0.20   -12000.00
00803              -0.20   -12000.00
00804               0.40   -11200.00
00805               0.40   -11200.00
00806              -0.20   -10400.00
00807              -0.20    -9600.00
00808               0.20    -8000.00
00809               0.20    -8000.00
00810              -0.40    -8000.00
00811               0.20    -7200.00
00812               0.20    -6400.00
00813               0.20    -6400.00
00814               0.20    -4800.00
00815              -0.20    -4800.00
00816              -0.40    -4000.00
00817              -0.40    -3200.00
00818              -0.60    -3200.00
00819              -0.40    -2400.00
00820              -0.40    -1600.00
00821              -0.60     -800.00
00822              -0.40     -800.00
00823               0.00        0.00
00824               0.00      800.00
00825               0.40     1600.00
00826               3.60     1600.00
00827              -1.40     2400.00
00828              -1.80     2400.00
00829               1.20     4800.00
00830               0.20     4000.00
00831              -1.00     4800.00
00832              13.00     5600.00
00833              25.00     7200.00
00834             -25.00     8000.00
00835             -25.00     8000.00
00836              25.00     8000.00
00837              -5.20     8000.00
00838             -25.00     8800.00
00839              25.00     9600.00
00840             -20.40    10400.00
00841             -25.00    11200.00
00842              25.00    11200.00
00843             -25.00    12000.00
00844              20.60    12800.00
00845              15.80    12800.00
00846             -25.00    14400.00
00847              25.00    14400.00
00848             -25.00    15200.00
00849               1.00    15200.00
00850              25.00    16000.00
00851             -25.00    16800.00
00852              23.60    16800.00
00853              25.00    17600.00
00854             -25.00    18400.00
00855              -8.60    18400.00
00856              25.00    19200.00
00857             -25.00    19200.00
00858              -7.00    20800.00
00859              25.00    21600.00
00860             -25.00    21600.00
00861              16.40    21600.00
00862              -4.40    22400.00
00863             -17.40    23200.00
00864              15.60    24000.00
00865              -8.60    24000.00
00866              -7.80    24800.00
00867              15.00    24800.00
00868              -6.20    25600.00
00869             -15.20    25600.00
00870              17.80    25600.00
00871             -14.00    26400.00
00872              -6.00    27200.00
00873              11.80    27200.00
00874             -10.40    27200.00
00875              -1.40    27200.00
00876               3.00    28000.00
00877              -5.40    28000.00
00878              -2.80    28800.00
00879               2.80    28800.00
00880              -4.60    28800.00
00881              -2.60    29600.00
00882               0.40    29600.00
00883              -5.20    30400.00
00884              -0.60    30400.00
00885               1.20    30400.00
00886              -5.60    30400.00
00887               1.00    31200.00
00888              -1.40    32000.00
00889              -5.60    32000.00
00890               1.40    32000.00
00891              -3.80    32800.00
00892              -2.60    32000.00
00893               1.40    32800.00
00894              -3.20    32800.00
00895              -2.20    32800.00
00896              -1.80    33600.00
00897              -2.80    32800.00
00898              -2.20    33600.00
00899              -1.40    32800.00
00900              -2.20    33600.00
00901              -3.40    33600.00
00902              -0.40    33600.00
00903              -3.20    33600.00
00904              -2.60    33600.00
00905              -0.40    33600.00
00906              -4.20    33600.00
00907              -0.60    33600.00
00908              -2.00    33600.00
00909              -3.80    33600.00
00910              -1.00    33600.00
00911              -2.60    33600.00
00912              -2.20    33600.00
00913              -2.00    33600.00
00914              -3.00    33600.00
00915              -2.60    32800.00
00916              -1.40    33600.00
00917              -2.00    32800.00
00918              -3.00    32800.00
00919              -1.20    32000.00
00920              -2.20    32800.00
00921              -2.20    32000.00
00922              -1.20    32000.00
00923              -3.40    31200.00
00924              -1.80    32000.00
00925              -1.00    31200.00
00926              -3.00    31200.00
00927              -1.60    31200.00
00928              -2.00    30400.00
00929              -2.60    30400.00
00930              -1.00    30400.00
00931              -2.20    29600.00
00932              -2.60    30400.00
00933              -1.40    28800.00
00934              -2.00    28800.00
00935              -2.00    28800.00
00936              -1.40    28800.00
00937              -2.00    28000.00
00938              -2.00    27200.00
00939              -1.20    27200.00
00940              -2.00    27200.00
00941              -2.20    27200.00
00942              -1.00    26400.00
00943              -2.00    25600.00
00944              -2.00    25600.00
00945              -1.00    24800.00
00946              -2.00    24800.00
00947              -1.40    24000.00
00948              -1.20    24000.00
00949              -1.40    23200.00
00950              -1.40    22400.00
00951              -1.80    22400.00
00952              -1.20    21600.00
00953              -1.20    21600.00
00954              -1.40    21600.00
00955              -1.20    20800.00
00956              -1.20    20000.00
00957              -1.00    19200.00
00958              -1.20    18400.00
00959              -1.20    18400.00
00960              -1.20    17600.00
00961              -1.20    17600.00
00962              -0.80    16800.00
00963              -1.20    16000.00
00964              -1.20    15200.00
00965              -1.00    15200.00
00966              -1.40    14400.00
00967              -1.00    14400.00
00968              -1.60    13600.00
00969              -1.40    12800.00
00970              -0.60    12000.00
00971              -0.60    11200.00
00972              -1.20    11200.00
00973              -1.20    11200.00
00974              -0.60     9600.00
00975              -1.00     8800.00
00976              -1.20     8800.00
00977              -0.60     8000.00
00978              -1.00     8000.00
00979              -1.00     6400.00
00980              -0.60     6400.00
00981              -0.80     5600.00
00982              -0.40     4800.00
00983              -0.20     4800.00
00984              -0.60     3200.00
00985              -0.40     3200.00
00986              -0.40     2400.00
00987              -1.00     1600.00
00988              -0.40     1600.00
00989              -0.20      800.00
00990              -0.60        0.00
00991               0.40        0.00
00992               2.40     -800.00
00993               2.00    -1600.00
00994              -1.60    -1600.00
00995               1.00    -2400.00
00996               1.40    -3200.00
00997               0.40    -3200.00
00998               1.20    -4000.00
00999              10.00    -4800.00
01000              25.00    -6400.00
01001             -11.80    -7200.00
01002             -25.00    -8000.00
01003               9.60    -8000.00
01004              25.00    -8000.00
01005             -25.00    -8000.00
01006               3.00    -8800.00
01007              25.00   -10400.00
01008             -25.00   -10400.00
01009               2.00   -11200.00
01010              25.00   -11200.00
01011             -25.00   -12000.00
01012              11.80   -12800.00
01013               6.80   -12800.00
01014              -8.40   -13600.00
01015              23.40   -14400.00
01016             -25.00   -14400.00
01017              25.00   -16000.00
01018              22.60   -16000.00
01019             -25.00   -16000.00
01020              25.00   -16800.00
01021              21.60   -17600.00
01022             -25.00   -17600.00
01023               6.00   -18400.00
01024              25.00   -19200.00
01025             -25.00   -19200.00
01026               9.40   -20000.00
01027              21.20   -20800.00
01028             -15.00   -20800.00
01029              10.80   -20800.00
01030               1.00   -22400.00
01031              -8.60   -22400.00
01032               6.80   -23200.00
01033              -1.20   -24000.00
01034              -4.20   -23200.00
01035              13.00   -24000.00
01036              -6.00   -24800.00
01037              -1.80   -25600.00
01038              15.00   -25600.00
01039              -9.40   -25600.00
01040               1.40   -25600.00
01041               8.80   -26400.00
01042              -5.40   -27200.00
01043               0.20   -27200.00
01044               5.00   -28000.00
01045              -2.00   -28000.00
01046               3.20   -28800.00
01047               5.20   -28800.00
01048              -2.20   -28800.00
01049               2.20   -29600.00
01050               2.60   -29600.00
01051              -2.60   -29600.00
01052               2.20   -29600.00
01053               2.60   -29600.00
01054              -1.20   -30400.00
01055               5.20   -30400.00
01056               1.80   -30400.00
01057              -0.80   -31200.00
01058               4.40   -31200.00
01059               0.60   -31200.00
01060               1.20   -32000.00
01061               2.60   -32000.00
01062               0.20   -32000.00
01063               1.40   -32000.00
01064               2.20   -32000.00
01065               1.20   -32000.00
01066               1.40   -32000.00
01067               2.60   -32800.00
01068               1.40   -32800.00
01069               1.00   -32000.00
01070               2.20   -32800.00
01071              -0.20   -32000.00
01072               1.80   -32800.00
01073               2.20   -32800.00
01074               1.00   -32000.00
01075               3.00   -32800.00
01076               1.40   -33600.00
01077               1.40   -32000.00
01078               2.20   -32800.00
01079               0.60   -32000.00
01080               1.80   -32800.00
01081               1.40   -32000.00
01082               0.60   -32800.00
01083               1.60   -32800.00
01084               1.80   -32000.00
01085               2.00   -32000.00
01086               1.60   -32000.00
01087               2.20   -32000.00
01088               1.40   -31200.00
01089               1.00   -30400.00
01090               1.40   -31200.00
01091               1.20   -31200.00
01092               1.40   -30400.00
01093               1.80   -30400.00
01094               1.40   -29600.00
01095               2.00   -29600.00
01096               1.00   -29600.00
01097               0.60   -29600.00
01098               1.40   -28800.00
01099               1.00   -28800.00
01100               0.60   -28800.00
01101               1.40   -27200.00
01102               0.60   -28000.00
01103               1.00   -27200.00
01104               1.60   -27200.00
01105               1.80   -27200.00
01106               0.80   -26400.00
01107               1.20   -25600.00
01108               0.60   -25600.00
01109               0.40   -25600.00
01110               1.20   -24800.00
01111               0.60   -24000.00
01112               0.60   -24000.00
01113               1.20   -24000.00
01114               0.20   -23200.00
01115               0.40   -23200.00
01116               1.20   -22400.00
01117               0.40   -22400.00
01118               0.40   -20800.00
01119               1.20   -20000.00
01120               1.00   -20000.00
01121               0.20   -20000.00
01122               0.40   -18400.00
01123               0.20   -18400.00
01124               0.40   -17600.00
01125               1.00   -17600.00
01126              -0.20   -17600.00
01127               0.20   -16800.00
01128               0.40   -16000.00
01129               0.20   -16000.00
01130               0.60   -15200.00
01131               0.40   -14400.00
01132               0.40   -14400.00
01133               1.00   -13600.00
01134               0.20   -12800.00
01135               0.20   -12800.00
01136               0.20   -12800.00
01137               0.20   -11200.00
01138               0.60   -11200.00
01139              -0.20   -11200.00
01140              -0.20    -9600.00
01141               0.20    -8800.00
01142              -0.20    -8800.00
01143               0.20    -8000.00
01144              -0.20    -7200.00
01145              -0.20    -6400.00
01146              -0.20    -6400.00
01147              -0.20    -4800.00
01148              -0.20    -4800.00
01149              -0.40    -4000.00
01150               0.20    -3200.00
01151              -0.20    -3200.00
01152              -0.40    -1600.00
01153              -0.60    -1600.00
01154              -0.60    -1600.00
01155              -0.40        0.00
01156              -0.40        0.00
01157               0.20      800.00
01158               0.40      800.00
01159               2.60     1600.00
01160               1.00     2400.00
01161              -2.20     2400.00
01162               0.00     3200.00
01163               1.00     3200.00
01164              -2.00     4800.00
01165               5.20     4800.00
01166              25.00     6400.00
01167              -1.80     8000.00
01168             -25.00     8000.00
01169               7.80     8000.00
01170              21.40     8800.00
01171             -25.00     8800.00
01172              25.00     9600.00
01173              25.00     9600.00
01174             -25.00    10400.00
01175              25.00    12000.00
01176               3.60    12000.00
01177             -25.00    12800.00
01178              25.00    12800.00
01179             -25.00    13600.00
01180              25.00    14400.00
01181              19.00    14400.00
01182             -25.00    15200.00
01183              25.00    16000.00
01184             -25.00    16000.00
01185             -25.00    16800.00
01186              25.00    17600.00
01187             -15.60    18400.00
01188             -25.00    18400.00
01189              25.00    19200.00
01190               5.20    20000.00
01191             -25.00    20000.00
01192              25.00    20800.00
01193             -10.60    21600.00
01194              -8.80    21600.00
01195              19.20    22400.00
01196             -25.00    23200.00
01197               9.00    22400.00
01198               3.00    24000.00
01199             -14.20    24000.00
01200               7.20    24800.00
01201               9.40    24800.00
01202             -21.20    25600.00
01203               8.80    25600.00
01204               3.60    25600.00
01205             -19.40    26400.00
01206              11.80    27200.00
01207              -2.40    27200.00
01208              -7.80    27200.00
01209               4.60    27200.00
01210              -2.20    28800.00
01211              -6.00    28800.00
01212               2.00    28800.00
01213              -1.20    29600.00
01214              -5.00    28800.00
01215               1.00    29600.00
01216              -2.80    30400.00
01217              -4.00    30400.00
01218               2.60    30400.00
01219              -4.00    30400.00
01220              -2.80    31200.00
01221               2.00    31200.00
01222              -6.00    32000.00
01223              -1.00    32000.00
01224              -0.20    32000.00
01225              -4.60    32000.00
01226               0.40    32800.00
01227              -1.40    32000.00
01228              -3.40    32800.00
01229              -2.00    32800.00
01230              -2.60    32800.00
01231              -2.60    33600.00
01232              -2.00    33600.00
01233              -1.20    32800.00
01234              -3.40    33600.00
01235              -1.40    32800.00
01236              -1.20    33600.00
01237              -3.80    33600.00
01238              -0.60    32800.00
01239              -3.00    33600.00
01240              -2.20    33600.00
01241              -0.20    33600.00
01242              -3.80    33600.00
01243              -2.20    32800.00
01244              -1.40    32800.00
01245              -2.60    33600.00
01246              -2.20    33600.00
01247              -2.80    33600.00
01248              -2.00    32800.00
01249              -2.60    33600.00
01250              -2.00    32800.00
01251              -1.80    32800.00
01252              -2.60    32800.00
01253              -2.20    32800.00
01254              -1.80    32000.00
01255              -1.80    32800.00
01256              -2.80    32000.00
01257              -2.20    31200.00
01258              -0.60    31200.00
01259              -2.20    31200.00
01260              -2.60    31200.00
01261              -1.60    31200.00
01262              -1.80    30400.00
01263              -2.20    30400.00
01264              -2.00    30400.00
01265              -1.60    30400.00
01266              -2.20    29600.00
01267              -2.20    28800.00
01268              -1.00    28800.00
01269              -2.00    28000.00
01270              -2.60    28000.00
01271              -1.20    27200.00
01272              -1.60    27200.00
01273              -2.20    27200.00
01274              -1.80    26400.00
01275              -1.20    26400.00
01276              -2.00    25600.00
01277              -1.60    25600.00
01278              -0.60    25600.00
01279              -2.20    24800.00
01280              -2.00    24800.00
01281              -1.00    24000.00
01282              -2.00    24000.00
01283              -1.40    22400.00
01284              -1.00    22400.00
01285              -1.20    22400.00
01286              -1.20    22400.00
01287              -1.20    21600.00
01288              -1.80    20800.00
01289              -2.20    19200.00
01290              -1.00    19200.00
01291              -0.60    19200.00
01292              -1.60    18400.00
01293              -1.20    17600.00
01294              -1.20    17600.00
01295              -1.60    16800.00
01296              -0.60    16800.00
01297              -1.40    16000.00
01298              -1.40    15200.00
01299              -1.20    14400.00
01300              -0.60    14400.00
01301              -1.40    12800.00
01302              -1.20    12800.00
01303              -0.60    12800.00
01304              -0.80    12000.00
01305              -0.60    11200.00
01306              -1.00    11200.00
01307              -1.80    10400.00
01308              -0.20     8800.00
01309              -1.00     8800.00
01310              -1.20     8000.00
01311              -0.60     8000.00
01312              -0.80     7200.00
01313              -1.00     6400.00
01314              -0.60     6400.00
01315              -0.60     5600.00
01316              -0.60     4800.00
01317              -0.40     4800.00
01318               0.00     3200.00
01319              -0.20     3200.00
01320              -0.60     2400.00
01321              -0.40     1600.00
01322               0.20     1600.00
01323              -0.40        0.00
01324               0.20     -800.00
01325               1.00        0.00
01326               3.80    -1600.00
01327              -1.20    -1600.00
01328              -0.60    -1600.00
01329               2.00    -2400.00
01330               1.20    -3200.00
01331              -0.40    -4000.00
01332               5.40    -4000.00
01333              21.20    -5600.00
01334              15.80    -6400.00
01335             -25.00    -7200.00
01336             -12.20    -8000.00
01337              25.00    -8800.00
01338             -18.60    -8800.00
01339             -25.00    -8800.00
01340              25.00    -9600.00
01341              10.80   -10400.00
01342             -25.00   -10400.00
01343              25.00   -12000.00
01344              -9.80   -11200.00
01345             -25.00   -12000.00
01346              25.00   -12800.00
01347             -23.60   -12800.00
01348              25.00   -13600.00
01349             -19.60   -14400.00
01350             -10.20   -16000.00
01351              25.00   -16000.00
01352             -25.00   -16800.00
01353              -5.20   -16800.00
01354              25.00   -17600.00
01355             -18.80   -17600.00
01356             -19.20   -18400.00
01357              25.00   -18400.00
01358             -10.00   -19200.00
01359             -17.40   -20000.00
01360              25.00   -20000.00
01361             -11.60   -20800.00
01362              -2.20   -21600.00
01363              11.40   -21600.00
01364             -10.60   -22400.00
01365               5.40   -22400.00
01366               4.60   -23200.00
01367              -5.40   -24000.00
01368               8.40   -24000.00
01369               4.40   -24000.00
01370             -10.80   -24800.00
01371              11.80   -25600.00
01372               0.00   -25600.00
01373              -7.80   -25600.00
01374              12.00   -26400.00
01375              -1.80   -27200.00
01376              -2.80   -27200.00
01377               6.20   -27200.00
01378               0.40   -28000.00
01379              -1.40   -28800.00
01380               5.20   -28800.00
01381               0.00   -28800.00
01382              -1.20   -28800.00
01383               4.60   -29600.00
01384              -0.40   -29600.00
01385               0.60   -29600.00
01386               4.80   -29600.00
01387              -0.60   -29600.00
01388               1.80   -30400.00
01389               3.00   -30400.00
01390              -1.20   -31200.00
01391               2.60   -31200.00
01392               2.00   -32000.00
01393               0.40   -31200.00
01394               3.60   -32000.00
01395               1.20   -32000.00
01396               1.00   -32000.00
01397               2.20   -32000.00
01398               1.00   -32000.00
01399               1.60   -32000.00
01400               2.20   -32800.00
01401               1.80   -32000.00
01402               1.00   -32800.00
01403               2.60   -32800.00
01404               1.00   -32800.00
01405               1.00   -32800.00
01406               2.80   -32800.00
01407               0.60   -32800.00
01408               2.00   -32800.00
01409               2.20   -32000.00
01410               0.60   -32800.00
01411               2.20   -32800.00
01412               1.80   -32800.00
01413               1.40   -32000.00
01414               1.80   -32800.00
01415               1.40   -32000.00
01416               1.80   -32800.00
01417               1.40   -32000.00
01418               1.60   -32000.00
01419               1.40   -32000.00
01420               1.60   -31200.00
01421               1.80   -32000.00
01422               1.00   -32000.00
01423               1.20   -32000.00
01424               1.80   -30400.00
01425               1.40   -30400.00
01426               2.00   -29600.00
01427               1.20   -30400.00
01428               1.20   -29600.00
01429               1.00   -29600.00
01430               1.20   -28800.00
01431               1.00   -28800.00
01432               1.20   -28800.00
01433               1.20   -28000.00
01434               0.40   -28000.00
01435               1.00   -27200.00
01436               1.40   -27200.00
01437               0.40   -27200.00
01438               1.40   -26400.00
01439               1.00   -26400.00
01440               0.60   -26400.00
01441               1.00   -25600.00
01442               1.20   -25600.00
01443               1.00   -25600.00
01444               1.00   -24800.00
01445               1.00   -24000.00
01446               0.60   -24000.00
01447               0.40   -23200.00
01448               0.40   -23200.00
01449               1.20   -23200.00
01450               0.80   -22400.00
01451               0.60   -21600.00
01452               0.80   -21600.00
01453               1.20   -20800.00
01454               0.20   -20000.00
01455               0.40   -20000.00
01456               0.40   -18400.00
01457               0.20   -19200.00
01458               1.00   -17600.00
01459               0.80   -17600.00
01460               0.20   -16800.00
01461               0.80   -16800.00
01462               0.20   -16000.00
01463               0.20   -14400.00
01464               0.40   -14400.00
01465               0.40   -14400.00
01466               0.60   -13600.00
01467              -0.20   -13600.00
01468               0.40   -12800.00
01469               0.20   -12800.00
01470              -0.20   -11200.00
01471               0.60   -11200.00
01472               0.40   -10400.00
01473              -0.20   -10400.00
01474               0.20    -9600.00
01475               0.40    -8800.00
01476              -0.20    -8000.00
01477              -0.20    -7200.00
01478               0.00    -7200.00
01479               0.20    -6400.00
01480               0.20    -5600.00
01481              -0.40    -4800.00
01482               0.00    -4000.00
01483              -0.60    -3200.00
01484              -0.60    -3200.00
01485               0.20    -2400.00
01486              -0.40    -1600.00
01487              -0.40    -1600.00
01488              -0.40     -800.00
01489              -0.60        0.00
01490               0.00        0.00
01491               0.20      800.00
01492               0.40     1600.00
01493               3.00     1600.00
01494              -2.20     2400.00
01495              -1.40     2400.00
01496               1.40     3200.00
01497              -0.60     4800.00
01498              -0.20     4800.00
01499              17.20     5600.00
01500              25.00     7200.00
01501             -25.00     8000.00
01502             -24.40     8000.00
01503              25.00     8000.00
01504             -18.00     8800.00
01505             -24.60     8800.00
01506              25.00    10400.00
01507             -25.00     9600.00
01508              -7.00    12000.00
01509              25.00    11200.00
01510             -25.00    12000.00
01511              25.00    12800.00
01512             -10.00    12800.00
01513             -25.00    13600.00
01514              25.00    14400.00
01515             -25.00    15200.00
01516              25.00    16000.00
01517              25.00    16000.00
01518             -25.00    16000.00
01519              25.00    17600.00
01520              21.00    17600.00
01521             -25.00    18400.00
01522               1.20    19200.00
01523              25.00    19200.00
01524             -25.00    20800.00
01525               6.60    20800.00
01526              23.20    21600.00
01527             -25.00    21600.00
01528              21.80    21600.00
01529             -13.40    22400.00
01530             -10.20    23200.00
01531              14.20    24000.00
01532             -11.00    24000.00
01533              -3.60    24800.00
01534              15.60    24800.00
01535             -12.20    24800.00
01536              -9.20    25600.00
01537              16.60    25600.00
01538             -18.20    26400.00
01539               0.40    27200.00
01540               9.00    27200.00
01541             -10.80    27200.00
01542               0.40    28000.00
01543               1.80    28800.00
01544              -6.00    28800.00
01545              -1.60    28800.00
01546               2.20    28800.00
01547              -5.20    29600.00
01548              -1.40    28800.00
01549               0.20    29600.00
01550              -5.40    30400.00
01551               0.60    31200.00
01552              -0.20    30400.00
01553              -5.80    31200.00
01554               2.00    31200.00
01555              -3.00    31200.00
01556              -5.20    32000.00
01557               2.00    32800.00
01558              -4.40    32000.00
01559              -2.20    32000.00
01560               1.00    32800.00
01561              -3.40    32800.00
01562              -2.80    32800.00
01563              -1.60    32800.00
01564              -2.60    32800.00
01565              -2.60    33600.00
01566              -1.00    33600.00
01567              -2.20    33600.00
01568              -3.20    33600.00
01569              -0.20    33600.00
01570              -3.40    33600.00
01571              -2.20    33600.00
01572              -1.20    33600.00
01573              -3.80    33600.00
01574              -0.20    33600.00
01575              -2.80    33600.00
01576              -3.00    33600.00
01577              -0.60    33600.00
01578              -2.80    33600.00
01579              -2.00    33600.00
01580              -1.80    32800.00
01581              -2.60    33600.00
01582              -2.20    32800.00
01583              -1.40    33600.00
01584              -1.80    32800.00
01585              -3.00    32800.00
01586              -1.40    32000.00
01587              -2.00    32800.00
01588              -2.20    32000.00
01589              -1.60    32000.00
01590              -2.40    32000.00
01591              -1.80    31200.00
01592              -1.40    31200.00
01593              -2.00    31200.00
01594              -1.80    31200.00
01595              -2.20    31200.00
01596              -1.80    30400.00
01597              -1.20    30400.00
01598              -2.20    29600.00
01599              -1.80    30400.00
01600              -1.80    28800.00
01601              -1.80    29600.00
01602              -1.80    28800.00
01603              -2.00    28000.00
01604              -2.00    28000.00
01605              -1.80    28000.00
01606              -1.40    27200.00
01607              -1.80    27200.00
01608              -2.20    26400.00
01609              -1.20    25600.00
01610              -1.40    25600.00
01611              -1.40    24800.00
01612              -1.20    24800.00
01613              -1.80    24000.00
01614              -1.60    24000.00
01615              -1.40    24000.00
01616              -1.20    24000.00
01617              -1.80    23200.00
01618              -2.00    21600.00
01619              -1.20    21600.00
01620              -1.60    20800.00
01621              -1.80    20800.00
01622              -1.40    20000.00
01623              -1.40    19200.00
01624              -0.60    19200.00
01625              -1.40    18400.00
01626              -1.40    17600.00
01627              -1.20    17600.00
01628              -1.40    16800.00
01629              -0.80    16800.00
01630              -1.40    16000.00
01631              -1.40    15200.00
01632              -1.20    14400.00
01633              -1.00    14400.00
01634              -1.20    14400.00
01635              -1.40    13600.00
01636              -1.20    12800.00
01637              -0.80    12800.00
01638              -0.60    12000.00
01639              -1.00    11200.00
01640              -1.40    11200.00
01641              -0.40     9600.00
01642              -0.60     9600.00
01643              -1.40     8800.00
01644               0.00     8000.00
01645              -0.80     8000.00
01646              -1.40     7200.00
01647              -0.20     6400.00
01648              -0.60     5600.00
01649              -0.60     4800.00
01650              -0.40     4800.00
01651              -0.20     3200.00
01652              -0.40     3200.00
01653              -0.60     2400.00
01654              -0.60     1600.00
01655               0.20     1600.00
01656              -0.20      800.00
01657               0.20        0.00
01658               1.00     -800.00
01659               2.80    -1600.00
01660               0.80    -1600.00
01661              -1.40    -1600.00
01662               1.60    -2400.00
01663               1.40    -3200.00
01664              -0.40    -3200.00
01665               2.20    -4000.00
01666              12.40    -4800.00
01667              25.00    -6400.00
01668             -24.60    -7200.00
01669             -25.00    -8000.00
01670              21.40    -8000.00
01671              10.80    -8000.00
01672             -25.00    -8800.00
01673              19.80    -9600.00
01674              25.00   -10400.00
01675             -25.00   -10400.00
01676              23.80   -11200.00
01677              25.00   -11200.00
01678             -25.00   -12000.00
01679              25.00   -12800.00
01680              -3.80   -12800.00
01681               2.60   -14400.00
01682              15.80   -14400.00
01683             -25.00   -15200.00
01684              25.00   -16000.00
01685               1.40   -16000.00
01686             -25.00   -16800.00
01687              25.00   -16800.00
01688               8.40   -17600.00
01689             -25.00   -17600.00
01690              15.40   -18400.00
01691              19.60   -19200.00
01692             -25.00   -20000.00
01693              19.80   -20000.00
01694              11.00   -20800.00
01695             -17.00   -20800.00
01696              14.80   -22400.00
01697              -5.40   -22400.00
01698              -3.60   -23200.00
01699               8.40   -23200.00
01700              -2.80   -24000.00
01701               0.40   -24000.00
01702              12.20   -24000.00
01703              -9.40   -24800.00
01704               1.40   -25600.00
01705              11.00   -26400.00
01706             -11.40   -25600.00
01707               6.60   -26400.00
01708               6.80   -26400.00
01709              -5.60   -27200.00
01710               3.60   -27200.00
01711               4.20   -28800.00
01712              -2.60   -27200.00
01713               3.00   -28000.00
01714               3.60   -28800.00
01715              -1.80   -28800.00
01716               3.40   -29600.00
01717               1.80   -29600.00
01718              -1.00   -29600.00
01719               4.20   -29600.00
01720               1.80   -30400.00
01721              -0.20   -30400.00
01722               4.20   -30400.00
01723               0.00   -31200.00
01724               0.60   -31200.00
01725               3.40   -31200.00
01726              -0.40   -32000.00
01727               2.60   -32000.00
01728               2.60   -32000.00
01729               0.20   -32000.00
01730               2.00   -32000.00
01731               1.80   -32800.00
01732               1.20   -32000.00
01733               2.20   -32800.00
01734               2.00   -32800.00
01735               1.40   -32800.00
01736               2.00   -32800.00
01737               2.00   -32800.00
01738               0.60   -32800.00
01739               2.20   -32000.00
01740               1.80   -32800.00
01741               1.00   -32000.00
01742               2.80   -32800.00
01743               0.60   -32800.00
01744               2.00   -32800.00
01745               2.60   -32800.00
01746               1.20   -32800.00
01747               2.00   -32000.00
01748               1.80   -32000.00
01749               1.80   -32000.00
01750               1.20   -32000.00
01751               1.60   -32000.00
01752               1.20   -32000.00
01753               1.00   -32000.00
01754               2.00   -31200.00
01755               1.20   -30400.00
01756               1.00   -31200.00
01757               1.80   -31200.00
01758               1.20   -31200.00
01759               1.20   -30400.00
01760               1.40   -29600.00
01761               1.20   -30400.00
01762               1.80   -29600.00
01763               1.40   -29600.00
01764               1.20   -28800.00
01765               1.20   -28800.00
01766               1.20   -28800.00
01767               1.00   -28000.00
01768               1.40   -28800.00
01769               1.40   -28000.00
01770               0.60   -27200.00
01771               1.00   -27200.00
01772               1.20   -26400.00
01773               1.20   -26400.00
01774               1.20   -26400.00
01775               1.00   -25600.00
01776               0.60   -25600.00
01777               1.20   -25600.00
01778               1.00   -24000.00
01779               1.00   -24000.00
01780               1.00   -24000.00
01781               0.40   -23200.00
01782               1.00   -23200.00
01783               0.60   -22400.00
01784               0.60   -20800.00
01785               1.20   -20800.00
01786               1.00   -20000.00
01787               0.60   -20800.00
01788               0.60   -20000.00
01789               0.60   -20000.00
01790               0.40   -19200.00
01791               0.60   -18400.00
01792               0.80   -17600.00
01793               0.20   -17600.00
01794               0.60   -16800.00
01795               0.40   -16800.00
01796               1.00   -16000.00
01797               0.40   -14400.00
01798               0.40   -14400.00
01799               0.60   -14400.00
01800               0.20   -14400.00
01801               0.20   -12800.00
01802               0.40   -12000.00
01803              -0.20   -11200.00
01804               0.40   -11200.00
01805               0.60   -10400.00
01806              -0.60    -9600.00
01807               0.40   -10400.00
01808               0.20    -8800.00
01809              -0.20    -8000.00
01810               0.40    -8000.00
01811               0.00    -7200.00
01812              -0.20    -7200.00
01813               0.20    -6400.00
01814              -0.20    -5600.00
01815              -0.40    -4800.00
01816              -0.60    -4000.00
01817              -0.60    -4000.00
01818              -0.40    -3200.00
01819              -0.60    -2400.00
01820              -0.60    -1600.00
01821              -0.60     -800.00
01822              -0.40     -800.00
01823              -0.60        0.00
01824               0.40      800.00
01825               0.20      800.00
01826               2.60     1600.00
01827               0.20     2400.00
01828              -2.60     3200.00
01829               0.40     3200.00
01830               0.40     3200.00
01831              -2.00     4000.00
01832               8.20     4800.00
01833              25.00     7200.00
01834             -16.60     7200.00
01835             -25.00     8000.00
01836              16.60     8000.00
01837              13.20     8000.00
01838             -25.00     8800.00
01839              25.00     9600.00
01840              25.00    10400.00
01841             -25.00    11200.00
01842              25.00    11200.00
01843             -25.00    11200.00
01844             -23.40    12000.00
01845              25.00    12800.00
01846             -25.00    12800.00
01847              25.00    14400.00
01848             -14.00    14400.00
01849             -25.00    15200.00
01850              25.00    16000.00
01851             -25.00    16000.00
01852             -10.20    16800.00
01853              25.00    17600.00
01854             -25.00    18400.00
01855             -23.00    18400.00
01856              25.00    19200.00
01857              -7.00    19200.00
01858             -25.00    20800.00
01859              25.00    20800.00
01860             -21.20    21600.00
01861               1.20    21600.00
01862              11.40    22400.00
01863             -24.40    22400.00
01864              13.20    23200.00
01865              -1.40    24000.00
01866             -12.80    24000.00
01867              10.80    24800.00
01868               3.80    25600.00
01869             -20.40    24800.00
01870              14.20    25600.00
01871              -2.80    25600.00
01872             -15.60    26400.00
01873              13.40    27200.00
01874              -5.80    27200.00
01875              -6.00    27200.00
01876               4.60    28000.00
01877              -3.80    28000.00
01878              -5.40    28800.00
01879               2.80    28800.00
01880              -3.40    28800.00
01881              -4.60    29600.00
01882               1.80    30400.00
01883              -4.60    30400.00
01884              -2.80    30400.00
01885               2.60    30400.00
01886              -5.40    31200.00
01887              -1.80    30400.00
01888               1.00    32000.00
01889              -7.00    32000.00
01890               0.80    32000.00
01891              -1.40    32800.00
01892              -5.20    32000.00
01893               1.80    32000.00
01894              -2.80    32800.00
01895              -3.60    32800.00
01896              -0.60    32800.00
01897              -3.40    32800.00
01898              -3.00    32800.00
01899              -0.80    33600.00
01900              -2.20    33600.00
01901              -3.80    33600.00
01902              -0.20    33600.00
01903              -2.00    33600.00
01904              -3.80    32800.00
01905               0.20    33600.00
01906              -3.80    33600.00
01907              -2.00    33600.00
01908              -0.40    33600.00
01909              -3.80    33600.00
01910              -1.20    33600.00
01911              -1.60    33600.00
01912              -2.20    33600.00
01913              -2.00    32800.00
01914              -2.80    33600.00
01915              -2.00    32800.00
01916              -1.60    33600.00
01917              -1.80    32800.00
01918              -2.80    32800.00
01919              -1.20    32800.00
01920              -1.60    32000.00
01921              -3.00    32000.00
01922              -0.80    32800.00
01923              -2.20    31200.00
01924              -3.00    32000.00
01925              -0.60    32000.00
01926              -2.20    31200.00
01927              -2.60    31200.00
01928              -1.80    30400.00
01929              -2.00    30400.00
01930              -1.60    30400.00
01931              -2.00    30400.00
01932              -1.80    29600.00
01933              -1.80    28800.00
01934              -2.00    28800.00
01935              -1.20    28000.00
01936              -1.80    28000.00
01937              -2.00    28000.00
01938              -1.80    27200.00
01939              -2.00    27200.00
01940              -1.40    27200.00
01941              -2.20    26400.00
01942              -1.40    25600.00
01943              -1.40    25600.00
01944              -2.00    24800.00
01945              -1.40    25600.00
01946              -2.00    24800.00
01947              -2.00    24000.00
01948              -1.40    24000.00
01949              -1.20    24000.00
01950              -1.40    22400.00
01951              -2.00    22400.00
01952              -1.60    21600.00
01953              -1.20    21600.00
01954              -2.20    20800.00
01955              -2.00    20800.00
01956              -1.40    20000.00
01957              -1.00    19200.00
01958              -1.20    19200.00
01959              -1.20    18400.00
01960              -1.20    17600.00
01961              -1.60    17600.00
01962              -0.60    16800.00
01963              -1.00    16000.00
01964              -1.40    16000.00
01965              -1.80    14400.00
01966              -1.00    14400.00
01967              -1.00    14400.00
01968              -1.40    12800.00
01969              -1.00    12000.00
01970              -0.60    12800.00
01971              -1.00    12000.00
01972              -0.80    11200.00
01973              -1.00    10400.00
01974              -1.00    10400.00
01975              -0.60     9600.00
01976              -1.00     8800.00
01977              -0.60     8800.00
01978              -1.00     7200.00
01979              -1.00     6400.00
01980              -0.60     6400.00
01981              -0.80     5600.00
01982              -0.40     5600.00
01983              -0.60     4800.00
01984              -0.40     4000.00
01985              -0.20     3200.00
01986              -0.60     2400.00
01987              -0.60     1600.00
01988              -0.40     1600.00
01989              -0.40     1600.00
01990               0.00        0.00
01991               0.40        0.00
01992               1.40     -800.00
01993               3.60     -800.00
01994              -1.20    -1600.00
01995              -0.20    -2400.00
01996               2.00    -3200.00
01997               0.80    -3200.00
01998              -0.40    -4000.00
01999               7.20    -4800.00
02000              24.20    -5600.00
02001               6.20    -7200.00
02002             -25.00    -8000.00
02003              -2.00    -8000.00
02004              25.00    -8000.00
02005             -25.00    -8000.00
02006             -22.80    -8000.00
02007              25.00   -10400.00
02008             -17.00   -10400.00
02009             -25.00   -10400.00
02010              25.00   -11200.00
02011             -25.00   -11200.00
02012             -14.80   -12800.00
02013              25.00   -13600.00
02014             -21.60   -13600.00
02015              25.00   -14400.00
02016             -25.00   -14400.00
02017               5.00   -15200.00
02018              25.00   -16000.00
02019             -25.00   -16000.00
02020               7.40   -16800.00
02021              25.00   -17600.00
02022             -25.00   -17600.00
02023             -11.00   -19200.00
02024              25.00   -18400.00
02025             -20.80   -19200.00
02026              -6.80   -20000.00
02027              25.00   -20800.00
02028             -17.00   -20800.00
02029               3.80   -21600.00
02030               6.80   -22400.00
02031             -10.20   -22400.00
02032               7.40   -23200.00
02033               2.60   -23200.00
02034              -5.00   -24000.00
02035              10.20   -24000.00
02036               0.40   -24000.00
02037              -9.20   -25600.00
02038              13.80   -25600.00
02039              -4.40   -25600.00
02040              -3.80   -25600.00
02041              11.80   -26400.00
02042              -3.60   -26400.00
02043              -1.20   -27200.00
02044               6.20   -27200.00
02045              -0.60   -27200.00
02046               0.20   -28800.00
02047               5.00   -28800.00
02048              -0.60   -28800.00
02049               0.20   -28800.00
02050               4.60   -29600.00
02051              -1.00   -29600.00
02052               2.00   -29600.00
02053               4.80   -29600.00
02054              -1.20   -30400.00
02055               2.60   -31200.00
02056               2.60   -30400.00
02057              -1.20   -31200.00
02058               3.80   -31200.00
02059               0.60   -32000.00
02060               1.00   -32000.00
02061               4.40   -32000.00
02062              -0.60   -32000.00
02063               1.20   -32000.00
02064               2.80   -32000.00
02065               0.20   -32800.00
02066               2.40   -32000.00
02067               3.00   -32000.00
02068               0.20   -32800.00
02069               2.00   -32800.00
02070               3.00   -32800.00
02071              -0.40   -32800.00
02072               2.00   -32800.00
02073               2.60   -32000.00
02074               0.20   -32800.00
02075               3.00   -32800.00
02076               1.20   -32800.00
02077               1.00   -32800.00
02078               2.80   -32800.00
02079               0.40   -32800.00
02080               1.40   -32000.00
02081               1.80   -32800.00
02082               0.60   -32800.00
02083               1.80   -32000.00
02084               1.80   -32000.00
02085               0.80   -32000.00
02086               2.00   -32000.00
02087               1.80   -31200.00
02088               0.60   -31200.00
02089               1.40   -30400.00
02090               1.40   -31200.00
02091               0.60   -30400.00
02092               1.40   -30400.00
02093               2.00   -30400.00
02094               1.00   -30400.00
02095               1.40   -29600.00
02096               1.20   -29600.00
02097               0.80   -28800.00
02098               1.20   -28800.00
02099               1.20   -28800.00
02100               1.80   -28800.00
02101               1.20   -28800.00
02102               1.00   -28000.00
02103               1.20   -27200.00
02104               1.00   -27200.00
02105               1.20   -26400.00
02106               1.20   -26400.00
02107               1.40   -26400.00
02108               0.60   -25600.00
02109               0.40   -25600.00
02110               1.80   -24800.00
02111               0.60   -24000.00
02112               0.80   -24000.00
02113               1.40   -24000.00
02114               0.40   -23200.00
02115               0.60   -23200.00
02116               1.00   -23200.00
02117               0.60   -21600.00
02118               1.40   -21600.00
02119               1.20   -20800.00
02120               1.20   -20800.00
02121               0.60   -20000.00
02122               0.20   -19200.00
02123               0.40   -18400.00
02124               1.00   -18400.00
02125               0.60   -18400.00
02126               0.40   -17600.00
02127               1.00   -16800.00
02128               0.40   -16800.00
02129               0.40   -16000.00
02130               1.00   -16000.00
02131               0.20   -15200.00
02132               0.40   -14400.00
02133               0.60   -13600.00
02134               0.00   -13600.00
02135               0.40   -12800.00
02136               0.20   -11200.00
02137              -0.20   -12000.00
02138               0.60   -10400.00
02139              -0.20   -11200.00
02140              -0.20   -10400.00
02141              -0.20    -9600.00
02142              -0.40    -8800.00
02143              -0.20    -8000.00
02144               0.20    -8000.00
02145              -0.20    -7200.00
02146              -0.20    -6400.00
02147               0.00    -5600.00
02148              -0.40    -4800.00
02149              -0.60    -4800.00
02150              -0.40    -4000.00
02151              -0.60    -3200.00
02152              -0.60    -3200.00
02153              -0.40    -1600.00
02154              -0.60    -1600.00
02155              -1.00     -800.00
02156              -0.40        0.00
02157              -0.40        0.00
02158               0.20     1600.00
02159               1.40     1600.00
02160               2.60     2400.00
02161              -2.80     2400.00
02162              -0.60     3200.00
02163               1.00     3200.00
02164              -1.20     4000.00
02165               2.20     4800.00
02166              21.80     6400.00
02167              19.80     7200.00
02168             -25.00     8000.00
02169             -11.20     8000.00
02170              25.00     8800.00
02171             -25.00     8000.00
02172              -7.00     9600.00
02173              25.00     9600.00
02174             -25.00     9600.00
02175              23.60    11200.00
02176              25.00    12000.00
02177             -25.00    12000.00
02178              25.00    12800.00
02179             -25.00    13600.00
02180               2.80    14400.00
02181              25.00    14400.00
02182             -25.00    15200.00
02183              25.00    16000.00
02184              19.20    16000.00
02185             -25.00    16000.00
02186              25.00    17600.00
02187               6.80    18400.00
02188             -25.00    18400.00
02189              11.40    19200.00
02190              22.60    19200.00
02191             -25.00    20800.00
02192              18.20    20800.00
02193              11.20    21600.00
02194             -23.00    21600.00
02195              24.00    22400.00
02196             -20.40    22400.00
02197              -3.00    22400.00
02198              10.60    24000.00
02199             -13.20    24000.00
02200               0.20    24000.00
02201              13.80    24000.00
02202             -16.60    24800.00
02203              -2.00    25600.00
02204              11.80    25600.00
02205             -21.20    25600.00
02206               7.00    27200.00
02207               4.60    27200.00
02208             -11.80    27200.00
02209               3.60    28000.00
02210               0.60    28800.00
02211              -8.40    28000.00
02212               0.20    28800.00
02213               2.20    28800.00
02214              -7.00    29600.00
02215              -0.60    30400.00
02216               0.40    30400.00
02217              -6.20    30400.00
02218               0.00    30400.00
02219              -0.20    31200.00
02220              -4.60    31200.00
02221               0.80    31200.00
02222              -3.60    31200.00
02223              -2.20    32000.00
02224               0.00    32800.00
02225              -5.40    32000.00
02226               0.20    32800.00
02227              -0.80    32800.00
02228              -4.20    33600.00
02229              -1.00    32800.00
02230              -2.20    33600.00
02231              -3.20    32800.00
02232              -1.40    32800.00
02233              -1.20    33600.00
02234              -3.60    33600.00
02235              -2.20    33600.00
02236              -0.40    33600.00
02237              -4.20    33600.00
02238              -1.40    33600.00
02239              -2.00    33600.00
02240              -2.80    33600.00
02241               0.60    33600.00
02242              -3.40    33600.00
02243              -2.20    33600.00
02244              -1.00    32800.00
02245              -3.40    33600.00
02246              -1.80    33600.00
02247              -2.20    33600.00
02248              -2.60    33600.00
02249              -1.80    33600.00
02250              -1.40    32800.00
02251              -2.00    32800.00
02252              -2.20    32800.00
02253              -1.20    32800.00
02254              -2.00    32000.00
02255              -2.20    32000.00
02256              -1.80    32000.00
02257              -2.20    31200.00
02258              -1.60    32000.00
02259              -1.60    31200.00
02260              -2.20    31200.00
02261              -1.80    31200.00
02262              -2.20    30400.00
02263              -2.00    30400.00
02264              -2.00    29600.00
02265              -2.00    29600.00
02266              -1.40    29600.00
02267              -2.00    28800.00
02268              -1.40    28800.00
02269              -1.80    28000.00
02270              -1.80    28000.00
02271              -1.80    28000.00
02272              -2.20    27200.00
02273              -1.80    27200.00
02274              -2.00    27200.00
02275              -2.20    26400.00
02276              -1.20    25600.00
02277              -1.80    25600.00
02278              -1.40    24800.00
02279              -1.80    24800.00
02280              -2.20    24000.00
02281              -1.40    24000.00
02282              -2.00    24000.00
02283              -1.60    22400.00
02284              -1.60    23200.00
02285              -1.20    22400.00
02286              -1.20    21600.00
02287              -1.20    21600.00
02288              -1.80    20000.00
02289              -1.80    20800.00
02290              -1.40    19200.00
02291              -1.20    19200.00
02292              -1.80    18400.00
02293              -1.20    18400.00
02294              -1.20    17600.00
02295              -1.40    16800.00
02296              -1.00    16000.00
02297              -1.20    16000.00
02298              -1.20    15200.00
02299              -1.20    15200.00
02300              -1.00    14400.00
02301              -1.00    14400.00
02302              -1.40    12800.00
02303              -1.00    12800.00
02304              -0.60    12000.00
02305              -0.60    11200.00
02306              -1.00    12000.00
02307              -1.20    10400.00
02308              -0.20     9600.00
02309              -1.00     8800.00
02310              -1.20     8800.00
02311              -0.20     8000.00
02312              -1.00     8000.00
02313              -1.00     6400.00
02314              -0.20     5600.00
02315              -1.00     5600.00
02316              -0.20     4800.00
02317              -0.60     4800.00
02318              -0.20     4000.00
02319               0.00     2400.00
02320              -0.40     2400.00
02321              -0.80     1600.00
02322               0.20     1600.00
02323              -0.20      800.00
02324               0.20        0.00
02325               0.60        0.00
02326               3.60    -1600.00
02327               0.20    -1600.00
02328              -1.40    -1600.00
02329               1.80    -2400.00
02330               1.40    -3200.00
02331              -0.60    -3200.00
02332               3.40    -4000.00
02333              15.40    -4800.00
02334              25.00    -6400.00
02335             -25.00    -6400.00
02336             -25.00    -8000.00
02337              25.00    -8000.00
02338               0.20    -8000.00
02339             -25.00    -8800.00
02340              25.00    -9600.00
02341              25.00   -10400.00
02342             -25.00   -10400.00
02343              25.00   -11200.00
02344              25.00   -11200.00
02345             -25.00   -12000.00
02346              25.00   -13600.00
02347             -15.60   -13600.00
02348              13.00   -13600.00
02349               3.60   -14400.00
02350             -25.00   -14400.00
02351              25.00   -16000.00
02352             -14.60   -16000.00
02353             -24.60   -16800.00
02354              25.00   -16800.00
02355              -2.60   -17600.00
02356             -25.00   -17600.00
02357              24.20   -18400.00
02358               9.20   -19200.00
02359             -25.00   -20000.00
02360              25.00   -20000.00
02361               1.80   -20000.00
02362             -12.40   -20800.00
02363              15.40   -21600.00
02364              -8.60   -22400.00
02365               0.20   -22400.00
02366               7.40   -23200.00
02367              -4.60   -23200.00
02368               3.40   -24000.00
02369              10.20   -24800.00
02370             -11.80   -24800.00
02371               6.20   -24800.00
02372               7.80   -25600.00
02373             -12.60   -25600.00
02374               9.80   -26400.00
02375               4.40   -26400.00
02376              -5.60   -27200.00
02377               5.80   -27200.00
02378               3.40   -27200.00
02379              -3.00   -28000.00
02380               4.60   -28000.00
02381               1.40   -28800.00
02382              -1.80   -28800.00
02383               5.80   -28800.00
02384              -0.80   -29600.00
02385               0.40   -29600.00
02386               6.60   -30400.00
02387              -2.20   -30400.00
02388               0.60   -31200.00
02389               6.20   -30400.00
02390              -3.80   -31200.00
02391               2.20   -32000.00
02392               5.80   -32000.00
02393              -3.00   -31200.00
02394               3.80   -32000.00
02395               4.20   -32000.00
02396              -2.60   -32000.00
02397               3.40   -32000.00
02398               2.60   -32000.00
02399              -1.20   -32800.00
02400               2.80   -32800.00
02401               2.40   -32000.00
02402              -0.20   -32000.00
02403               3.80   -33600.00
02404               1.60   -32800.00
02405              -0.60   -32800.00
02406               3.00   -32800.00
02407               0.20   -33600.00
02408               0.40   -32800.00
02409               4.20   -32800.00
02410               0.20   -32800.00
02411               1.80   -32000.00
02412               3.60   -32800.00
02413               0.20   -32800.00
02414               0.80   -32800.00
02415               2.20   -32000.00
02416               1.00   -32000.00
02417               0.60   -32000.00
02418               2.00   -32000.00
02419               1.40   -32000.00
02420               0.80   -32000.00
02421               1.80   -32000.00
02422               1.80   -30400.00
02423               1.80   -31200.00
02424               1.40   -30400.00
02425               1.20   -30400.00
02426               1.80   -30400.00
02427               0.80   -29600.00
02428               1.60   -30400.00
02429               2.00   -29600.00
02430               0.80   -29600.00
02431               1.40   -28800.00
02432               2.00   -28800.00
02433               0.20   -28800.00
02434               1.00   -28800.00
02435               1.20   -28800.00
02436               1.40   -27200.00
02437               1.40   -27200.00
02438               1.80   -26400.00
02439               1.20   -27200.00
02440               1.00   -26400.00
02441               1.20   -26400.00
02442               0.60   -25600.00
02443               1.40   -25600.00
02444               1.20   -24800.00
02445               0.60   -24000.00
02446               1.00   -24000.00
02447               0.40   -24000.00
02448               1.00   -23200.00
02449               1.40   -23200.00
02450               1.00   -22400.00
02451               0.60   -20800.00
02452               1.00   -21600.00
02453               0.80   -20800.00
02454               1.00   -20000.00
02455               0.40   -20000.00
02456               0.40   -19200.00
02457               1.20   -18400.00
02458               0.60   -18400.00
02459               0.40   -17600.00
02460               0.80   -16800.00
02461               0.60   -16800.00
02462               0.40   -16800.00
02463               0.60   -16000.00
02464               0.40   -15200.00
02465               0.20   -14400.00
02466               0.60   -14400.00
02467              -0.20   -13600.00
02468               0.00   -12800.00
02469               0.40   -12800.00
02470               0.20   -12800.00
02471               0.40   -11200.00
02472               0.20   -11200.00
02473              -0.60   -10400.00
02474               0.00    -9600.00
02475              -0.20    -8000.00
02476              -0.20    -8800.00
02477              -0.20    -8000.00
02478              -0.40    -7200.00
02479              -0.20    -6400.00
02480              -0.40    -6400.00
02481              -0.20    -4800.00
02482               0.20    -4000.00
02483              -0.40    -4000.00
02484              -0.40    -4000.00
02485              -0.20    -3200.00
02486              -0.60    -2400.00
02487              -0.60    -1600.00
02488              -0.60    -1600.00
02489              -0.60     -800.00
02490              -0.20        0.00
02491               0.20      800.00
02492               0.00     1600.00
02493               3.40     1600.00
02494              -1.20     1600.00
02495              -1.80     3200.00
02496               0.60     3200.00
02497               0.20     3200.00
02498              -1.40     4000.00
02499              10.80     5600.00
02500              25.00     7200.00
02501             -25.00     8000.00
02502             -25.00     8000.00
02503              23.60     8000.00
02504               2.60     8800.00
02505             -25.00     8800.00
02506              25.00    10400.00
02507              -0.60     9600.00
02508             -25.00    11200.00
02509              25.00    12000.00
02510             -25.00    11200.00
02511               3.60    12800.00
02512              25.00    12800.00
02513             -25.00    14400.00
02514              25.00    14400.00
02515             -25.00    15200.00
02516             -20.20    15200.00
02517              25.00    16000.00
02518             -25.00    16000.00
02519              11.80    17600.00
02520              25.00    17600.00
02521             -25.00    18400.00
02522             -15.40    18400.00
02523              25.00    19200.00
02524             -20.20    20000.00
02525             -16.00    20800.00
02526              25.00    21600.00
02527             -25.00    21600.00
02528              10.60    22400.00
02529               2.00    22400.00
02530             -20.60    22400.00
02531              15.40    23200.00
02532              -5.80    24000.00
02533             -10.00    24000.00
02534              13.40    24800.00
02535              -2.60    25600.00
02536             -18.20    25600.00
02537              17.20    25600.00
02538             -10.00    26400.00
02539             -10.20    26400.00
02540              13.20    27200.00
02541              -9.20    27200.00
02542              -3.60    27200.00
02543               3.80    28000.00
02544              -4.60    28000.00
02545              -3.80    28800.00
02546               2.80    28800.00
02547              -4.40    28800.00
02548              -3.40    30400.00
02549               0.80    30400.00
02550              -5.20    30400.00
02551              -1.80    30400.00
02552               1.80    30400.00
02553              -6.00    31200.00
02554              -0.20    32000.00
02555              -1.00    31200.00
02556              -6.20    32000.00
02557               1.20    32000.00
02558              -3.00    32000.00
02559              -3.80    32000.00
02560               1.20    32800.00
02561              -2.80    32800.00
02562              -2.80    32800.00
02563              -1.40    32800.00
02564              -2.80    33600.00
02565              -2.20    33600.00
02566              -1.20    33600.00
02567              -2.20    32800.00
02568              -2.80    33600.00
02569              -0.40    33600.00
02570              -2.80    33600.00
02571              -2.80    33600.00
02572              -0.60    33600.00
02573              -3.80    33600.00
02574              -0.60    33600.00
02575              -1.00    33600.00
02576              -4.20    33600.00
02577              -0.60    33600.00
02578              -2.00    33600.00
02579              -2.80    33600.00
02580              -1.40    33600.00
02581              -2.60    32800.00
02582              -2.20    32800.00
02583              -1.40    32800.00
02584              -1.80    33600.00
02585              -2.60    33600.00
02586              -1.80    32800.00
02587              -1.80    32000.00
02588              -2.00    32800.00
02589              -1.40    32000.00
02590              -2.60    31200.00
02591              -1.80    32000.00
02592              -1.20    32000.00
02593              -2.60    31200.00
02594              -1.80    31200.00
02595              -2.20    31200.00
02596              -2.20    30400.00
02597              -0.60    30400.00
02598              -2.00    30400.00
02599              -3.00    28800.00
02600              -2.20    28800.00
02601              -1.60    28800.00
02602              -1.20    28800.00
02603              -1.80    28800.00
02604              -2.20    28000.00
02605              -2.20    27200.00
02606              -1.40    27200.00
02607              -1.80    27200.00
02608              -2.20    27200.00
02609              -1.20    25600.00
02610              -1.80    25600.00
02611              -1.80    24800.00
02612              -0.80    25600.00
02613              -2.40    24800.00
02614              -2.60    24000.00
02615              -1.20    24000.00
02616              -1.00    24000.00
02617              -1.80    22400.00
02618              -2.00    22400.00
02619              -2.00    21600.00
02620              -1.40    21600.00
02621              -1.00    21600.00
02622              -1.40    20800.00
02623              -1.80    20000.00
02624              -0.40    19200.00
02625              -1.20    19200.00
02626              -1.60    18400.00
02627              -1.00    17600.00
02628              -1.40    17600.00
02629              -1.00    16000.00
02630              -1.20    16000.00
02631              -1.40    15200.00
02632              -1.20    15200.00
02633              -1.00    14400.00
02634              -0.60    14400.00
02635              -1.20    13600.00
02636              -0.80    12800.00
02637              -0.60    12000.00
02638              -0.40    12000.00
02639              -0.60    11200.00
02640              -1.00    10400.00
02641              -0.60     9600.00
02642              -0.40     8800.00
02643              -1.20     8800.00
02644              -0.60     8000.00
02645              -0.60     7200.00
02646              -1.00     7200.00
02647              -0.60     6400.00
02648              -0.40     5600.00
02649              -0.40     4800.00
02650              -0.40     4800.00
02651              -0.60     3200.00
02652              -0.40     2400.00
02653              -0.20     3200.00
02654              -0.60     1600.00
02655              -0.40     1600.00
02656               0.20      800.00
02657               0.20        0.00
02658               0.20        0.00
02659               2.00     -800.00
02660               3.00     -800.00
02661              -2.00    -1600.00
02662               0.60    -1600.00
02663               1.60    -3200.00
02664               0.20    -3200.00
02665               0.40    -4000.00
02666               8.60    -4800.00
02667              25.00    -6400.00
02668              -5.20    -7200.00
02669             -25.00    -7200.00
02670               8.40    -8000.00
02671              22.40    -8000.00
02672             -25.00    -8000.00
02673              -8.40    -8800.00
02674              25.00    -9600.00
02675             -25.00   -10400.00
02676             -20.40   -11200.00
02677              25.00   -12000.00
02678             -25.00   -11200.00
02679               5.40   -12800.00
02680              17.60   -12800.00
02681             -14.60   -13600.00
02682              25.00   -14400.00
02683             -25.00   -15200.00
02684              20.20   -16000.00
02685              25.00   -16000.00
02686             -25.00   -16800.00
02687              19.80   -16800.00
02688              24.60   -17600.00
02689             -25.00   -18400.00
02690               0.20   -18400.00
02691              25.00   -19200.00
02692             -25.00   -20000.00
02693               5.20   -20000.00
02694              23.20   -20000.00
02695             -19.60   -20800.00
02696              10.20   -21600.00
02697               1.40   -22400.00
02698              -8.60   -23200.00
02699               9.20   -23200.00
02700              -0.20   -23200.00
02701              -3.60   -24000.00
02702              13.00   -24000.00
02703              -4.20   -24000.00
02704              -5.80   -25600.00
02705              14.00   -25600.00
02706              -8.40   -26400.00
02707               0.40   -26400.00
02708              10.60   -26400.00
02709              -5.40   -27200.00
02710               1.40   -27200.00
02711               5.40   -27200.00
02712              -2.20   -27200.00
02713               2.00   -28800.00
02714               4.60   -28800.00
02715              -1.40   -28800.00
02716               2.20   -29600.00
02717               3.00   -29600.00
02718              -1.20   -29600.00
02719               3.60   -29600.00
02720               3.40   -29600.00
02721              -0.60   -30400.00
02722               4.00   -30400.00
02723               0.40   -32000.00
02724              -1.20   -31200.00
02725               3.00   -32000.00
02726               0.40   -31200.00
02727               2.20   -32000.00
02728               3.80   -32000.00
02729               0.00   -32000.00
02730               0.60   -32000.00
02731               2.20   -32800.00
02732               1.00   -32000.00
02733               1.20   -32800.00
02734               2.60   -32800.00
02735               1.60   -32000.00
02736               0.60   -32800.00
02737               2.60   -32800.00
02738               0.80   -32800.00
02739               1.20   -32800.00
02740               2.20   -32800.00
02741               0.60   -32800.00
02742               2.00   -32800.00
02743               1.20   -32800.00
02744               1.00   -32800.00
02745               2.40   -32000.00
02746               1.80   -32800.00
02747               1.40   -32800.00
02748               2.00   -32800.00
02749               1.80   -32000.00
02750               0.60   -32000.00
02751               1.20   -32000.00
02752               1.80   -32800.00
02753               0.60   -32000.00
02754               1.80   -32000.00
02755               2.00   -32000.00
02756               1.00   -31200.00
02757               2.00   -30400.00
02758               0.60   -30400.00
02759               1.00   -30400.00
02760               2.00   -30400.00
02761               1.00   -29600.00
02762               1.80   -30400.00
02763               2.60   -29600.00
02764               0.60   -29600.00
02765               1.20   -29600.00
02766               1.80   -28800.00
02767               1.00   -28800.00
02768               1.40   -28800.00
02769               1.20   -28000.00
02770               1.00   -27200.00
02771               1.20   -27200.00
02772               1.00   -27200.00
02773               2.00   -26400.00
02774               1.80   -26400.00
02775               0.40   -25600.00
02776               1.00   -25600.00
02777               1.80   -25600.00
02778               0.60   -24000.00
02779               1.40   -24000.00
02780               1.40   -24000.00
02781               0.60   -23200.00
02782               1.00   -22400.00
02783               0.60   -22400.00
02784               1.00   -22400.00
02785               1.20   -20800.00
02786               1.00   -20800.00
02787               1.20   -20800.00
02788               1.00   -20000.00
02789               0.00   -20000.00
02790               0.60   -18400.00
02791               1.00   -19200.00
02792               0.20   -17600.00
02793               0.40   -17600.00
02794               0.80   -16800.00
02795               0.40   -16800.00
02796               0.40   -16000.00
02797              -0.40   -16000.00
02798               0.00   -14400.00
02799               1.80   -14400.00
02800               0.40   -13600.00
02801              -0.60   -12800.00
02802               0.40   -12800.00
02803              -0.80   -12800.00
02804              -0.60   -11200.00
02805               1.40   -11200.00
02806              -0.40   -10400.00
02807              -0.40    -9600.00
02808               0.40    -9600.00
02809              -0.40    -8000.00
02810              -0.40    -8000.00
02811               0.40    -7200.00
02812              -0.60    -6400.00
02813               0.20    -6400.00
02814               1.00    -6400.00
02815              -1.00    -5600.00
02816              -1.60    -4000.00
02817               0.40    -4000.00
02818              -0.20    -3200.00
02819              -0.60    -3200.00
02820               0.60    -1600.00
02821              -0.60     -800.00
02822              -1.40     -800.00
02823               0.20        0.00
02824               0.20        0.00
02825              -0.40     1600.00
02826               2.60     2400.00
02827               2.00     2400.00
02828              -3.00     2400.00
02829              -0.20     3200.00
02830               1.00     3200.00
02831              -1.60     4800.00
02832               4.20     5600.00
02833              25.00     6400.00
02834               7.40     7200.00
02835             -25.00     8000.00
02836               0.40     8000.00
02837              25.00     8800.00
02838             -25.00     8000.00
02839              14.00     9600.00
02840              25.00    10400.00
02841             -25.00    11200.00
02842              25.00    12000.00
02843              22.20    12000.00
02844             -25.00    12000.00
02845              25.00    12800.00
02846             -25.00    12800.00
02847              25.00    14400.00
02848              25.00    14400.00
02849             -25.00    15200.00
02850              25.00    16000.00
02851             -10.80    16000.00
02852             -25.00    16800.00
02853              25.00    17600.00
02854              -7.80    17600.00
02855             -25.00    18400.00
02856              21.40    19200.00
02857              12.40    19200.00
02858             -25.00    19200.00
02859              25.00    20000.00
02860              -2.60    21600.00
02861             -15.00    21600.00
02862              21.80    22400.00
02863             -25.00    22400.00
02864               4.40    22400.00
02865               6.20    23200.00
02866             -14.60    24000.00
02867               5.00    24800.00
02868              11.80    24800.00
02869             -20.40    25600.00
02870               4.80    25600.00
02871               7.60    25600.00
02872             -21.00    26400.00
02873              10.20    27200.00
02874               0.40    27200.00
02875              -9.40    27200.00
02876               3.80    28000.00
02877              -1.20    28000.00
02878              -7.00    28800.00
02879               1.20    28800.00
02880              -0.40    28800.00
02881              -5.40    28800.00
02882               0.60    29600.00
02883              -2.20    30400.00
02884              -4.60    30400.00
02885               2.20    30400.00
02886              -3.20    31200.00
02887              -3.60    31200.00
02888               2.00    31200.00
02889              -5.40    31200.00
02890              -2.00    32000.00
02891               0.20    32800.00
02892              -5.20    32000.00
02893               0.20    32800.00
02894              -0.80    32000.00
02895              -3.40    32800.00
02896              -2.20    32800.00
02897              -2.20    33600.00
02898              -2.40    32800.00
02899              -2.00    33600.00
02900              -1.20    33600.00
02901              -2.60    33600.00
02902              -1.80    33600.00
02903              -1.00    33600.00
02904              -3.60    33600.00
02905              -0.60    33600.00
02906              -2.60    33600.00
02907              -2.80    33600.00
02908               0.20    33600.00
02909              -3.60    33600.00
02910              -2.00    33600.00
02911              -1.20    33600.00
02912              -2.80    33600.00
02913              -2.00    33600.00
02914              -2.20    33600.00
02915              -2.20    32800.00
02916              -2.00    33600.00
02917              -1.40    33600.00
02918              -2.00    32800.00
02919              -2.20    32800.00
02920              -1.40    32000.00
02921              -2.20    32800.00
02922              -1.80    32800.00
02923              -2.00    32000.00
02924              -2.80    32000.00
02925              -1.40    31200.00
02926              -1.80    31200.00
02927              -2.20    31200.00
02928              -1.80    31200.00
02929              -2.20    30400.00
02930              -1.80    29600.00
02931              -1.80    29600.00
02932              -2.20    30400.00
02933              -2.00    29600.00
02934              -1.80    29600.00
02935              -1.80    28800.00
02936              -2.00    28000.00
02937              -2.20    28000.00
02938              -1.80    28000.00
02939              -2.20    27200.00
02940              -1.40    27200.00
02941              -2.20    27200.00
02942              -2.00    26400.00
02943              -1.20    25600.00
02944              -1.80    25600.00
02945              -1.40    25600.00
02946              -1.80    24800.00
02947              -1.80    24800.00
02948              -1.20    23200.00
02949              -1.40    23200.00
02950              -1.40    23200.00
02951              -1.40    23200.00
02952              -1.40    22400.00
02953              -1.20    21600.00
02954              -1.80    21600.00
02955              -1.20    20800.00
02956              -1.80    20000.00
02957              -1.20    19200.00
02958              -0.60    18400.00
02959              -1.80    18400.00
02960              -1.00    17600.00
02961              -1.00    17600.00
02962              -1.20    16800.00
02963              -1.00    16000.00
02964              -1.20    16000.00
02965              -0.60    15200.00
02966              -1.60    15200.00
02967              -1.20    14400.00
02968              -0.60    13600.00
02969              -1.20    12800.00
02970              -1.40    12800.00
02971              -0.20    12000.00
02972              -0.60    11200.00
02973              -1.00    10400.00
02974              -0.60    10400.00
02975               0.40     9600.00
02976              -1.20     8800.00
02977              -1.00     8800.00
02978               0.20     8000.00
02979              -0.80     7200.00
02980              -0.80     6400.00
02981               0.40     5600.00
02982              -0.60     5600.00
02983              -0.60     4800.00
02984              -0.60     3200.00
02985               0.20     4000.00
02986              -0.40     3200.00
02987              -0.60     2400.00
02988              -0.60     1600.00
02989              -0.40     1600.00
02990              -0.40        0.00
02991               0.40     -800.00
02992               1.00     -800.00
02993               3.60    -1600.00
02994              -0.60    -1600.00
02995              -1.20    -2400.00
02996               1.40    -2400.00
02997               1.20    -3200.00
02998              -0.60    -3200.00
02999               4.40    -4000.00
03000              18.80    -5600.00
03001              20.60    -6400.00
03002             -25.00    -8000.00
03003             -19.20    -8000.00
03004              25.00    -8000.00
03005             -11.40    -8000.00
03006             -25.00    -8000.00
03007              25.00    -9600.00
03008              25.00   -10400.00
03009             -25.00   -10400.00
03010              25.00   -12000.00
03011               6.00   -11200.00
03012             -25.00   -12800.00
03013              25.00   -13600.00
03014             -22.80   -12800.00
03015              22.00   -14400.00
03016             -11.00   -14400.00
03017             -19.60   -15200.00
03018              25.00   -16000.00
03019             -25.00   -16000.00
03020             -13.00   -16800.00
03021              25.00   -16800.00
03022             -13.40   -17600.00
03023             -23.20   -18400.00
03024              25.00   -18400.00
03025              -3.00   -19200.00
03026             -23.00   -20000.00
03027              25.00   -20000.00
03028              -7.40   -20800.00
03029              -6.00   -21600.00
03030              13.40   -22400.00
03031             -10.20   -22400.00
03032               3.60   -23200.00
03033               5.80   -23200.00
03034              -5.60   -23200.00
03035               7.00   -24000.00
03036               7.00   -24000.00
03037             -11.80   -24800.00
03038              10.80   -25600.00
03039               2.80   -25600.00
03040             -10.00   -25600.00
03041              11.60   -26400.00
03042               0.40   -26400.00
03043              -3.80   -27200.00
03044               6.20   -27200.00
03045               1.20   -28000.00
03046              -2.00   -27200.00
03047               4.60   -28800.00
03048               1.00   -28800.00
03049              -1.20   -28800.00
03050               4.40   -29600.00
03051               0.20   -29600.00
03052               0.60   -29600.00
03053               4.40   -29600.00
03054              -0.40   -30400.00
03055               1.20   -30400.00
03056               3.80   -30400.00
03057              -1.40   -30400.00
03058               1.80   -31200.00
03059               2.80   -31200.00
03060              -0.20   -32000.00
03061               3.00   -32000.00
03062               1.60   -32000.00
03063               0.40   -32000.00
03064               2.00   -32000.00
03065               1.40   -32000.00
03066               1.20   -32800.00
03067               1.80   -32000.00
03068               1.80   -32800.00
03069               1.20   -32800.00
03070               2.20   -32000.00
03071               1.00   -32800.00
03072               0.40   -32800.00
03073               2.80   -32800.00
03074               0.40   -32800.00
03075               1.20   -32800.00
03076               2.60   -32800.00
03077               0.20   -32800.00
03078               1.80   -32800.00
03079               2.00   -32000.00
03080               1.20   -32800.00
03081               1.40   -32800.00
03082               1.60   -32000.00
03083               1.80   -32800.00
03084               1.40   -32000.00
03085               1.80   -32000.00
03086               1.20   -32000.00
03087               1.80   -31200.00
03088               1.80   -32000.00
03089               1.20   -31200.00
03090               1.80   -32000.00
03091               1.20   -30400.00
03092               1.20   -30400.00
03093               2.60   -30400.00
03094               1.00   -30400.00
03095               1.00   -29600.00
03096               1.60   -29600.00
03097               1.20   -28800.00
03098               1.00   -29600.00
03099               1.80   -29600.00
03100               1.20   -28800.00
03101               1.00   -28000.00
03102               1.20   -28000.00
03103               2.00   -27200.00
03104               1.00   -27200.00
03105               1.00   -27200.00
03106               1.80   -26400.00
03107               1.20   -26400.00
03108               0.60   -25600.00
03109               1.20   -25600.00
03110               1.40   -25600.00
03111               1.20   -24800.00
03112               1.00   -24000.00
03113               1.40   -24000.00
03114               1.00   -23200.00
03115               0.40   -23200.00
03116               1.00   -23200.00
03117               1.40   -22400.00
03118               0.60   -21600.00
03119               0.40   -21600.00
03120               1.40   -20800.00
03121               0.40   -20000.00
03122              -0.20   -20000.00
03123               0.80   -19200.00
03124               0.60   -18400.00
03125               0.20   -18400.00
03126               0.40   -17600.00
03127               0.40   -16800.00
03128               0.00   -16800.00
03129               0.40   -16000.00
03130               1.20   -16000.00
03131               0.00   -15200.00
03132               0.40   -14400.00
03133               1.20   -14400.00
03134              -0.20   -13600.00
03135               0.00   -12800.00
03136               0.40   -12800.00
03137              -0.60   -11200.00
03138               0.00   -11200.00
03139               0.40   -10400.00
03140              -0.40   -10400.00
03141               0.20    -9600.00
03142               0.20    -8800.00
03143               0.20    -8000.00
03144              -0.20    -8000.00
03145               0.20    -7200.00
03146               0.40    -6400.00
03147              -0.40    -6400.00
03148               0.20    -4800.00
03149               0.00    -4000.00
03150              -0.80    -4000.00
03151              -0.40    -3200.00
03152               0.00    -3200.00
03153              -0.60    -1600.00
03154              -0.60    -1600.00
03155              -0.40     -800.00
03156              -0.40        0.00
03157              -0.20        0.00
03158               0.20      800.00
03159               1.00     1600.00
03160               3.60     1600.00
03161              -2.20     2400.00
03162              -1.20     3200.00
03163               1.20     3200.00
03164              -0.20     4800.00
03165               0.00     4800.00
03166              14.60     5600.00
03167              25.00     7200.00
03168             -25.00     8000.00
03169             -25.00     8000.00
03170              25.00     8000.00
03171             -10.00     8000.00
03172             -25.00     8800.00
03173              25.00    10400.00
03174             -25.00     9600.00
03175             -25.00    11200.00
03176              25.00    11200.00
03177             -25.00    12000.00
03178              25.00    12800.00
03179               6.40    12800.00
03180             -25.00    13600.00
03181              25.00    14400.00
03182             -25.00    14400.00
03183              13.40    16000.00
03184              25.00    15200.00
03185             -25.00    16000.00
03186              25.00    16800.00
03187              25.00    17600.00
03188             -25.00    18400.00
03189              -5.20    19200.00
03190              25.00    19200.00
03191             -25.00    20000.00
03192              -1.40    20800.00
03193              25.00    20800.00
03194             -25.00    21600.00
03195              18.60    22400.00
03196              -8.60    22400.00
03197             -14.80    22400.00
03198              15.40    24000.00
03199             -10.00    24000.00
03200              -6.20    24000.00
03201              15.40    24800.00
03202              -9.20    24800.00
03203             -13.40    25600.00
03204              17.60    25600.00
03205             -16.00    26400.00
03206              -3.40    26400.00
03207              10.80    27200.00
03208             -11.00    27200.00
03209              -0.60    28000.00
03210               2.60    28800.00
03211              -5.80    28000.00
03212              -2.20    28800.00
03213               2.20    28800.00
03214              -5.20    29600.00
03215              -2.20    28800.00
03216               0.00    29600.00
03217              -5.20    30400.00
03218              -0.40    30400.00
03219               0.60    30400.00
03220              -5.80    31200.00
03221               1.20    31200.00
03222              -2.20    31200.00
03223              -5.00    32800.00
03224               1.80    32000.00
03225              -4.20    32800.00
03226              -2.20    32000.00
03227               0.60    32800.00
03228              -3.40    32800.00
03229              -2.20    33600.00
03230              -2.00    33600.00
03231              -2.80    33600.00
03232              -2.00    32800.00
03233              -1.80    32800.00
03234              -2.20    33600.00
03235              -2.60    33600.00
03236              -0.20    33600.00
03237              -3.40    33600.00
03238              -2.20    33600.00
03239              -0.80    33600.00
03240              -3.80    33600.00
03241              -0.20    33600.00
03242              -2.00    33600.00
03243              -3.40    33600.00
03244              -1.00    33600.00
03245              -2.60    33600.00
03246              -2.20    33600.00
03247              -2.20    32800.00
03248              -2.80    33600.00
03249              -2.00    32800.00
03250              -2.20    32800.00
03251              -1.80    32800.00
03252              -2.60    32800.00
03253              -1.80    32000.00
03254              -2.00    32800.00
03255              -2.20    32000.00
03256              -1.40    32000.00
03257              -2.80    32000.00
03258              -2.20    31200.00
03259              -1.40    31200.00
03260              -2.60    31200.00
03261              -2.00    31200.00
03262              -2.00    30400.00
03263              -2.00    30400.00
03264              -1.80    30400.00
03265              -2.00    29600.00
03266              -2.00    29600.00
03267              -1.80    28800.00
03268              -1.80    28800.00
03269              -1.80    28800.00
03270              -2.20    28000.00
03271              -1.80    28000.00
03272              -1.80    27200.00
03273              -1.60    27200.00
03274              -1.80    26400.00
03275              -2.20    26400.00
03276              -1.20    26400.00
03277              -1.60    25600.00
03278              -1.40    25600.00
03279              -1.40    24800.00
03280              -2.20    24800.00
03281              -1.40    24800.00
03282              -1.40    24000.00
03283              -1.80    24000.00
03284              -1.00    22400.00
03285              -1.60    22400.00
03286              -1.20    22400.00
03287              -1.00    21600.00
03288              -1.40    20800.00
03289              -1.80    20800.00
03290              -1.00    19200.00
03291              -1.00    19200.00
03292              -1.20    18400.00
03293              -1.20    18400.00
03294              -1.00    17600.00
03295              -1.40    17600.00
03296              -0.60    16800.00
03297              -1.00    16000.00
03298              -1.40    15200.00
03299              -1.00    15200.00
03300              -0.60    14400.00
03301              -1.20    13600.00
03302              -1.20    13600.00
03303              -1.00    12800.00
03304              -0.60    12800.00
03305              -0.40    12000.00
03306              -1.20    11200.00
03307              -0.80    11200.00
03308              -0.60     9600.00
03309              -1.20     9600.00
03310              -0.60     8800.00
03311              -0.40     8000.00
03312              -1.40     8000.00
03313              -0.40     7200.00
03314              -0.40     6400.00
03315              -1.00     5600.00
03316              -0.40     5600.00
03317              -0.40     4800.00
03318              -0.40     4000.00
03319              -0.60     3200.00
03320              -0.40     2400.00
03321              -0.80     1600.00
03322              -0.20     1600.00
03323              -0.40      800.00
03324              -0.20        0.00
03325               0.40     -800.00
03326               2.60     -800.00
03327               1.80    -1600.00
03328              -1.80    -1600.00
03329               1.00    -2400.00
03330               1.80    -3200.00
03331               0.00    -3200.00
03332               1.80    -4000.00
03333              10.80    -4800.00
03334              25.00    -6400.00
03335             -17.80    -7200.00
03336             -25.00    -8000.00
03337              17.00    -8000.00
03338              15.60    -8000.00
03339             -25.00    -8000.00
03340               9.00    -8800.00
03341              25.00   -10400.00
03342             -25.00    -9600.00
03343               8.40   -11200.00
03344              25.00   -12000.00
03345             -25.00   -12000.00
03346              21.20   -12800.00
03347               3.40   -13600.00
03348              -3.60   -13600.00
03349              21.60   -14400.00
03350             -25.00   -14400.00
03351              25.00   -16000.00
03352              11.40   -16000.00
03353             -25.00   -16000.00
03354              25.00   -16800.00
03355              14.80   -16800.00
03356             -25.00   -17600.00
03357              10.00   -18400.00
03358              24.60   -19200.00
03359             -25.00   -20000.00
03360              15.40   -20000.00
03361              16.20   -20800.00
03362             -18.20   -20800.00
03363              13.40   -21600.00
03364              -3.20   -22400.00
03365              -5.20   -22400.00
03366               8.80   -23200.00
03367              -2.00   -23200.00
03368              -0.40   -23200.00
03369              12.60   -24000.00
03370              -8.20   -24800.00
03371              -0.80   -25600.00
03372              12.40   -25600.00
03373             -10.80   -25600.00
03374               4.80   -26400.00
03375               8.20   -26400.00
03376              -5.60   -27200.00
03377               2.80   -27200.00
03378               4.40   -28000.00
03379              -3.00   -28000.00
03380               2.20   -28800.00
03381               3.80   -28800.00
03382              -1.80   -28800.00
03383               2.40   -28800.00
03384               2.20   -29600.00
03385              -0.60   -29600.00
03386               3.20   -29600.00
03387               2.00   -30400.00
03388              -0.20   -30400.00
03389               3.80   -30400.00
03390               0.00   -32000.00
03391               0.40   -32000.00
03392               3.00   -32000.00
03393               0.20   -31200.00
03394               2.60   -32000.00
03395               2.80   -32000.00
03396               0.20   -32000.00
03397               1.60   -32000.00
03398               1.80   -32800.00
03399               0.60   -32800.00
03400               1.60   -32800.00
03401               1.80   -32000.00
03402               1.40   -32800.00
03403               1.40   -32800.00
03404               2.20   -32800.00
03405               0.40   -32800.00
03406               2.00   -32000.00
03407               2.00   -32800.00
03408               0.40   -32000.00
03409               2.60   -32800.00
03410               1.00   -32800.00
03411               1.60   -32000.00
03412               2.40   -32800.00
03413               1.20   -32000.00
03414               1.80   -32000.00
03415               1.20   -32800.00
03416               1.20   -32800.00
03417               1.80   -32000.00
03418               1.80   -32000.00
03419               1.00   -32000.00
03420               1.80   -31200.00
03421               2.60   -32000.00
03422               1.00   -32000.00
03423               1.20   -31200.00
03424               2.00   -30400.00
03425               1.00   -30400.00
03426               1.80   -30400.00
03427               2.00   -30400.00
03428               1.00   -30400.00
03429               1.60   -29600.00
03430               1.40   -28800.00
03431               1.00   -28800.00
03432               1.40   -28800.00
03433               1.20   -28800.00
03434               1.00   -28800.00
03435               1.80   -28000.00
03436               1.00   -28000.00
03437               1.20   -27200.00
03438               1.20   -26400.00
03439               1.00   -27200.00
03440               2.00   -26400.00
03441               1.20   -25600.00
03442               0.60   -26400.00
03443               1.20   -25600.00
03444               1.40   -24800.00
03445               0.20   -24800.00
03446               1.20   -24000.00
03447               1.00   -24000.00
03448               0.40   -23200.00
03449               1.20   -22400.00
03450               0.80   -22400.00
03451               0.60   -21600.00
03452               1.00   -21600.00
03453               0.60   -20800.00
03454               1.00   -20800.00
03455               0.40   -20000.00
03456               0.40   -18400.00
03457               0.60   -18400.00
03458               0.40   -17600.00
03459               0.20   -17600.00
03460               0.20   -17600.00
03461               0.40   -16800.00
03462               0.20   -16000.00
03463               0.40   -16000.00
03464               0.60   -15200.00
03465               0.20   -16000.00
03466               0.40   -14400.00
03467               0.40   -13600.00
03468               0.20   -12800.00
03469               0.40   -12800.00
03470               0.20   -12000.00
03471               0.20   -11200.00
03472               0.20   -11200.00
03473              -0.20   -10400.00
03474               0.20    -9600.00
03475              -0.20    -9600.00
03476               0.20    -8000.00
03477               0.40    -8000.00
03478              -0.20    -7200.00
03479              -0.40    -7200.00
03480               0.20    -6400.00
03481              -0.20    -4800.00
03482               0.00    -4800.00
03483              -0.20    -4000.00
03484              -0.40    -4000.00
03485              -0.20    -3200.00
03486              -0.20    -2400.00
03487              -0.40    -1600.00
03488              -0.20     -800.00
03489              -0.60     -800.00
03490               0.00        0.00
03491               0.00        0.00
03492               0.20     1600.00
03493               2.80     1600.00
03494               1.00     2400.00
03495              -2.60     2400.00
03496               0.40     3200.00
03497               1.00     4000.00
03498              -1.80     4800.00
03499               6.80     4800.00
03500              25.00     7200.00
03501              -7.00     7200.00
03502             -25.00     8000.00
03503              11.60     8800.00
03504              18.60     8000.00
03505             -25.00     8000.00
03506              25.00     9600.00
03507              25.00     9600.00
03508             -25.00    10400.00
03509              25.00    11200.00
03510              -8.40    12000.00
03511             -25.00    12800.00
03512              25.00    12800.00
03513             -25.00    12800.00
03514              25.00    14400.00
03515               6.20    14400.00
03516             -25.00    15200.00
03517              25.00    16000.00
03518             -25.00    16000.00
03519             -23.60    16800.00
03520              25.00    17600.00
03521             -20.60    18400.00
03522             -25.00    18400.00
03523              25.00    19200.00
03524               0.20    19200.00
03525             -25.00    20800.00
03526              25.00    21600.00
03527             -15.00    21600.00
03528              -5.00    21600.00
03529              16.20    22400.00
03530             -25.00    22400.00
03531              10.60    23200.00
03532               1.20    24000.00
03533             -13.80    24000.00
03534               9.00    24800.00
03535               7.00    25600.00
03536             -21.60    24800.00
03537              11.60    26400.00
03538               0.80    26400.00
03539             -18.60    26400.00
03540              13.00    26400.00
03541              -4.20    27200.00
03542              -7.40    28000.00
03543               4.60    28000.00
03544              -2.60    28800.00
03545              -6.20    28000.00
03546               2.60    28800.00
03547              -2.00    29600.00
03548              -5.00    29600.00
03549               1.20    29600.00
03550              -3.20    30400.00
03551              -3.60    30400.00
03552               2.60    31200.00
03553              -4.40    31200.00
03554              -2.20    31200.00
03555               1.40    32000.00
03556              -6.20    32000.00
03557              -0.40    32800.00
03558              -1.00    32000.00
03559              -4.80    32800.00
03560               1.00    32000.00
03561              -1.40    32800.00
03562              -3.00    33600.00
03563              -1.40    33600.00
03564              -2.60    32800.00
03565              -2.20    32800.00
03566              -2.00    32800.00
03567              -1.80    33600.00
03568              -3.00    33600.00
03569              -1.40    33600.00
03570              -1.20    33600.00
03571              -3.60    33600.00
03572              -0.60    33600.00
03573              -3.00    33600.00
03574              -2.20    33600.00
03575              -0.60    32800.00
03576              -3.80    33600.00
03577              -1.40    33600.00
03578              -1.80    33600.00
03579              -2.60    33600.00
03580              -1.80    33600.00
03581              -3.00    33600.00
03582              -2.20    33600.00
03583              -2.20    33600.00
03584              -1.60    32800.00
03585              -3.00    32800.00
03586              -1.20    32800.00
03587              -2.20    32800.00
03588              -2.80    32800.00
03589              -1.20    32000.00
03590              -2.20    32000.00
03591              -3.20    31200.00
03592              -1.00    31200.00
03593              -1.80    31200.00
03594              -3.00    31200.00
03595              -1.20    30400.00
03596              -2.00    30400.00
03597              -2.40    29600.00
03598              -1.20    29600.00
03599              -2.20    29600.00
03600              -2.60    28800.00
03601              -1.20    28800.00
03602              -1.80    28800.00
03603              -2.20    28000.00
03604              -1.40    28000.00
03605              -2.00    28000.00
03606              -2.00    28000.00
03607              -1.20    27200.00
03608              -2.20    26400.00
03609              -1.80    26400.00
03610              -1.00    25600.00
03611              -1.80    25600.00
03612              -1.20    24800.00
03613              -2.00    24800.00
03614              -2.00    24800.00
03615              -1.00    24000.00
03616              -1.40    23200.00
03617              -1.20    22400.00
03618              -1.80    22400.00
03619              -1.40    22400.00
03620              -1.20    21600.00
03621              -1.40    20800.00
03622              -1.40    20800.00
03623              -1.20    20000.00
03624              -0.60    19200.00
03625              -1.20    19200.00
03626              -1.20    18400.00
03627              -0.80    17600.00
03628              -1.40    17600.00
03629              -1.20    17600.00
03630              -0.60    16000.00
03631              -1.60    16000.00
03632              -1.00    15200.00
03633              -1.20    14400.00
03634              -1.00    14400.00
03635              -1.00    13600.00
03636              -1.20    12800.00
03637              -0.60    12800.00
03638              -0.60    12000.00
03639              -1.20    11200.00
03640              -1.00    11200.00
03641              -1.20    10400.00
03642              -0.40    10400.00
03643              -1.20     8800.00
03644              -0.60     8800.00
03645              -0.60     8000.00
03646              -1.20     8000.00
03647              -0.60     6400.00
03648              -0.40     5600.00
03649              -1.00     5600.00
03650              -0.20     4800.00
03651              -0.60     4000.00
03652              -0.20     3200.00
03653               0.00     3200.00
03654              -0.60     2400.00
03655              -0.60     1600.00
03656              -0.20     1600.00
03657               0.00        0.00
03658               0.20        0.00
03659               1.20        0.00
03660               3.60    -1600.00
03661              -1.00    -1600.00
03662              -0.40    -1600.00
03663               2.00    -3200.00
03664               1.00    -3200.00
03665              -0.40    -4000.00
03666               5.80    -4000.00
03667              22.20    -4800.00
03668              12.40    -7200.00
03669             -25.00    -7200.00
03670              -8.20    -8000.00
03671              25.00    -8000.00
03672             -23.00    -8000.00
03673             -25.00    -8800.00
03674              25.00    -9600.00
03675              -1.00    -9600.00
03676             -25.00   -10400.00
03677              25.00   -12000.00
03678             -21.00   -11200.00
03679             -25.00   -12800.00
03680              25.00   -12800.00
03681             -23.60   -13600.00
03682              25.00   -14400.00
03683             -25.00   -14400.00
03684              -4.20   -15200.00
03685              25.00   -16000.00
03686             -25.00   -16000.00
03687               0.40   -16800.00
03688              25.00   -17600.00
03689             -22.20   -17600.00
03690             -15.60   -17600.00
03691              25.00   -19200.00
03692             -15.00   -18400.00
03693             -13.20   -20000.00
03694              25.00   -20800.00
03695             -14.00   -20800.00
03696               0.00   -21600.00
03697               9.80   -22400.00
03698             -10.60   -22400.00
03699               6.60   -22400.00
03700               3.60   -23200.00
03701              -5.20   -24000.00
03702               9.80   -24000.00
03703               2.60   -24800.00
03704             -10.80   -25600.00
03705              13.40   -25600.00
03706              -2.00   -26400.00
03707              -6.80   -26400.00
03708              12.40   -26400.00
03709              -2.60   -27200.00
03710              -2.60   -27200.00
03711               6.60   -27200.00
03712              -0.20   -27200.00
03713              -1.00   -28000.00
03714               5.20   -28800.00
03715               0.20   -28800.00
03716              -0.40   -29600.00
03717               4.20   -29600.00
03718              -0.60   -29600.00
03719               1.80   -29600.00
03720               4.20   -30400.00
03721              -1.20   -30400.00
03722               2.00   -30400.00
03723               2.80   -31200.00
03724              -1.40   -32000.00
03725               2.60   -32000.00
03726               1.80   -32000.00
03727               0.20   -32000.00
03728               3.40   -32000.00
03729               0.80   -32000.00
03730               0.80   -32000.00
03731               2.20   -32000.00
03732               1.20   -32000.00
03733               1.60   -32000.00
03734               2.20   -32800.00
03735               1.60   -32800.00
03736               1.00   -32800.00
03737               2.60   -32800.00
03738               0.80   -32800.00
03739               1.00   -32000.00
03740               3.00   -32800.00
03741               0.60   -32800.00
03742               2.00   -32800.00
03743               2.40   -32800.00
03744               0.40   -32000.00
03745               2.20   -32000.00
03746               2.00   -32000.00
03747               1.80   -32800.00
03748               1.20   -32800.00
03749               1.80   -32000.00
03750               2.00   -32000.00
03751               0.60   -32000.00
03752               2.00   -32000.00
03753               1.80   -31200.00
03754               1.20   -32000.00
03755               1.80   -31200.00
03756               1.20   -31200.00
03757               1.80   -30400.00
03758               1.40   -31200.00
03759               1.80   -30400.00
03760               2.00   -29600.00
03761               1.00   -30400.00
03762               1.80   -30400.00
03763               1.20   -29600.00
03764               0.40   -29600.00
03765               1.20   -29600.00
03766               1.80   -28800.00
03767               0.40   -28800.00
03768               0.40   -28000.00
03769               2.00   -28800.00
03770               0.40   -27200.00
03771               0.60   -27200.00
03772               2.80   -26400.00
03773               0.40   -27200.00
03774               0.40   -26400.00
03775               2.00   -25600.00
03776               0.40   -25600.00
03777              -0.20   -25600.00
03778               2.00   -24000.00
03779               1.00   -24800.00
03780               0.40   -24000.00
03781               1.40   -23200.00
03782               1.00   -23200.00
03783               0.20   -22400.00
03784               0.60   -22400.00
03785               1.00   -21600.00
03786               0.60   -20800.00
03787               1.00   -20800.00
03788               0.40   -20000.00
03789               0.40   -20000.00
03790               0.20   -18400.00
03791               0.40   -19200.00
03792               1.20   -17600.00
03793               0.40   -17600.00
03794               0.00   -16800.00
03795               1.00   -16800.00
03796               0.60   -16000.00
03797              -0.40   -16000.00
03798               0.60   -15200.00
03799               1.20   -14400.00
03800              -0.40   -13600.00
03801               0.20   -12800.00
03802               0.60   -12800.00
03803              -0.40   -11200.00
03804              -0.40   -11200.00
03805               1.20   -11200.00
03806               0.20   -10400.00
03807              -0.20    -9600.00
03808               0.40    -9600.00
03809               0.20    -8800.00
03810              -0.20    -8000.00
03811               0.20    -7200.00
03812               0.20    -7200.00
03813               0.00    -6400.00
03814              -0.20    -5600.00
03815               0.00    -4800.00
03816              -0.20    -4000.00
03817              -0.60    -4000.00
03818               0.20    -3200.00
03819               0.20    -2400.00
03820              -0.60    -1600.00
03821              -0.20    -1600.00
03822              -0.40     -800.00
03823              -0.40        0.00
03824               0.20      800.00
03825               0.40      800.00
03826               1.20     1600.00
03827               3.40     2400.00
03828              -2.80     2400.00
03829              -0.60     3200.00
03830               1.20     3200.00
03831              -1.00     4000.00
03832               1.00     4800.00
03833              19.00     6400.00
03834              25.00     7200.00
03835             -25.00     8000.00
03836             -19.00     8000.00
03837              25.00     8000.00
03838             -23.20     8800.00
03839             -17.40     8800.00
03840              25.00     9600.00
03841             -25.00    10400.00
03842               6.20    12000.00
03843              25.00    11200.00
03844             -25.00    12000.00
03845              25.00    12800.00
03846             -21.80    12800.00
03847             -13.60    14400.00
03848              25.00    14400.00
03849             -25.00    14400.00
03850              25.00    15200.00
03851              25.00    16000.00
03852             -25.00    16000.00
03853              25.00    17600.00
03854              14.20    17600.00
03855             -25.00    18400.00
03856               5.80    19200.00
03857              25.00    19200.00
03858             -25.00    20800.00
03859              12.20    20800.00
03860              18.20    20800.00
03861             -25.00    21600.00
03862              23.40    21600.00
03863             -17.20    22400.00
03864              -7.00    22400.00
03865              12.60    24000.00
03866             -12.60    24000.00
03867              -1.60    24000.00
03868              15.40    24800.00
03869             -14.60    25600.00
03870              -6.60    25600.00
03871              14.80    26400.00
03872             -19.40    26400.00
03873               2.80    27200.00
03874               7.80    27200.00
03875             -11.40    28000.00
03876               1.40    27200.00
03877               1.80    28000.00
03878              -6.80    28000.00
03879              -1.00    28800.00
03880               2.20    28800.00
03881              -5.20    29600.00
03882              -1.40    29600.00
03883              -0.20    29600.00
03884              -5.20    30400.00
03885               0.60    30400.00
03886              -0.20    31200.00
03887              -5.20    31200.00
03888               1.80    31200.00
03889              -3.40    32000.00
03890              -4.40    32000.00
03891               1.20    32000.00
03892              -4.60    32800.00
03893              -1.20    32000.00
03894               0.40    32800.00
03895              -3.40    32800.00
03896              -2.80    32800.00
03897              -2.40    32800.00
03898              -2.20    33600.00
03899              -2.80    32800.00
03900              -1.20    32800.00
03901              -2.00    32800.00
03902              -3.00    33600.00
03903              -0.40    33600.00
03904              -3.40    33600.00
03905              -2.20    33600.00
03906              -1.40    33600.00
03907              -3.80    33600.00
03908              -0.40    33600.00
03909              -2.80    33600.00
03910              -2.80    33600.00
03911              -1.20    33600.00
03912              -2.60    33600.00
03913              -2.00    32800.00
03914              -2.80    33600.00
03915              -2.20    33600.00
03916              -2.20    33600.00
03917              -1.80    33600.00
03918              -1.60    32800.00
03919              -2.80    32800.00
03920              -2.00    32800.00
03921              -2.20    32000.00
03922              -2.40    32800.00
03923              -1.80    31200.00
03924              -2.80    31200.00
03925              -2.00    32000.00
03926              -1.00    31200.00
03927              -2.60    31200.00
03928              -2.20    31200.00
03929              -1.20    30400.00
03930              -2.00    30400.00
03931              -1.80    30400.00
03932              -2.00    29600.00
03933              -2.20    29600.00
03934              -1.20    28800.00
03935              -2.00    28800.00
03936              -1.20    28800.00
03937              -1.20    28000.00
03938              -2.80    28000.00
03939              -1.80    27200.00
03940              -1.20    27200.00
03941              -2.80    27200.00
03942              -1.80    26400.00
03943              -0.20    25600.00
03944              -2.20    25600.00
03945              -1.00    25600.00
03946              -1.00    24800.00
03947              -2.80    24000.00
03948              -1.00    24000.00
03949              -1.40    24000.00
03950              -2.00    23200.00
03951              -1.00    22400.00
03952              -2.20    22400.00
03953              -1.60    22400.00
03954              -1.20    21600.00
03955              -1.40    20800.00
03956              -1.20    20000.00
03957              -1.00    19200.00
03958              -0.20    19200.00
03959              -1.20    19200.00
03960              -0.60    18400.00
03961              -1.20    18400.00
03962              -1.80    17600.00
03963              -1.20    16000.00
03964              -2.60    16000.00
03965              -1.80    15200.00
03966              -1.00    15200.00
03967              -1.00    14400.00
03968               0.20    14400.00
03969              -0.40    13600.00
03970              -1.00    12000.00
03971              -0.60    12000.00
03972              -1.80    11200.00
03973              -2.00    11200.00
03974              -2.00    11200.00
03975              -0.60     9600.00
03976              -0.60     8800.00
03977              -0.20     8800.00
03978               0.20     8000.00
03979              -0.60     8000.00
03980              -0.60     6400.00
03981              -1.20     6400.00
03982              -1.40     5600.00
03983              -1.40     4800.00
03984              -1.40     4800.00
03985               0.00     3200.00
03986               0.20     3200.00
03987               0.00     2400.00
03988               0.60     1600.00
03989               0.00     1600.00
03990              -0.60     1600.00
03991               0.20        0.00
03992              -0.40     -800.00
03993               2.60    -1600.00
03994               0.60    -1600.00
03995              -1.20    -1600.00
03996               2.00    -2400.00
03997               2.00    -3200.00
03998               0.20    -3200.00
03999               2.80    -4000.00
04000              13.40    -4800.00
04001              25.00    -6400.00
04002             -25.00    -7200.00
04003             -25.00    -8000.00
04004              23.60    -8000.00
04005               7.40    -8000.00
04006             -25.00    -8800.00
04007              25.00    -9600.00
04008              25.00   -10400.00
04009             -25.00   -10400.00
04010              25.00   -11200.00
04011              25.00   -11200.00
04012             -25.00   -12000.00
04013              25.00   -12800.00
04014              -9.40   -13600.00
04015               7.80   -14400.00
04016              11.60   -14400.00
04017             -25.00   -14400.00
04018              25.00   -15200.00
04019              -5.20   -16000.00
04020             -25.00   -16800.00
04021              25.00   -16800.00
04022               3.60   -17600.00
04023             -25.00   -18400.00
04024              19.60   -18400.00
04025              15.40   -19200.00
04026             -25.00   -18400.00
04027              23.40   -20000.00
04028               6.80   -20800.00
04029             -15.00   -21600.00
04030              14.80   -22400.00
04031              -7.60   -22400.00
04032              -1.80   -22400.00
04033               7.80   -23200.00
04034              -3.80   -24000.00
04035               2.40   -23200.00
04036              11.60   -24000.00
04037             -10.40   -24000.00
04038               3.60   -25600.00
04039               9.20   -25600.00
04040             -12.20   -25600.00
04041               7.80   -26400.00
04042               5.20   -26400.00
04043              -5.60   -27200.00
04044               4.60   -27200.00
04045               3.40   -27200.00
04046              -2.60   -28800.00
04047               3.60   -28000.00
04048               2.80   -28800.00
04049              -2.20   -29600.00
04050               3.40   -29600.00
04051               1.20   -29600.00
04052              -0.60   -29600.00
04053               4.40   -30400.00
04054               1.40   -29600.00
04055              -0.20   -30400.00
04056               4.60   -30400.00
04057              -0.40   -30400.00
04058               0.60   -31200.00
04059               2.80   -31200.00
04060              -0.40   -32000.00
04061               2.40   -32000.00
04062               2.20   -32000.00
04063               0.40   -32000.00
04064               2.00   -32000.00
04065               1.80   -32000.00
04066               1.20   -32800.00
04067               2.20   -32000.00
04068               2.00   -32800.00
04069               1.00   -32800.00
04070               2.00   -32800.00
04071               1.80   -32800.00
04072               0.40   -32800.00
04073               2.60   -32800.00
04074               1.80   -32800.00
04075               1.20   -32000.00
04076               3.00   -32800.00
04077               0.60   -32800.00
04078               1.40   -32800.00
04079               2.40   -32800.00
04080               1.00   -32800.00
04081               1.60   -32000.00
04082               1.80   -32800.00
04083               1.60   -32800.00
04084               2.00   -32000.00
04085               1.60   -32800.00
04086               1.40   -32000.00
04087               2.00   -32000.00
04088               1.40   -32000.00
04089               0.40   -32000.00
04090               2.60   -31200.00
04091               1.80   -31200.00
04092               0.20   -30400.00
04093               2.20   -30400.00
04094               2.00   -29600.00
04095              -0.20   -30400.00
04096               1.20   -29600.00
04097               2.60   -29600.00
04098               0.60   -28800.00
04099               0.20   -29600.00
04100               2.00   -28800.00
04101               1.60   -28800.00
04102               0.20   -28000.00
04103               2.20   -27200.00
04104               2.60   -27200.00
04105              -0.60   -27200.00
04106               0.40   -27200.00
04107               2.80   -26400.00
04108              -0.40   -26400.00
04109              -0.40   -25600.00
04110               3.00   -24800.00
04111               1.40   -24000.00
04112              -0.60   -24000.00
04113               1.80   -24000.00
04114               1.00   -24000.00
04115              -0.60   -23200.00
04116               1.20   -23200.00
04117               1.40   -22400.00
04118               0.60   -21600.00
04119               0.60   -20800.00
04120               1.00   -20800.00
04121               0.60   -20000.00
04122               0.20   -20000.00
04123               0.60   -19200.00
04124               0.60   -18400.00
04125               0.40   -17600.00
04126               0.20   -17600.00
04127               0.60   -17600.00
04128               1.00   -16800.00
04129               0.40   -16000.00
04130               0.40   -16000.00
04131               1.00   -15200.00
04132               0.20   -14400.00
04133               0.20   -14400.00
04134               0.40   -13600.00
04135               0.40   -12800.00
04136              -0.40   -12800.00
04137               0.20   -12000.00
04138               0.60   -11200.00
04139               0.00   -10400.00
04140              -0.20   -10400.00
04141               0.40    -9600.00
04142              -0.40    -8800.00
04143               0.00    -8000.00
04144               0.40    -8000.00
04145               0.20    -7200.00
04146               0.20    -7200.00
04147               0.40    -6400.00
04148              -0.20    -5600.00
04149              -0.20    -4000.00
04150              -0.20    -4000.00
04151              -0.40    -3200.00
04152              -0.40    -3200.00
04153              -0.20    -2400.00
04154              -0.40    -1600.00
04155              -0.60     -800.00
04156              -0.40     -800.00
04157              -0.20        0.00
04158               0.00      800.00
04159               0.20     1600.00
04160               3.00     1600.00
04161              -0.40     2400.00
04162              -2.20     2400.00
04163               0.80     3200.00
04164               0.40     3200.00
04165              -1.80     4000.00
04166               9.00     5600.00
04167              25.00     7200.00
04168             -21.40     6400.00
04169             -25.00     8000.00
04170              19.80     8000.00
04171               9.00     8800.00
04172             -25.00     8800.00
04173              25.00    10400.00
04174              15.80     9600.00
04175             -25.00    11200.00
04176              25.00    12000.00
04177             -25.00    11200.00
04178             -12.00    12800.00
04179              25.00    12800.00
04180             -25.00    12800.00
04181              25.00    14400.00
04182             -25.00    14400.00
04183             -25.00    16000.00
04184              25.00    16000.00
04185             -25.00    16000.00
04186              -0.40    16800.00
04187              25.00    17600.00
04188             -25.00    17600.00
04189             -19.80    19200.00
04190              25.00    19200.00
04191             -13.00    20000.00
04192             -22.60    20800.00
04193              25.00    20800.00
04194             -24.60    20800.00
04195               5.40    22400.00
04196               7.60    22400.00
04197             -23.40    22400.00
04198              14.80    23200.00
04199              -3.40    24000.00
04200             -11.80    24000.00
04201              12.20    24800.00
04202               1.20    24800.00
04203             -19.80    24800.00
04204              15.60    25600.00
04205              -6.00    26400.00
04206             -13.20    26400.00
04207              13.80    27200.00
04208              -7.60    28000.00
04209              -4.40    27200.00
04210               4.60    28800.00
04211              -3.80    28800.00
04212              -4.40    28800.00
04213               2.80    28800.00
04214              -3.60    28800.00
04215              -3.80    29600.00
04216               0.80    30400.00
04217              -4.40    30400.00
04218              -2.20    30400.00
04219               2.20    31200.00
04220              -5.80    31200.00
04221              -0.60    31200.00
04222               0.40    32000.00
04223              -6.60    32000.00
04224               1.00    32000.00
04225              -2.60    32800.00
04226              -4.20    32000.00
04227               1.00    32800.00
04228              -2.60    32800.00
04229              -3.40    33600.00
04230              -1.80    32800.00
04231              -2.80    32800.00
04232              -2.20    33600.00
04233              -1.80    33600.00
04234              -2.00    32800.00
04235              -3.40    33600.00
04236              -0.80    33600.00
04237              -2.20    33600.00
04238              -3.40    33600.00
04239              -0.60    33600.00
04240              -3.80    33600.00
04241              -1.20    33600.00
04242              -1.00    33600.00
04243              -4.20    33600.00
04244              -1.00    33600.00
04245              -2.60    33600.00
04246              -2.60    32800.00
04247              -1.80    33600.00
04248              -3.40    33600.00
04249              -1.80    33600.00
04250              -2.00    32800.00
04251              -2.20    32800.00
04252              -2.20    32800.00
04253              -1.80    32800.00
04254              -1.80    32000.00
04255              -2.20    32000.00
04256              -1.40    32800.00
04257              -2.60    31200.00
04258              -2.20    31200.00
04259              -2.20    31200.00
04260              -1.20    31200.00
04261              -1.40    31200.00
04262              -3.40    30400.00
04263              -0.20    30400.00
04264              -1.00    30400.00
04265              -4.40    30400.00
04266              -0.40    30400.00
04267              -1.40    30400.00
04268              -4.40    28800.00
04269               1.00    28000.00
04270              -1.20    28800.00
04271              -4.40    28000.00
04272               0.20    28000.00
04273              -1.40    27200.00
04274              -3.80    26400.00
04275              -0.40    27200.00
04276              -1.40    25600.00
04277              -2.80    25600.00
04278              -0.40    25600.00
04279              -1.80    24800.00
04280              -2.60    24000.00
04281              -0.40    24000.00
04282              -1.80    23200.00
04283              -2.00    24000.00
04284              -0.60    22400.00
04285              -2.80    22400.00
04286              -1.40    21600.00
04287              -0.20    21600.00
04288              -2.20    21600.00
04289              -1.40    20800.00
04290              -1.20    19200.00
04291              -2.20    19200.00
04292              -1.40    19200.00
04293              -0.60    18400.00
04294              -1.80    17600.00
04295              -1.40    17600.00
04296               0.00    16000.00
04297              -1.40    16000.00
04298              -1.80    15200.00
04299              -0.80    15200.00
04300              -1.40    14400.00
04301              -1.40    14400.00
04302              -1.00    13600.00
04303              -1.00    12800.00
04304              -1.20    12000.00
04305              -0.60    12000.00
04306              -0.60    11200.00
04307              -1.20    11200.00
04308              -1.40     9600.00
04309              -0.20     9600.00
04310              -1.40     8800.00
04311              -1.00     8000.00
04312              -1.00     8000.00
04313              -1.00     7200.00
04314              -0.20     6400.00
04315              -0.60     6400.00
04316              -0.60     4800.00
04317              -0.20     4800.00
04318              -0.60     4000.00
04319              -0.60     3200.00
04320               0.20     2400.00
04321              -0.60     2400.00
04322              -0.60     1600.00
04323               0.00     1600.00
04324              -0.40        0.00
04325               0.20     -800.00
04326               1.80     -800.00
04327               3.60    -1600.00
04328              -1.00    -1600.00
04329               0.40    -2400.00
04330               2.00    -2400.00
04331               1.00    -4000.00
04332               0.20    -4000.00
04333               7.60    -4000.00
04334              25.00    -5600.00
04335               2.00    -7200.00
04336             -25.00    -7200.00
04337               2.80    -8000.00
04338              25.00    -8800.00
04339             -25.00    -8000.00
04340             -16.80    -8800.00
04341              25.00   -10400.00
04342             -25.00    -9600.00
04343             -25.00   -10400.00
04344              25.00   -12000.00
04345             -25.00   -12000.00
04346              -5.20   -12800.00
04347              24.40   -12800.00
04348             -18.80   -13600.00
04349              25.00   -14400.00
04350             -25.00   -14400.00
04351              11.80   -14400.00
04352              25.00   -16000.00
04353             -25.00   -16000.00
04354              13.40   -16800.00
04355              25.00   -17600.00
04356             -25.00   -17600.00
04357              -6.40   -17600.00
04358              25.00   -18400.00
04359             -24.60   -20000.00
04360              -2.00   -19200.00
04361              25.00   -20800.00
04362             -18.00   -20800.00
04363               6.20   -20800.00
04364               4.40   -22400.00
04365              -8.80   -22400.00
04366               8.60   -23200.00
04367               1.00   -24000.00
04368              -4.00   -24000.00
04369              11.40   -24000.00
04370              -2.80   -24800.00
04371              -7.60   -24000.00
04372              14.80   -25600.00
04373              -6.20   -25600.00
04374              -2.20   -26400.00
04375              11.60   -26400.00
04376              -4.60   -26400.00
04377              -0.60   -27200.00
04378               5.80   -28000.00
04379              -1.40   -28000.00
04380               0.60   -28800.00
04381               5.00   -28800.00
04382              -1.00   -28800.00
04383               1.20   -29600.00
04384               3.80   -29600.00
04385              -1.00   -29600.00
04386               2.60   -30400.00
04387               3.60   -29600.00
04388              -1.80   -30400.00
04389               3.00   -30400.00
04390               1.80   -30400.00
04391              -1.20   -31200.00
04392               3.60   -30400.00
04393               1.20   -32000.00
04394               1.40   -32000.00
04395               3.60   -32000.00
04396               0.20   -32000.00
04397               1.00   -32000.00
04398               2.00   -32000.00
04399               1.00   -32800.00
04400               2.00   -32000.00
04401               2.20   -32800.00
04402               1.40   -32800.00
04403               1.40   -32800.00
04404               2.60   -32800.00
04405               0.40   -32800.00
04406               1.80   -32800.00
04407               2.60   -32000.00
04408               0.40   -32800.00
04409               2.80   -32800.00
04410               1.80   -32800.00
04411               1.00   -32800.00
04412               2.60   -32800.00
04413               1.40   -32000.00
04414               1.20   -32800.00
04415               1.80   -32000.00
04416               1.20   -32800.00
04417               1.20   -32000.00
04418               1.40   -32000.00
04419               1.00   -32000.00
04420               1.20   -32000.00
04421               1.80   -32000.00
04422               1.20   -31200.00
04423               1.40   -31200.00
04424               2.20   -31200.00
04425               0.80   -30400.00
04426               1.20   -30400.00
04427               2.60   -30400.00
04428               0.40   -29600.00
04429               1.40   -29600.00
04430               1.40   -29600.00
04431               0.40   -29600.00
04432               1.20   -28800.00
04433               1.40   -28800.00
04434               0.60   -28800.00
04435               1.40   -28800.00
04436               1.00   -28000.00
04437               1.00   -27200.00
04438               1.20   -27200.00
04439               1.40   -27200.00
04440               1.00   -26400.00
04441               1.40   -26400.00
04442               0.60   -25600.00
04443               0.60   -25600.00
04444               1.40   -24800.00
04445               0.80   -24000.00
04446               1.00   -24000.00
04447               1.20   -24000.00
04448               0.60   -23200.00
04449               0.80   -23200.00
04450               0.80   -22400.00
04451               0.60   -22400.00
04452               1.20   -22400.00
04453               1.00   -20800.00
04454               0.80   -20800.00
04455               0.60   -20000.00
04456               0.40   -20000.00
04457               0.40   -18400.00
04458               0.60   -18400.00
04459               0.60   -18400.00
04460               0.40   -17600.00
04461               0.60   -16800.00
04462               0.40   -16800.00
04463               0.60   -16000.00
04464               0.40   -15200.00
04465               0.20   -14400.00
04466               0.60   -14400.00
04467               0.40   -13600.00
04468              -0.20   -13600.00
04469               0.40   -12800.00
04470               0.20   -12000.00
04471              -0.20   -11200.00
04472               0.40   -10400.00
04473               0.20   -10400.00
04474              -0.20    -9600.00
04475              -0.20    -9600.00
04476              -0.20    -8000.00
04477               0.20    -8000.00
04478               0.00    -7200.00
04479              -0.40    -6400.00
04480               0.20    -6400.00
04481              -0.20    -6400.00
04482              -0.40    -4800.00
04483              -0.20    -4000.00
04484              -0.40    -3200.00
04485              -0.20    -3200.00
04486              -0.20    -3200.00
04487              -0.40    -1600.00
04488              -0.40     -800.00
04489              -0.60     -800.00
04490              -0.20        0.00
04491              -0.20      800.00
04492               0.00      800.00
04493               1.80     1600.00
04494               2.20     1600.00
04495              -3.00     2400.00
04496              -0.40     3200.00
04497               1.00     4000.00
04498              -1.80     4800.00
04499               2.80     4800.00
04500              24.40     6400.00
04501              14.60     7200.00
04502             -25.00     8000.00
04503              -6.20     8800.00
04504              25.00     8000.00
04505             -25.00     8000.00
04506               2.00     9600.00
04507              25.00     9600.00
04508             -25.00     9600.00
04509              25.00    11200.00
04510              25.00    12000.00
04511             -25.00    12800.00
04512              25.00    12800.00
04513             -25.00    12800.00
04514              15.60    14400.00
04515              25.00    14400.00
04516             -25.00    15200.00
04517              25.00    16000.00
04518               6.60    16000.00
04519             -25.00    17600.00
04520              25.00    17600.00
04521               0.40    18400.00
04522             -25.00    18400.00
04523              16.20    19200.00
04524              18.80    19200.00
04525             -25.00    19200.00
04526              23.40    21600.00
04527               5.20    21600.00
04528             -19.80    21600.00
04529              23.80    22400.00
04530             -23.00    23200.00
04531               0.80    23200.00
04532               9.20    24000.00
04533             -14.20    24000.00
04534               2.80    24800.00
04535              13.80    24800.00
04536             -18.80    24800.00
04537               0.80    25600.00
04538              11.60    25600.00
04539             -21.40    26400.00
04540               8.20    27200.00
04541               3.40    27200.00
04542             -10.60    28000.00
04543               3.60    28000.00
04544              -0.40    28800.00
04545              -7.00    28000.00
04546               1.00    28800.00
04547               0.20    28800.00
04548              -5.80    29600.00
04549              -0.20    30400.00
04550              -1.80    30400.00
04551              -5.20    30400.00
04552               1.80    30400.00
04553              -2.40    30400.00
04554              -4.40    31200.00
04555               2.20    31200.00
04556              -5.20    32000.00
04557              -2.60    31200.00
04558               0.60    32000.00
04559              -5.20    32800.00
04560              -0.20    32000.00
04561              -0.40    32800.00
04562              -3.80    32800.00
04563              -1.80    32800.00
04564              -2.20    33600.00
04565              -2.80    32800.00
04566              -1.80    33600.00
04567              -1.40    33600.00
04568              -2.80    33600.00
04569              -2.20    32800.00
04570              -1.00    33600.00
04571              -3.80    33600.00
04572              -1.20    33600.00
04573              -2.20    33600.00
04574              -3.40    33600.00
04575               0.20    33600.00
04576              -3.40    33600.00
04577              -2.20    33600.00
04578              -1.20    33600.00
04579              -2.80    33600.00
04580              -2.00    33600.00
04581              -2.60    32800.00
04582              -2.00    33600.00
04583              -2.20    32800.00
04584              -2.00    33600.00
04585              -2.00    32800.00
04586              -2.20    32000.00
04587              -1.20    32000.00
04588              -2.20    32800.00
04589              -1.80    32000.00
04590              -1.80    32000.00
04591              -2.80    31200.00
04592              -1.20    31200.00
04593              -1.80    31200.00
04594              -2.20    31200.00
04595              -1.40    31200.00
04596              -2.00    30400.00
04597              -1.80    30400.00
04598              -1.80    30400.00
04599              -2.20    30400.00
04600              -1.80    28800.00
04601              -2.20    28800.00
04602              -1.80    28800.00
04603              -1.80    28800.00
04604              -2.00    28000.00
04605              -2.00    28000.00
04606              -1.80    27200.00
04607              -1.20    27200.00
04608              -2.00    27200.00
04609              -2.00    27200.00
04610              -1.00    26400.00
04611              -1.40    25600.00
04612              -1.20    25600.00
04613              -1.40    24800.00
04614              -1.80    24800.00
04615              -1.40    24000.00
04616              -1.80    24000.00
04617              -1.40    23200.00
04618              -1.80    22400.00
04619              -2.00    22400.00
04620              -1.20    21600.00
04621              -1.40    21600.00
04622              -1.80    20800.00
04623              -1.80    20800.00
04624              -1.20    20000.00
04625              -0.60    18400.00
04626              -2.00    18400.00
04627              -1.40    17600.00
04628              -0.60    17600.00
04629              -2.00    16800.00
04630              -1.20    16800.00
04631              -1.20    16000.00
04632              -1.60    15200.00
04633              -1.40    14400.00
04634              -1.00    13600.00
04635              -1.20    13600.00
04636              -1.20    12800.00
04637              -1.20    12000.00
04638              -0.60    12000.00
04639              -0.40    12000.00
04640              -1.00    11200.00
04641              -1.40     9600.00
04642              -0.20     9600.00
04643              -1.40     9600.00
04644              -1.20     8800.00
04645               0.20     8000.00
04646              -0.60     7200.00
04647              -1.00     6400.00
04648              -0.20     6400.00
04649              -1.00     5600.00
04650              -0.60     5600.00
04651              -0.20     3200.00
04652              -0.20     4000.00
04653              -0.20     2400.00
04654              -0.60     2400.00
04655              -1.00     1600.00
04656               0.40     1600.00
04657               0.40        0.00
04658               0.40        0.00
04659               1.00        0.00
04660               3.60     -800.00
04661              -0.20    -1600.00
04662              -0.60    -1600.00
04663               2.00    -2400.00
04664               1.80    -3200.00
04665               0.00    -3200.00
04666               3.40    -4000.00
04667              16.40    -4800.00
04668              23.80    -6400.00
04669             -25.00    -7200.00
04670             -24.60    -8000.00
04671              25.00    -8000.00
04672              -4.20    -8800.00
04673             -25.00    -8000.00
04674              25.00    -9600.00
04675              25.00   -10400.00
04676             -25.00   -10400.00
04677              25.00   -11200.00
04678              20.60   -12000.00
04679             -25.00   -12000.00
04680              25.00   -12800.00
04681             -19.80   -13600.00
04682              18.00   -14400.00
04683              -2.20   -14400.00
04684             -25.00   -15200.00
04685              25.00   -16000.00
04686             -21.20   -16000.00
04687             -20.60   -16800.00
04688              25.00   -16800.00
04689              -7.00   -17600.00
04690             -25.00   -17600.00
04691              25.00   -19200.00
04692               4.40   -18400.00
04693             -25.00   -20000.00
04694              25.00   -20000.00
04695              -2.80   -20800.00
04696             -10.00   -21600.00
04697              14.20   -21600.00
04698              -9.00   -22400.00
04699               2.20   -23200.00
04700               6.20   -23200.00
04701              -5.00   -24000.00
04702               4.60   -24000.00
04703               8.40   -24000.00
04704             -11.80   -24800.00
04705               8.20   -25600.00
04706               5.80   -25600.00
04707             -11.00   -25600.00
04708              10.60   -26400.00
04709               2.60   -27200.00
04710              -4.60   -27200.00
04711               5.40   -27200.00
04712               2.20   -28000.00
04713              -2.20   -28800.00
04714               3.60   -28000.00
04715               2.20   -29600.00
04716              -1.00   -29600.00
04717               4.00   -29600.00
04718               1.00   -29600.00
04719               0.60   -30400.00
04720               4.60   -29600.00
04721               0.20   -31200.00
04722               0.40   -30400.00
04723               4.20   -31200.00
04724              -1.20   -30400.00
04725               2.00   -32000.00
04726               3.40   -31200.00
04727               0.00   -31200.00
04728               3.20   -32000.00
04729               1.80   -32000.00
04730               0.40   -32000.00
04731               2.20   -32000.00
04732               2.00   -32000.00
04733               1.60   -32800.00
04734               2.20   -32000.00
04735               1.80   -32000.00
04736               1.00   -32800.00
04737               2.20   -32800.00
04738               1.80   -32800.00
04739               0.40   -32800.00
04740               2.80   -32800.00
04741               1.20   -32800.00
04742               1.60   -33600.00
04743               2.60   -32800.00
04744               0.60   -32800.00
04745               2.00   -32800.00
04746               2.20   -32800.00
04747               0.40   -32000.00
04748               1.40   -32000.00
04749               1.80   -32800.00
04750               1.40   -32000.00
04751               1.40   -32000.00
04752               1.80   -32000.00
04753               1.00   -32000.00
04754               1.00   -32000.00
04755               1.80   -31200.00
04756               1.00   -32000.00
04757               1.40   -31200.00
04758               1.20   -32000.00
04759               1.40   -30400.00
04760               1.80   -30400.00
04761               0.60   -29600.00
04762               1.40   -30400.00
04763               1.80   -29600.00
04764               0.40   -29600.00
04765               1.40   -29600.00
04766               1.80   -28800.00
04767               0.40   -28800.00
04768               0.60   -28800.00
04769               1.80   -28000.00
04770               1.20   -28000.00
04771               0.60   -27200.00
04772               1.80   -27200.00
04773               1.00   -26400.00
04774               0.80   -26400.00
04775               1.20   -25600.00
04776               1.00   -25600.00
04777               1.20   -25600.00
04778               1.20   -24800.00
04779               0.60   -25600.00
04780               1.20   -24000.00
04781               0.40   -24000.00
04782               0.60   -23200.00
04783               1.20   -22400.00
04784               1.00   -22400.00
04785               1.00   -22400.00
04786               1.20   -20800.00
04787               0.80   -20800.00
04788               0.60   -20000.00
04789               0.40   -20000.00
04790               0.40   -18400.00
04791               1.00   -18400.00
04792               0.60   -18400.00
04793               0.40   -17600.00
04794               0.60   -17600.00
04795               0.60   -16800.00
04796               0.20   -16000.00
04797               0.60   -16000.00
04798               1.00   -15200.00
04799               0.20   -14400.00
04800               0.20   -13600.00
04801               0.40   -13600.00
04802               0.00   -13600.00
04803               0.00   -12800.00
04804               0.20   -11200.00
04805               0.60   -11200.00
04806               0.20   -11200.00
04807              -0.20    -9600.00
04808               0.20    -9600.00
04809              -0.40    -9600.00
04810              -0.20    -8000.00
04811               0.20    -8000.00
04812              -0.20    -7200.00
04813              -0.20    -6400.00
04814              -0.40    -6400.00
04815              -0.40    -5600.00
04816              -0.40    -4800.00
04817              -0.60    -4000.00
04818              -0.40    -3200.00
04819              -0.40    -3200.00
04820              -0.60    -2400.00
04821              -0.40    -1600.00
04822              -0.60     -800.00
04823              -0.40        0.00
04824              -0.40        0.00
04825               0.00      800.00
04826               0.40     1600.00
04827               3.40     1600.00
04828              -2.00     2400.00
04829              -1.60     2400.00
04830               0.60     3200.00
04831              -0.40     4000.00
04832              -1.00     4800.00
04833              12.00     4800.00
04834              25.00     7200.00
04835             -25.00     8000.00
04836             -25.00     8000.00
04837              25.00     8800.00
04838              -2.60     8800.00
04839             -25.00     8800.00
04840              25.00    10400.00
04841             -13.40     9600.00
04842             -25.00    11200.00
04843              25.00    12000.00
04844             -25.00    12000.00
04845              14.40    12800.00
04846              21.40    12800.00
04847             -25.00    14400.00
04848              25.00    14400.00
04849             -25.00    15200.00
04850              -6.20    15200.00
04851              25.00    16000.00
04852             -25.00    16800.00
04853              19.60    17600.00
04854              25.00    17600.00
04855             -25.00    18400.00
04856             -10.80    18400.00
04857              25.00    19200.00
04858             -25.00    19200.00
04859             -10.00    20800.00
04860              25.00    20800.00
04861             -25.00    21600.00
04862              14.60    21600.00
04863              -2.60    22400.00
04864             -18.20    22400.00
04865              16.20    24000.00
04866              -7.60    24000.00
04867              -8.40    24000.00
04868              14.80    24800.00
04869              -5.40    25600.00
04870             -16.20    25600.00
04871              18.00    25600.00
04872             -12.40    26400.00
04873              -7.20    26400.00
04874              12.60    27200.00
04875             -10.80    27200.00
04876              -2.00    27200.00
04877               3.60    28000.00
04878              -5.60    28000.00
04879              -3.40    28800.00
04880               2.60    28800.00
04881              -4.60    28800.00
04882              -2.80    29600.00
04883               0.40    30400.00
04884              -5.20    30400.00
04885              -1.00    31200.00
04886               1.40    31200.00
04887              -6.00    31200.00
04888               0.60    31200.00
04889              -1.20    31200.00
04890              -6.00    32800.00
04891               1.40    32000.00
04892              -3.60    32000.00
04893              -3.20    32800.00
04894               1.00    32800.00
04895              -3.40    32800.00
04896              -2.80    32800.00
04897              -1.80    32800.00
04898              -2.80    32800.00
04899              -2.20    33600.00
04900              -1.20    32800.00
04901              -2.20    33600.00
04902              -2.80    33600.00
04903              -0.60    33600.00
04904              -2.80    33600.00
04905              -2.60    33600.00
04906              -0.60    33600.00
04907              -3.80    33600.00
04908              -0.60    33600.00
04909              -1.80    33600.00
04910              -3.80    33600.00
04911              -0.60    33600.00
04912              -2.20    33600.00
04913              -2.20    33600.00
04914              -2.00    33600.00
04915              -2.40    32000.00
04916              -2.00    33600.00
04917              -2.00    32800.00
04918              -1.20    32800.00
04919              -2.60    32800.00
04920              -1.80    32000.00
04921              -1.80    32000.00
04922              -2.20    32800.00
04923              -1.40    32000.00
04924              -2.60    32000.00
04925              -2.40    32000.00
04926              -1.20    31200.00
04927              -2.00    31200.00
04928              -2.00    30400.00
04929              -2.00    31200.00
04930              -2.20    30400.00
04931              -1.40    30400.00
04932              -1.40    29600.00
04933              -2.20    29600.00
04934              -2.00    28800.00
04935              -1.40    28800.00
04936              -2.00    28800.00
04937              -2.00    28800.00
04938              -2.00    28000.00
04939              -2.20    28000.00
04940              -1.40    27200.00
04941              -1.80    27200.00
04942              -2.80    27200.00
04943              -1.40    25600.00
04944              -1.20    25600.00
04945              -1.80    24800.00
04946              -1.20    24800.00
04947              -2.20    24800.00
04948              -1.20    24000.00
04949              -1.60    24000.00
04950              -2.00    23200.00
04951              -1.20    22400.00
04952              -2.00    22400.00
04953              -1.80    22400.00
04954              -1.20    21600.00
04955              -2.00    20800.00
04956              -2.20    19200.00
04957              -1.00    20000.00
04958              -1.20    19200.00
04959              -1.80    18400.00
04960              -1.00    18400.00
04961              -1.20    17600.00
04962              -1.40    17600.00
04963              -1.20    16000.00
04964              -1.80    16000.00
04965              -0.80    16000.00
04966              -1.20    15200.00
04967              -1.80    14400.00
04968              -0.40    13600.00
04969              -1.20    12800.00
04970              -1.40    12800.00
04971              -0.20    12000.00
04972              -1.00    12000.00
04973              -1.20    11200.00
04974              -0.60    10400.00
04975              -1.00     9600.00
04976              -0.40     9600.00
04977              -0.60     8800.00
04978              -0.60     8000.00
04979              -1.00     7200.00
04980              -0.60     7200.00
04981              -0.40     5600.00
04982              -0.80     6400.00
04983              -0.60     5600.00
04984               0.40     4800.00
04985              -0.80     3200.00
04986              -0.60     3200.00
04987               0.40     2400.00
04988              -1.20     2400.00
04989              -0.60     1600.00
04990               0.60        0.00
04991              -0.20        0.00
04992              -0.20     -800.00
04993               3.00     -800.00
04994               2.60    -1600.00
04995              -2.20    -1600.00
04996               1.40    -3200.00
04997               1.20    -3200.00
04998               0.40    -3200.00
04999               1.60    -4000.00
05000               9.00    -4800.00
