Unit:(mV)
                     CH1         CH2
Frequency              ? 300.003 kHz
00001             -20.60    -7200.00
00002             -25.00    -7200.00
00003              16.60    -7200.00
00004              12.60    -8800.00
00005             -25.00    -8800.00
00006              13.80    -9600.00
00007              25.00    -9600.00
00008             -25.00   -10400.00
00009              15.80   -11200.00
00010              25.00   -11200.00
00011             -25.00   -12000.00
00012              25.00   -12800.00
00013              -1.20   -12800.00
00014              -3.60   -13600.00
00015              20.40   -13600.00
00016             -25.00   -14400.00
00017              25.00   -15200.00
00018               8.60   -15200.00
00019             -25.00   -16000.00
00020              25.00   -16800.00
00021              13.00   -16800.00
00022             -25.00   -17600.00
00023              10.20   -17600.00
00024              23.00   -19200.00
00025             -25.00   -19200.00
00026              14.80   -20000.00
00027              15.00   -20800.00
00028             -21.00   -20800.00
00029              11.60   -21600.00
00030              -2.80   -22400.00
00031              -7.80   -22400.00
00032               6.40   -22400.00
00033              -2.00   -23200.00
00034              -3.60   -24000.00
00035               9.80   -24000.00
00036              -8.80   -24800.00
00037              -3.40   -24800.00
00038              10.60   -25600.00
00039             -11.80   -25600.00
00040               2.00   -26400.00
00041               6.20   -26400.00
00042              -7.00   -27200.00
00043              -0.20   -27200.00
00044               3.20   -27200.00
00045              -4.40   -27200.00
00046              -0.40   -28800.00
00047               2.60   -28800.00
00048              -3.80   -28800.00
00049               0.40   -28800.00
00050               0.40   -29600.00
00051              -3.00   -29600.00
00052               1.80   -29600.00
00053              -0.20   -30400.00
00054              -3.00   -29600.00
00055               2.60   -30400.00
00056              -1.60   -31200.00
00057              -3.00   -31200.00
00058               1.40   -32000.00
00059              -1.60   -32000.00
00060              -1.00   -31200.00
00061               0.40   -32000.00
00062              -1.00   -32000.00
00063              -1.80   -32000.00
00064              -0.60   -32000.00
00065              -0.40   -32800.00
00066              -1.20   -32000.00
00067              -0.40   -32800.00
00068              -0.60   -32000.00
00069              -0.60   -32000.00
00070              -0.60   -32800.00
00071              -1.80   -32000.00
00072               0.40   -32000.00
00073              -0.60   -32000.00
00074              -1.40   -32800.00
00075               1.00   -32000.00
00076              -1.20   -32800.00
00077              -1.20   -32000.00
00078               0.40   -32000.00
00079              -1.00   -32800.00
00080              -1.20   -32000.00
00081              -0.40   -32000.00
00082              -0.60   -32800.00
00083              -0.80   -32000.00
00084              -0.60   -31200.00
00085              -1.00   -30400.00
00086              -0.80   -32000.00
00087              -0.20   -31200.00
00088              -0.60   -30400.00
00089              -0.60   -30400.00
00090              -0.40   -30400.00
00091              -1.20   -30400.00
00092              -0.40   -29600.00
00093              -0.60   -29600.00
00094              -1.20   -30400.00
00095               0.20   -29600.00
00096              -0.60   -29600.00
00097              -1.00   -28800.00
00098              -0.40   -28800.00
00099              -0.60   -28800.00
00100              -1.00   -28000.00
00101              -0.60   -27200.00
00102              -0.60   -27200.00
00103              -0.60   -27200.00
00104              -1.20   -27200.00
00105              -0.60   -26400.00
00106              -0.60   -26400.00
00107              -0.60   -25600.00
00108              -1.20   -25600.00
00109              -1.00   -24800.00
00110              -1.00   -24800.00
00111              -1.20   -24000.00
00112              -0.60   -24000.00
00113              -0.60   -23200.00
00114              -0.60   -23200.00
00115              -0.60   -22400.00
00116              -1.00   -22400.00
00117              -1.00   -22400.00
00118              -0.60   -20800.00
00119              -0.60   -20000.00
00120              -0.60   -20000.00
00121              -1.20   -19200.00
00122              -1.00   -20000.00
00123              -1.00   -18400.00
00124              -0.60   -17600.00
00125              -0.60   -17600.00
00126              -0.60   -16800.00
00127              -0.60   -16800.00
00128              -0.80   -16000.00
00129              -0.60   -16000.00
00130              -0.60   -14400.00
00131              -0.60   -14400.00
00132              -0.40   -14400.00
00133              -0.60   -13600.00
00134              -0.60   -12800.00
00135              -0.60   -12000.00
00136              -1.00   -12000.00
00137              -0.60   -11200.00
00138              -1.00   -11200.00
00139              -0.80   -10400.00
00140              -0.60    -9600.00
00141              -0.60    -9600.00
00142              -0.40    -8000.00
00143              -0.20    -8000.00
00144              -0.60    -7200.00
00145              -0.40    -6400.00
00146              -0.60    -5600.00
00147              -0.40    -4800.00
00148              -0.40    -4800.00
00149              -0.60    -4000.00
00150              -0.60    -3200.00
00151              -0.20    -3200.00
00152              -0.20    -2400.00
00153              -0.60    -1600.00
00154              -0.40     -800.00
00155              -0.60     -800.00
00156              -0.40      800.00
00157               0.20        0.00
00158               0.20     1600.00
00159               3.40     1600.00
00160               0.00     2400.00
00161              -1.80     3200.00
00162               1.00     3200.00
00163               1.00     3200.00
00164              -1.00     4800.00
00165               8.20     5600.00
00166              25.00     7200.00
00167             -14.60     6400.00
00168             -25.00     8000.00
00169              16.40     8800.00
00170              12.20     8800.00
00171             -25.00     8800.00
00172              25.00     9600.00
00173              23.60     9600.00
00174             -25.00    10400.00
00175              25.00    11200.00
00176             -25.00    11200.00
00177             -21.40    12800.00
00178              25.00    12800.00
00179             -25.00    12800.00
00180              25.00    14400.00
00181              -8.00    15200.00
00182             -25.00    15200.00
00183              25.00    15200.00
00184             -25.00    16000.00
00185             -13.40    16800.00
00186              25.00    17600.00
00187             -25.00    17600.00
00188             -24.60    18400.00
00189              25.00    19200.00
00190              -5.40    19200.00
00191             -25.00    20000.00
00192              25.00    20800.00
00193             -18.60    20800.00
00194              -1.40    21600.00
00195              16.40    21600.00
00196             -23.80    22400.00
00197              13.00    22400.00
00198               2.80    23200.00
00199             -12.40    24000.00
00200              10.60    24000.00
00201               8.20    24800.00
00202             -20.60    24800.00
00203              14.80    25600.00
00204               1.40    25600.00
00205             -15.60    25600.00
00206              15.40    27200.00
00207              -3.00    27200.00
00208              -5.20    27200.00
00209               6.20    27200.00
00210              -0.20    28000.00
00211              -4.20    28000.00
00212               4.20    28800.00
00213               0.40    28800.00
00214              -3.60    28800.00
00215               3.40    29600.00
00216              -1.80    29600.00
00217              -2.00    30400.00
00218               5.20    30400.00
00219              -2.80    30400.00
00220               0.20    31200.00
00221               4.20    30400.00
00222              -4.00    31200.00
00223               2.00    32000.00
00224               1.40    31200.00
00225              -2.00    32000.00
00226               2.20    32800.00
00227               0.60    32800.00
00228              -1.00    32000.00
00229              -0.20    32800.00
00230              -0.20    32000.00
00231               0.20    32800.00
00232              -0.20    33600.00
00233               1.00    32800.00
00234              -0.60    32800.00
00235               0.60    33600.00
00236               0.60    33600.00
00237              -1.20    33600.00
00238               1.40    33600.00
00239              -0.60    32800.00
00240               0.40    32800.00
00241               1.40    33600.00
00242              -1.40    33600.00
00243               0.40    33600.00
00244               0.40    32800.00
00245               0.00    32800.00
00246               0.20    33600.00
00247              -0.40    32800.00
00248               0.20    32000.00
00249               0.20    32800.00
00250               0.60    32800.00
00251               0.20    32800.00
00252               0.20    32000.00
00253               0.40    32000.00
00254              -0.20    32800.00
00255               0.60    32800.00
00256              -0.40    32000.00
00257              -0.20    31200.00
00258               1.00    31200.00
00259              -0.20    31200.00
00260              -0.20    30400.00
00261               0.40    30400.00
00262              -0.20    30400.00
00263               0.20    28800.00
00264               0.20    29600.00
00265               0.00    28800.00
00266              -0.40    28800.00
00267               0.40    28800.00
00268               0.60    28000.00
00269              -0.20    28000.00
00270               0.20    28000.00
00271              -0.20    27200.00
00272               0.20    27200.00
00273               0.60    27200.00
00274              -0.20    27200.00
00275               0.40    25600.00
00276               0.60    25600.00
00277              -0.20    24800.00
00278               0.20    24800.00
00279              -0.40    24800.00
00280               0.20    24000.00
00281               0.20    24000.00
00282               0.20    22400.00
00283               0.40    22400.00
00284               0.00    22400.00
00285               0.40    21600.00
00286               0.40    21600.00
00287               0.20    20800.00
00288               0.20    20800.00
00289              -0.40    19200.00
00290               0.20    19200.00
00291               0.40    18400.00
00292              -0.20    18400.00
00293              -0.20    17600.00
00294               0.20    16800.00
00295               0.40    16800.00
00296              -0.40    16000.00
00297              -0.20    15200.00
00298               0.00    15200.00
00299              -0.60    14400.00
00300              -0.20    13600.00
00301               0.20    13600.00
00302              -0.40    12800.00
00303               0.20    12800.00
00304               0.40    12000.00
00305              -0.20    11200.00
00306              -0.60    10400.00
00307              -0.40     9600.00
00308              -0.40     9600.00
00309              -0.60     8800.00
00310              -0.20     8000.00
00311              -0.40     8000.00
00312              -0.40     7200.00
00313               0.20     6400.00
00314              -0.20     5600.00
00315              -0.40     4800.00
00316              -0.40     4000.00
00317              -0.20     4800.00
00318              -0.20     3200.00
00319              -0.40     2400.00
00320              -0.60     1600.00
00321              -0.40     1600.00
00322              -0.20      800.00
00323              -0.40        0.00
00324               0.20        0.00
00325               1.40     -800.00
00326               2.80    -1600.00
00327              -1.60    -1600.00
00328               0.20    -2400.00
00329               1.20    -3200.00
00330               0.40    -3200.00
00331              -0.20    -4000.00
00332               6.80    -4800.00
00333              23.40    -5600.00
00334               4.20    -6400.00
00335             -25.00    -8000.00
00336              -1.40    -8000.00
00337              25.00    -8000.00
00338             -25.00    -8000.00
00339             -20.40    -8000.00
00340              25.00    -9600.00
00341             -24.20    -9600.00
00342             -25.00   -10400.00
00343              25.00   -11200.00
00344             -25.00   -11200.00
00345             -10.00   -12800.00
00346              25.00   -12800.00
00347             -24.00   -13600.00
00348              25.00   -14400.00
00349             -25.00   -15200.00
00350               3.80   -15200.00
00351              25.00   -16000.00
00352             -25.00   -16000.00
00353               6.00   -16800.00
00354              25.00   -17600.00
00355             -25.00   -17600.00
00356             -12.20   -17600.00
00357              25.00   -18400.00
00358             -23.00   -20000.00
00359              -8.60   -20000.00
00360              25.00   -20000.00
00361             -18.60   -20800.00
00362               0.40   -20800.00
00363               7.20   -21600.00
00364             -11.80   -22400.00
00365               4.20   -22400.00
00366               2.60   -23200.00
00367              -6.60   -23200.00
00368               7.40   -24000.00
00369              -0.40   -24000.00
00370             -10.80   -24800.00
00371              11.40   -24800.00
00372              -5.00   -25600.00
00373              -6.20   -26400.00
00374               9.40   -25600.00
00375              -5.20   -26400.00
00376              -3.80   -27200.00
00377               4.40   -27200.00
00378              -2.20   -27200.00
00379              -3.00   -28000.00
00380               3.80   -28000.00
00381              -2.40   -28800.00
00382              -3.00   -28800.00
00383               2.60   -28800.00
00384              -3.00   -29600.00
00385              -0.60   -29600.00
00386               2.00   -29600.00
00387              -3.40   -30400.00
00388               0.40   -29600.00
00389               0.40   -30400.00
00390              -3.60   -30400.00
00391               1.00   -30400.00
00392              -0.40   -31200.00
00393              -1.20   -32000.00
00394               0.60   -32000.00
00395              -1.20   -31200.00
00396              -1.20   -32000.00
00397              -0.20   -32000.00
00398              -1.00   -32000.00
00399              -1.00   -32000.00
00400              -0.20   -32000.00
00401              -0.40   -32000.00
00402              -1.00   -32000.00
00403              -0.20   -32000.00
00404              -1.20   -32800.00
00405              -1.00   -32000.00
00406               0.40   -32000.00
00407              -1.40   -32800.00
00408               0.40   -32000.00
00409              -0.40   -32000.00
00410              -1.20   -32800.00
00411               0.20   -32800.00
00412              -0.80   -32000.00
00413              -0.80   -32000.00
00414              -0.40   -32000.00
00415              -0.60   -32000.00
00416              -1.20   -32000.00
00417              -0.40   -32000.00
00418              -0.60   -32000.00
00419              -1.40   -32000.00
00420              -0.20   -31200.00
00421               0.20   -31200.00
00422              -1.20   -30400.00
00423              -0.20   -30400.00
00424              -0.60   -30400.00
00425              -0.60   -30400.00
00426               0.20   -29600.00
00427              -1.20   -29600.00
00428              -1.00   -29600.00
00429              -0.60   -29600.00
00430              -0.80   -29600.00
00431              -1.20   -28800.00
00432              -0.60   -28800.00
00433              -1.00   -28800.00
00434              -1.00   -28000.00
00435              -0.40   -27200.00
00436              -0.60   -27200.00
00437              -1.20   -26400.00
00438              -0.20   -26400.00
00439              -0.60   -26400.00
00440              -0.80   -25600.00
00441              -0.60   -25600.00
00442              -1.00   -24800.00
00443              -0.60   -24000.00
00444              -0.60   -24000.00
00445              -1.00   -24000.00
00446              -0.60   -24000.00
00447              -0.60   -23200.00
00448              -0.60   -23200.00
00449              -1.00   -22400.00
00450              -0.60   -21600.00
00451              -1.00   -21600.00
00452              -0.60   -20800.00
00453              -0.40   -20800.00
00454              -0.80   -20000.00
00455              -1.00   -19200.00
00456              -0.60   -18400.00
00457              -1.00   -17600.00
00458              -0.40   -16800.00
00459              -0.40   -17600.00
00460              -1.00   -16800.00
00461              -0.60   -16000.00
00462              -0.80   -15200.00
00463              -0.60   -16000.00
00464              -0.60   -14400.00
00465              -0.80   -14400.00
00466              -0.40   -13600.00
00467              -0.60   -13600.00
00468              -0.60   -12800.00
00469              -0.60   -12000.00
00470              -0.60   -11200.00
00471              -0.40   -10400.00
00472              -0.60   -10400.00
00473              -0.40    -9600.00
00474              -0.60    -9600.00
00475              -0.60    -8000.00
00476              -0.40    -8000.00
00477              -0.60    -7200.00
00478              -0.40    -7200.00
00479              -0.40    -6400.00
00480              -0.60    -5600.00
00481              -0.40    -5600.00
00482              -0.60    -4000.00
00483              -0.60    -3200.00
00484              -0.40    -3200.00
00485              -0.20    -2400.00
00486              -0.60    -1600.00
00487              -0.40     -800.00
00488              -0.40        0.00
00489              -0.60        0.00
00490              -0.20      800.00
00491               0.20     1600.00
00492               2.00     2400.00
00493               2.00     2400.00
00494              -2.60     3200.00
00495              -0.20     3200.00
00496               1.00     4000.00
00497              -1.20     4800.00
00498               3.60     4800.00
00499              24.40     6400.00
00500              14.60     7200.00
00501             -25.00     8000.00
00502              -4.60     8000.00
00503              25.00     8800.00
00504             -25.00     8000.00
00505               7.80     9600.00
00506              25.00     9600.00
00507             -25.00     9600.00
00508              25.00    11200.00
00509              25.00    11200.00
00510             -25.00    12000.00
00511              25.00    12800.00
00512             -25.00    12800.00
00513              16.20    14400.00
00514              25.00    14400.00
00515             -25.00    14400.00
00516              25.00    16000.00
00517              10.00    16000.00
00518             -25.00    16800.00
00519              25.00    16800.00
00520               3.00    18400.00
00521             -25.00    18400.00
00522              18.80    18400.00
00523              21.40    19200.00
00524             -25.00    19200.00
00525              25.00    20800.00
00526               9.40    20800.00
00527             -22.20    21600.00
00528              25.00    21600.00
00529             -19.40    22400.00
00530              -0.40    22400.00
00531              12.00    24000.00
00532             -11.60    24000.00
00533               1.60    24000.00
00534              17.00    24800.00
00535             -16.60    24800.00
00536               0.40    25600.00
00537              15.40    25600.00
00538             -19.80    26400.00
00539               8.80    26400.00
00540               6.20    27200.00
00541              -9.40    27200.00
00542               4.40    27200.00
00543               3.40    28000.00
00544              -5.80    28800.00
00545               2.00    28000.00
00546               4.20    28800.00
00547              -4.60    28800.00
00548               2.00    28800.00
00549               1.80    30400.00
00550              -4.00    30400.00
00551               4.20    30400.00
00552               0.60    30400.00
00553              -3.00    31200.00
00554               4.60    30400.00
00555              -2.00    31200.00
00556              -1.20    31200.00
00557               3.00    31200.00
00558              -2.40    32000.00
00559               1.40    32800.00
00560               1.80    32000.00
00561              -1.40    32800.00
00562               0.00    32800.00
00563               0.20    32800.00
00564              -0.20    32800.00
00565               0.20    32800.00
00566               1.00    33600.00
00567              -0.60    32800.00
00568               0.20    32800.00
00569               1.40    32800.00
00570              -1.80    32800.00
00571               1.20    32800.00
00572               0.20    33600.00
00573              -1.20    33600.00
00574               2.60    32800.00
00575              -1.20    32800.00
00576              -0.20    33600.00
00577               1.20    33600.00
00578              -0.40    32800.00
00579               0.20    32800.00
00580               0.20    32800.00
00581               0.20    32800.00
00582              -0.40    32800.00
00583               0.60    32000.00
00584               0.40    32800.00
00585              -0.60    32000.00
00586               1.00    32800.00
00587               0.40    32000.00
00588               0.20    32800.00
00589               0.20    32000.00
00590              -0.40    31200.00
00591               0.80    31200.00
00592               0.40    31200.00
00593              -0.60    31200.00
00594               1.00    31200.00
00595               0.20    30400.00
00596               0.00    30400.00
00597               1.00    29600.00
00598               0.00    30400.00
00599              -0.40    28800.00
00600               0.20    28800.00
00601               0.40    28800.00
00602               0.20    28000.00
00603              -0.20    28000.00
00604               0.40    28000.00
00605               0.20    27200.00
00606               1.00    27200.00
00607              -0.60    26400.00
00608               0.20    26400.00
00609               1.20    25600.00
00610              -0.40    25600.00
00611               0.20    24800.00
00612               1.40    24800.00
00613              -0.40    24000.00
00614              -1.00    24000.00
00615               1.20    24000.00
00616               0.80    23200.00
00617              -1.80    22400.00
00618               0.40    21600.00
00619               2.00    21600.00
00620              -1.80    20800.00
00621              -0.20    20800.00
00622               2.20    20800.00
00623              -1.20    19200.00
00624              -1.20    18400.00
00625               1.80    18400.00
00626              -0.40    17600.00
00627              -1.20    17600.00
00628               1.40    16800.00
00629               0.60    16000.00
00630              -1.80    16000.00
00631              -0.20    15200.00
00632               0.20    14400.00
00633              -0.60    14400.00
00634              -0.40    13600.00
00635               0.40    12800.00
00636              -0.40    12000.00
00637               0.20    12000.00
00638              -0.20    11200.00
00639               0.20    10400.00
00640              -0.60     9600.00
00641               0.20     9600.00
00642              -0.40     9600.00
00643              -0.80     8000.00
00644              -0.60     8000.00
00645               0.00     7200.00
00646              -0.20     6400.00
00647               0.40     7200.00
00648              -0.20     5600.00
00649              -0.20     4800.00
00650              -0.60     3200.00
00651               0.20     4000.00
00652               0.00     2400.00
00653              -0.60     2400.00
00654               0.00     1600.00
00655              -0.20      800.00
00656              -0.60      800.00
00657               0.20     -800.00
00658               1.00     -800.00
00659               3.40     -800.00
00660              -0.60    -1600.00
00661              -0.80    -1600.00
00662               1.40    -2400.00
00663               0.60    -3200.00
00664              -0.60    -3200.00
00665               4.20    -4000.00
00666              17.00    -5600.00
00667              21.40    -6400.00
00668             -25.00    -7200.00
00669             -23.00    -7200.00
00670              25.00    -8000.00
00671              -7.40    -8800.00
00672             -25.00    -8000.00
00673              25.00    -9600.00
00674              25.00   -10400.00
00675             -25.00   -10400.00
00676              25.00   -11200.00
00677              11.40   -11200.00
00678             -25.00   -11200.00
00679              25.00   -12800.00
00680             -24.00   -12800.00
00681              17.80   -14400.00
00682              -4.00   -13600.00
00683             -25.00   -14400.00
00684              25.00   -16000.00
00685             -22.60   -16000.00
00686             -20.40   -16800.00
00687              25.00   -16800.00
00688             -10.00   -17600.00
00689             -25.00   -17600.00
00690              25.00   -18400.00
00691               1.20   -18400.00
00692             -25.00   -19200.00
00693              25.00   -20000.00
00694              -4.20   -20000.00
00695             -12.80   -20800.00
00696              13.80   -21600.00
00697             -10.20   -22400.00
00698              -1.40   -22400.00
00699               6.00   -23200.00
00700              -5.80   -23200.00
00701               1.80   -24000.00
00702               7.20   -24000.00
00703             -12.60   -24800.00
00704               5.80   -25600.00
00705               3.80   -25600.00
00706             -12.20   -25600.00
00707               7.60   -26400.00
00708              -0.20   -26400.00
00709              -6.00   -27200.00
00710               3.00   -27200.00
00711               0.40   -27200.00
00712              -4.20   -27200.00
00713               2.00   -28800.00
00714               0.20   -28800.00
00715              -4.20   -28800.00
00716               2.00   -28800.00
00717              -1.00   -28800.00
00718              -2.20   -29600.00
00719               2.60   -29600.00
00720              -1.80   -30400.00
00721              -2.00   -29600.00
00722               1.80   -30400.00
00723              -2.80   -30400.00
00724              -1.20   -31200.00
00725               0.60   -31200.00
00726              -2.00   -31200.00
00727               0.60   -32000.00
00728              -0.40   -31200.00
00729              -1.40   -32000.00
00730              -0.40   -32000.00
00731              -0.40   -32000.00
00732              -0.80   -32000.00
00733              -0.60   -32000.00
00734              -0.20   -32000.00
00735              -1.40   -32000.00
00736              -0.20   -32000.00
00737              -1.00   -32800.00
00738              -1.40   -32000.00
00739               0.40   -32800.00
00740              -1.40   -32000.00
00741              -1.00   -32000.00
00742               0.40   -32800.00
00743              -1.80   -32000.00
00744              -0.60   -32800.00
00745               0.20   -32000.00
00746              -0.60   -32800.00
00747              -0.80   -32000.00
00748              -0.60   -32000.00
00749              -0.60   -32000.00
00750              -1.00   -32000.00
00751              -0.20   -32000.00
00752              -1.00   -32000.00
00753              -1.20   -30400.00
00754              -0.20   -31200.00
00755              -0.60   -31200.00
00756              -1.40   -30400.00
00757              -0.40   -30400.00
00758              -0.60   -29600.00
00759              -0.40   -29600.00
00760              -1.00   -29600.00
00761              -1.40   -29600.00
00762              -0.40   -28800.00
00763              -0.60   -28800.00
00764              -1.20   -28800.00
00765              -0.20   -28800.00
00766              -1.20   -28000.00
00767              -1.80   -28800.00
00768               0.40   -27200.00
00769              -0.60   -27200.00
00770              -2.00   -26400.00
00771               0.40   -26400.00
00772              -0.40   -26400.00
00773              -2.20   -26400.00
00774              -0.20   -25600.00
00775              -0.40   -24800.00
00776              -1.40   -25600.00
00777               0.00   -24000.00
00778              -0.40   -24000.00
00779              -1.20   -24000.00
00780              -0.40   -23200.00
00781              -0.60   -23200.00
00782              -1.40   -22400.00
00783              -0.40   -22400.00
00784              -0.20   -21600.00
00785              -1.20   -20800.00
00786              -0.60   -20800.00
00787              -0.60   -20000.00
00788              -1.20   -20000.00
00789              -0.80   -18400.00
00790              -0.40   -18400.00
00791              -0.40   -17600.00
00792              -0.80   -17600.00
00793              -0.60   -16800.00
00794              -0.20   -16800.00
00795              -0.60   -16000.00
00796              -0.40   -15200.00
00797              -0.20   -14400.00
00798              -1.20   -14400.00
00799              -0.60   -14400.00
00800              -0.40   -13600.00
00801              -0.60   -12800.00
00802              -0.60   -12000.00
00803              -0.40   -11200.00
00804              -0.40   -11200.00
00805              -0.60   -10400.00
00806              -0.60   -10400.00
00807              -0.60    -9600.00
00808              -0.60    -8800.00
00809               0.20    -8000.00
00810              -0.60    -7200.00
00811              -0.80    -7200.00
00812               0.20    -7200.00
00813              -0.60    -6400.00
00814              -0.60    -5600.00
00815              -0.60    -4000.00
00816              -0.60    -3200.00
00817              -0.60    -3200.00
00818              -0.20    -3200.00
00819              -0.60    -2400.00
00820              -0.60    -1600.00
00821              -0.40    -1600.00
00822              -0.20        0.00
00823              -0.60        0.00
00824               0.40      800.00
00825               0.80     1600.00
00826               3.40     1600.00
00827              -2.20     2400.00
00828              -1.00     3200.00
00829               1.20     4800.00
00830               0.00     3200.00
00831              -0.20     4800.00
00832              14.40     5600.00
00833              25.00     7200.00
00834             -25.00     8000.00
00835             -25.00     8000.00
00836              25.00     8000.00
00837             -10.20     8800.00
00838             -25.00     8800.00
00839              25.00    10400.00
00840             -25.00     9600.00
00841             -20.60    11200.00
00842              25.00    12000.00
00843             -25.00    11200.00
00844              25.00    12800.00
00845               9.40    12800.00
00846             -25.00    14400.00
00847              25.00    14400.00
00848             -25.00    15200.00
00849              10.60    15200.00
00850              25.00    16000.00
00851             -25.00    16000.00
00852              25.00    16800.00
00853              25.00    17600.00
00854             -25.00    17600.00
00855              -4.60    18400.00
00856              25.00    19200.00
00857             -25.00    20000.00
00858              -2.20    20800.00
00859              25.00    20800.00
00860             -25.00    21600.00
00861              18.20    22400.00
00862              -2.80    22400.00
00863             -15.60    22400.00
00864              17.00    23200.00
00865              -5.80    24000.00
00866              -6.80    24000.00
00867              17.00    24800.00
00868              -5.00    24800.00
00869             -14.00    24800.00
00870              20.60    25600.00
00871             -12.20    25600.00
00872              -3.60    26400.00
00873              14.00    27200.00
00874              -8.60    27200.00
00875              -0.60    27200.00
00876               5.80    28000.00
00877              -3.00    28800.00
00878              -1.80    28000.00
00879               5.40    28800.00
00880              -3.00    28800.00
00881              -1.20    28800.00
00882               3.40    29600.00
00883              -3.80    30400.00
00884               1.20    30400.00
00885               3.60    30400.00
00886              -4.20    31200.00
00887               3.00    31200.00
00888               1.00    31200.00
00889              -3.80    31200.00
00890               3.20    31200.00
00891              -1.40    32000.00
00892              -0.60    31200.00
00893               2.40    32800.00
00894              -0.60    32800.00
00895              -0.80    32000.00
00896              -0.20    32000.00
00897              -0.20    32800.00
00898              -0.20    33600.00
00899               1.00    32800.00
00900               0.20    32800.00
00901              -1.00    32800.00
00902               1.80    33600.00
00903              -1.00    33600.00
00904              -0.20    32800.00
00905               1.60    33600.00
00906              -2.00    32800.00
00907               1.80    32800.00
00908               0.00    33600.00
00909              -1.20    32800.00
00910               1.20    33600.00
00911              -0.40    32800.00
00912               0.40    33600.00
00913               0.40    32800.00
00914              -0.20    32800.00
00915               0.40    32800.00
00916               0.60    32800.00
00917               1.80    32800.00
00918              -4.20    32800.00
00919               2.00    32000.00
00920               2.40    32000.00
00921              -7.60    32800.00
00922               5.20    31200.00
00923              -0.60    32000.00
00924               4.20    32000.00
00925               0.40    31200.00
00926              -2.00    31200.00
00927               5.40    30400.00
00928              -6.60    30400.00
00929               0.20    30400.00
00930              -0.40    30400.00
00931              -0.40    29600.00
00932               2.60    28800.00
00933              -0.40    28800.00
00934               3.60    28800.00
00935              -2.60    28000.00
00936               3.20    28000.00
00937               0.40    27200.00
00938              -6.00    27200.00
00939               2.20    27200.00
00940              -0.20    27200.00
00941              -1.20    25600.00
00942               0.80    25600.00
00943               2.80    25600.00
00944               1.60    25600.00
00945               0.80    24800.00
00946              -0.60    24800.00
00947              -2.00    24000.00
00948               0.40    24000.00
00949              -2.80    22400.00
00950              -0.60    22400.00
00951               1.60    22400.00
00952               0.60    21600.00
00953               1.20    21600.00
00954               1.40    20800.00
00955              -1.00    20000.00
00956              -1.40    19200.00
00957               0.60    18400.00
00958              -1.60    19200.00
00959              -0.60    17600.00
00960               0.40    17600.00
00961               0.20    16800.00
00962               2.00    16000.00
00963              -0.20    16000.00
00964              -0.80    16000.00
00965               0.40    15200.00
00966              -1.00    14400.00
00967              -1.40    14400.00
00968              -0.20    13600.00
00969              -0.60    12800.00
00970               0.40    12000.00
00971               1.00    12000.00
00972               0.20    11200.00
00973              -0.40    10400.00
00974               0.40     9600.00
00975              -1.20     9600.00
00976              -1.20     8800.00
00977              -0.40     8000.00
00978              -0.20     8000.00
00979              -0.40     7200.00
00980               1.00     6400.00
00981              -0.40     5600.00
00982               0.20     4800.00
00983              -0.20     4800.00
00984              -0.40     4000.00
00985              -0.40     3200.00
00986              -0.40     2400.00
00987              -1.00     2400.00
00988              -0.20     1600.00
00989               0.20        0.00
00990               0.20        0.00
00991               1.00        0.00
00992               3.60    -1600.00
00993               1.20    -1600.00
00994              -2.00    -2400.00
00995               1.20    -2400.00
00996               0.80    -3200.00
00997              -0.40    -3200.00
00998               1.20    -4000.00
00999              10.80    -4800.00
01000              25.00    -6400.00
01001             -19.60    -7200.00
01002             -25.00    -8000.00
01003              17.00    -8000.00
01004              13.40    -8000.00
01005             -25.00    -8000.00
01006              12.20    -8000.00
01007              25.00    -9600.00
01008             -25.00    -9600.00
01009              14.00   -11200.00
01010              25.00   -11200.00
01011             -25.00   -12000.00
01012              24.40   -12800.00
01013              -0.40   -12800.00
01014              -5.20   -13600.00
01015              21.20   -14400.00
01016             -25.00   -14400.00
01017              25.00   -15200.00
01018              10.60   -16000.00
01019             -25.00   -16000.00
01020              25.00   -16800.00
01021              14.00   -17600.00
01022             -25.00   -17600.00
01023               9.00   -18400.00
01024              23.40   -19200.00
01025             -25.00   -18400.00
01026              13.60   -20000.00
01027              15.60   -20800.00
01028             -21.40   -21600.00
01029              11.60   -21600.00
01030              -3.00   -22400.00
01031              -8.60   -22400.00
01032               6.20   -22400.00
01033              -2.20   -23200.00
01034              -4.20   -23200.00
01035              10.00   -24000.00
01036              -8.40   -24000.00
01037              -3.60   -25600.00
01038              10.80   -25600.00
01039             -11.40   -25600.00
01040               2.00   -25600.00
01041               6.20   -26400.00
01042              -7.00   -26400.00
01043              -0.40   -27200.00
01044               2.80   -27200.00
01045              -4.20   -27200.00
01046               0.20   -28000.00
01047               2.60   -28800.00
01048              -4.00   -28800.00
01049               0.20   -28800.00
01050               1.20   -28800.00
01051              -3.60   -29600.00
01052               1.20   -29600.00
01053               1.00   -29600.00
01054              -3.00   -30400.00
01055               1.80   -30400.00
01056              -1.00   -30400.00
01057              -2.60   -30400.00
01058               1.20   -30400.00
01059              -1.40   -31200.00
01060              -0.60   -31200.00
01061               0.20   -32000.00
01062              -1.40   -32000.00
01063              -0.60   -32000.00
01064              -0.60   -32000.00
01065              -1.00   -32000.00
01066              -0.60   -32000.00
01067              -0.20   -32000.00
01068              -1.00   -32000.00
01069              -0.60   -32000.00
01070              -0.20   -32800.00
01071              -1.80   -32000.00
01072               0.20   -32000.00
01073              -0.40   -32000.00
01074              -1.40   -32000.00
01075               0.40   -32000.00
01076              -1.20   -32000.00
01077              -1.00   -32000.00
01078               0.20   -32000.00
01079              -1.20   -32800.00
01080              -1.00   -32000.00
01081              -1.20   -32000.00
01082              -0.80   -32000.00
01083              -0.60   -32000.00
01084              -1.00   -31200.00
01085              -1.00   -31200.00
01086              -0.60   -32000.00
01087              -0.40   -31200.00
01088              -1.20   -30400.00
01089              -0.60   -30400.00
01090              -0.60   -30400.00
01091              -1.20   -29600.00
01092              -0.60   -29600.00
01093              -0.80   -29600.00
01094              -1.20   -29600.00
01095              -0.20   -29600.00
01096              -0.80   -29600.00
01097              -1.00   -28800.00
01098              -0.40   -28800.00
01099              -1.00   -28000.00
01100              -1.00   -28800.00
01101              -0.40   -27200.00
01102              -0.60   -27200.00
01103              -0.80   -27200.00
01104              -1.00   -26400.00
01105              -0.60   -26400.00
01106              -0.60   -25600.00
01107              -1.00   -26400.00
01108              -1.20   -25600.00
01109              -1.00   -25600.00
01110              -0.40   -24800.00
01111              -1.00   -24000.00
01112              -0.60   -23200.00
01113              -0.60   -23200.00
01114              -0.60   -22400.00
01115              -0.40   -22400.00
01116              -0.60   -22400.00
01117              -0.60   -22400.00
01118              -0.60   -20800.00
01119              -0.60   -20800.00
01120              -0.40   -20000.00
01121              -1.00   -20000.00
01122              -0.60   -18400.00
01123              -0.60   -18400.00
01124              -0.60   -18400.00
01125              -0.60   -17600.00
01126              -0.60   -17600.00
01127              -0.60   -16800.00
01128              -0.40   -16000.00
01129              -0.40   -16000.00
01130              -0.40   -15200.00
01131              -0.60   -14400.00
01132              -0.60   -14400.00
01133              -0.40   -13600.00
01134              -0.60   -12800.00
01135              -0.60   -12000.00
01136              -1.00   -11200.00
01137              -0.40   -11200.00
01138              -0.40   -10400.00
01139              -1.00    -9600.00
01140              -0.40    -9600.00
01141              -0.60    -9600.00
01142              -0.60    -8800.00
01143              -0.40    -8000.00
01144              -0.60    -7200.00
01145              -0.20    -7200.00
01146              -0.60    -5600.00
01147              -0.60    -5600.00
01148              -0.60    -4800.00
01149              -1.00    -4000.00
01150              -0.60    -3200.00
01151              -0.40    -3200.00
01152              -0.80    -2400.00
01153              -0.60    -1600.00
01154              -0.60     -800.00
01155              -0.60     -800.00
01156              -0.40        0.00
01157               0.20      800.00
01158               0.00      800.00
01159               3.00     1600.00
01160               0.20     2400.00
01161              -2.20     2400.00
01162               0.60     3200.00
01163               0.80     3200.00
01164              -1.80     4800.00
01165               8.20     5600.00
01166              25.00     7200.00
01167             -14.00     7200.00
01168             -25.00     8000.00
01169              15.80     8000.00
01170              13.00     8800.00
01171             -25.00     8000.00
01172              25.00     9600.00
01173              25.00     9600.00
01174             -25.00    10400.00
01175              25.00    12000.00
01176             -25.00    11200.00
01177             -23.20    12800.00
01178              25.00    12800.00
01179             -25.00    12800.00
01180              25.00    14400.00
01181              -5.40    14400.00
01182             -25.00    16000.00
01183              25.00    16000.00
01184             -25.00    16000.00
01185             -15.00    16800.00
01186              25.00    16800.00
01187             -23.80    17600.00
01188             -25.00    18400.00
01189              25.00    19200.00
01190              -4.00    19200.00
01191             -25.00    20000.00
01192              25.00    20800.00
01193             -17.80    21600.00
01194              -2.00    21600.00
01195              17.20    21600.00
01196             -23.60    22400.00
01197              12.40    22400.00
01198               2.80    24000.00
01199             -11.60    24000.00
01200              10.00    24000.00
01201               8.20    24800.00
01202             -19.80    24800.00
01203              14.40    25600.00
01204               1.80    25600.00
01205             -15.00    25600.00
01206              15.00    26400.00
01207              -3.00    27200.00
01208              -5.00    27200.00
01209               6.20    27200.00
01210              -0.60    28000.00
01211              -4.20    28000.00
01212               4.40    28000.00
01213              -0.20    28800.00
01214              -3.60    28800.00
01215               3.40    29600.00
01216              -1.40    30400.00
01217              -1.60    30400.00
01218               4.60    30400.00
01219              -2.80    31200.00
01220              -0.20    31200.00
01221               3.40    31200.00
01222              -4.20    31200.00
01223               2.00    31200.00
01224               1.00    32000.00
01225              -2.20    32800.00
01226               2.60    32800.00
01227               0.20    32000.00
01228              -1.20    32800.00
01229               0.20    32000.00
01230              -0.40    32800.00
01231              -0.20    33600.00
01232               0.40    32800.00
01233               0.60    32800.00
01234              -1.20    32800.00
01235               1.00    33600.00
01236               0.40    32800.00
01237              -1.20    32800.00
01238               1.80    33600.00
01239              -1.00    33600.00
01240               0.40    32800.00
01241               1.80    33600.00
01242              -1.60    32800.00
01243               1.00    32800.00
01244               0.40    33600.00
01245              -0.40    33600.00
01246               0.40    32800.00
01247              -0.20    33600.00
01248               0.20    33600.00
01249               0.20    32000.00
01250               1.00    32800.00
01251               0.20    32800.00
01252               0.00    32000.00
01253               0.60    32000.00
01254              -0.20    32800.00
01255               0.40    31200.00
01256              -0.20    31200.00
01257              -0.40    31200.00
01258               1.00    31200.00
01259              -0.20    30400.00
01260               0.20    30400.00
01261               0.40    30400.00
01262              -0.20    30400.00
01263               0.40    30400.00
01264               0.40    28800.00
01265               0.20    28800.00
01266               0.20    28800.00
01267               0.40    28800.00
01268               0.40    28800.00
01269              -0.40    28000.00
01270               0.40    28000.00
01271               0.20    27200.00
01272               0.20    27200.00
01273               0.20    26400.00
01274              -0.60    27200.00
01275               0.20    25600.00
01276               0.40    25600.00
01277              -0.40    25600.00
01278               0.20    24800.00
01279              -0.20    24800.00
01280              -0.40    24000.00
01281              -0.20    24000.00
01282               0.20    23200.00
01283               0.20    23200.00
01284              -0.20    22400.00
01285               0.20    21600.00
01286               0.20    21600.00
01287              -0.40    20800.00
01288              -0.40    20000.00
01289              -0.20    19200.00
01290               0.40    18400.00
01291               0.20    18400.00
01292              -0.40    17600.00
01293              -0.20    17600.00
01294              -0.40    17600.00
01295              -0.20    16800.00
01296               0.20    16000.00
01297               0.00    15200.00
01298              -0.20    15200.00
01299              -0.40    14400.00
01300               0.20    14400.00
01301               0.20    12800.00
01302              -0.60    12800.00
01303               0.40    12000.00
01304               0.20    12000.00
01305              -0.20    11200.00
01306              -0.60    10400.00
01307              -0.40     9600.00
01308              -0.60     9600.00
01309              -0.40     8800.00
01310              -0.20     8800.00
01311              -0.20     8000.00
01312              -0.20     7200.00
01313               0.00     6400.00
01314               0.20     6400.00
01315               0.20     5600.00
01316               0.00     4800.00
01317               0.20     3200.00
01318               0.00     3200.00
01319              -0.40     2400.00
01320              -0.60     2400.00
01321               0.00     1600.00
01322              -0.60      800.00
01323               0.20        0.00
01324               0.40        0.00
01325               1.40     -800.00
01326               3.00    -1600.00
01327              -1.20     -800.00
01328              -0.20    -2400.00
01329               1.60    -3200.00
01330               0.40    -3200.00
01331               0.00    -4000.00
01332               6.80    -4000.00
01333              23.40    -5600.00
01334               4.80    -7200.00
01335             -25.00    -8000.00
01336              -2.20    -8000.00
01337              25.00    -8000.00
01338             -25.00    -8000.00
01339             -21.40    -8800.00
01340              25.00    -9600.00
01341             -22.00    -9600.00
01342             -25.00   -11200.00
01343              25.00   -11200.00
01344             -25.00   -11200.00
01345             -11.80   -12800.00
01346              25.00   -12800.00
01347             -24.60   -13600.00
01348              25.00   -14400.00
01349             -25.00   -14400.00
01350               2.20   -14400.00
01351              25.00   -16000.00
01352             -25.00   -16000.00
01353               5.00   -16800.00
01354              25.00   -16800.00
01355             -25.00   -17600.00
01356             -13.00   -17600.00
01357              25.00   -18400.00
01358             -22.60   -19200.00
01359              -9.40   -20000.00
01360              25.00   -20000.00
01361             -18.20   -20800.00
01362               0.20   -21600.00
01363               7.60   -22400.00
01364             -11.80   -22400.00
01365               3.60   -22400.00
01366               2.80   -23200.00
01367              -6.20   -23200.00
01368               7.00   -24000.00
01369              -0.20   -24000.00
01370             -10.60   -24000.00
01371              10.80   -24000.00
01372              -4.60   -25600.00
01373              -6.20   -26400.00
01374               9.40   -26400.00
01375              -5.00   -27200.00
01376              -3.60   -26400.00
01377               4.40   -27200.00
01378              -2.00   -27200.00
01379              -2.60   -28000.00
01380               3.40   -28000.00
01381              -2.20   -28800.00
01382              -2.60   -28800.00
01383               2.60   -28800.00
01384              -2.60   -28800.00
01385              -1.00   -29600.00
01386               2.60   -29600.00
01387              -2.80   -29600.00
01388              -0.20   -30400.00
01389               0.60   -30400.00
01390              -3.20   -30400.00
01391               0.40   -30400.00
01392               0.20   -30400.00
01393              -1.20   -31200.00
01394               0.60   -32000.00
01395              -1.00   -32000.00
01396              -1.20   -32000.00
01397              -0.60   -32000.00
01398              -0.60   -32000.00
01399              -0.60   -32000.00
01400              -0.60   -32000.00
01401              -0.60   -32000.00
01402              -1.20   -32000.00
01403               0.20   -32000.00
01404              -1.80   -32000.00
01405              -0.80   -32000.00
01406               0.40   -32800.00
01407              -1.40   -32000.00
01408              -0.20   -32000.00
01409              -0.40   -32000.00
01410              -1.40   -32800.00
01411              -0.20   -32000.00
01412              -0.60   -32800.00
01413              -1.20   -32800.00
01414              -0.80   -32800.00
01415              -1.00   -32000.00
01416              -1.20   -32000.00
01417              -1.00   -32000.00
01418              -1.00   -31200.00
01419              -0.60   -31200.00
01420              -0.40   -31200.00
01421              -1.00   -30400.00
01422              -1.00   -30400.00
01423              -0.40   -31200.00
01424              -1.00   -30400.00
01425              -0.60   -30400.00
01426               0.20   -30400.00
01427              -1.40   -29600.00
01428              -0.60   -29600.00
01429              -1.00   -28800.00
01430              -1.60   -28800.00
01431              -0.60   -28800.00
01432              -0.40   -28000.00
01433              -1.20   -28800.00
01434              -0.60   -28000.00
01435              -1.00   -27200.00
01436              -0.60   -27200.00
01437              -1.00   -26400.00
01438              -0.20   -27200.00
01439              -0.60   -25600.00
01440              -0.60   -25600.00
01441              -1.00   -25600.00
01442              -0.60   -25600.00
01443              -0.40   -24800.00
01444              -1.00   -24000.00
01445              -0.20   -24000.00
01446              -0.60   -23200.00
01447              -1.20   -23200.00
01448              -0.40   -23200.00
01449              -0.60   -22400.00
01450              -0.60   -21600.00
01451              -0.60   -20800.00
01452              -0.60   -21600.00
01453              -0.20   -20000.00
01454              -1.00   -20000.00
01455              -1.00   -18400.00
01456              -0.60   -18400.00
01457              -0.60   -17600.00
01458              -1.00   -17600.00
01459              -0.20   -16800.00
01460              -0.40   -16800.00
01461              -1.00   -16800.00
01462              -0.20   -16000.00
01463              -0.40   -15200.00
01464              -1.20   -14400.00
01465              -0.40   -14400.00
01466              -0.40   -13600.00
01467              -1.00   -12800.00
01468              -0.40   -12800.00
01469              -0.60   -12000.00
01470              -1.00   -11200.00
01471               0.20   -10400.00
01472              -1.00   -10400.00
01473              -0.60    -9600.00
01474              -0.40    -9600.00
01475              -0.60    -8000.00
01476              -0.60    -8000.00
01477              -0.40    -8000.00
01478              -0.40    -7200.00
01479              -0.60    -6400.00
01480              -0.60    -5600.00
01481              -0.40    -4800.00
01482              -0.60    -4000.00
01483              -1.00    -4000.00
01484              -0.40    -3200.00
01485              -0.40    -2400.00
01486              -0.40    -2400.00
01487              -0.60    -1600.00
01488              -0.40        0.00
01489              -0.80        0.00
01490              -0.40        0.00
01491               0.20      800.00
01492               2.00     1600.00
01493               2.00     1600.00
01494              -2.20     2400.00
01495               0.20     3200.00
01496               1.00     3200.00
01497              -1.00     4800.00
01498               3.40     4800.00
01499              24.40     7200.00
01500              15.00     7200.00
01501             -25.00     8000.00
01502              -5.40     8000.00
01503              25.00     8000.00
01504             -25.00     8800.00
01505               6.40     9600.00
01506              25.00     9600.00
01507             -25.00    10400.00
01508              25.00    11200.00
01509              25.00    11200.00
01510             -25.00    12000.00
01511              25.00    12800.00
01512             -25.00    12800.00
01513              14.00    14400.00
01514              25.00    14400.00
01515             -25.00    15200.00
01516              25.00    16000.00
01517              11.80    16000.00
01518             -25.00    16000.00
01519              25.00    17600.00
01520               4.20    17600.00
01521             -25.00    18400.00
01522              18.00    19200.00
01523              22.60    19200.00
01524             -25.00    19200.00
01525              25.00    20800.00
01526              10.60    20800.00
01527             -22.60    21600.00
01528              25.00    22400.00
01529             -19.20    22400.00
01530              -1.00    22400.00
01531              12.40    23200.00
01532             -11.40    24000.00
01533               1.20    24000.00
01534              16.60    24800.00
01535             -16.60    24800.00
01536              -0.40    24800.00
01537              15.40    25600.00
01538             -19.80    26400.00
01539               8.20    26400.00
01540               6.80    27200.00
01541              -9.20    27200.00
01542               3.80    27200.00
01543               3.40    28000.00
01544              -5.40    28800.00
01545               1.80    28000.00
01546               3.60    28800.00
01547              -4.60    28800.00
01548               2.00    28800.00
01549               1.40    30400.00
01550              -4.20    30400.00
01551               3.80    30400.00
01552               0.40    30400.00
01553              -3.40    31200.00
01554               4.60    31200.00
01555              -2.20    31200.00
01556              -1.20    31200.00
01557               3.00    31200.00
01558              -2.80    32000.00
01559               1.20    32800.00
01560               1.80    32000.00
01561              -1.20    32800.00
01562               0.20    32800.00
01563               0.20    32000.00
01564              -0.20    32800.00
01565              -0.20    33600.00
01566               1.20    33600.00
01567              -0.60    33600.00
01568              -0.40    32800.00
01569               1.80    33600.00
01570              -1.40    32800.00
01571               0.80    32800.00
01572               0.20    32800.00
01573              -0.40    33600.00
01574               2.20    33600.00
01575              -1.00    32800.00
01576              -0.20    33600.00
01577               1.20    32800.00
01578              -0.20    33600.00
01579               0.60    33600.00
01580               0.20    32800.00
01581               0.20    32800.00
01582               0.00    32800.00
01583               0.80    32800.00
01584               0.40    32000.00
01585              -0.20    32800.00
01586               0.60    32000.00
01587               0.20    32800.00
01588               0.40    32000.00
01589               0.40    32000.00
01590              -0.40    31200.00
01591               0.80    31200.00
01592               0.60    31200.00
01593              -0.20    31200.00
01594               0.60    31200.00
01595               0.20    30400.00
01596               0.20    29600.00
01597               0.20    30400.00
01598              -0.20    29600.00
01599              -0.20    28800.00
01600               0.20    28800.00
01601               0.20    28000.00
01602               0.20    28000.00
01603              -0.20    28000.00
01604               0.00    27200.00
01605              -0.20    27200.00
01606               0.40    27200.00
01607              -0.20    25600.00
01608              -0.20    26400.00
01609               0.80    25600.00
01610               0.20    25600.00
01611               0.20    24800.00
01612               0.20    24800.00
01613              -0.60    24000.00
01614              -0.20    24000.00
01615              -0.20    22400.00
01616              -0.20    22400.00
01617               0.00    22400.00
01618               0.20    21600.00
01619               0.20    21600.00
01620               0.00    20800.00
01621               0.00    20800.00
01622              -0.60    20000.00
01623              -0.20    19200.00
01624               0.20    18400.00
01625              -0.60    18400.00
01626              -0.20    17600.00
01627               0.20    17600.00
01628               0.00    16800.00
01629               0.20    16000.00
01630              -0.20    15200.00
01631              -0.40    15200.00
01632              -0.20    14400.00
01633              -0.40    14400.00
01634               0.20    13600.00
01635              -0.60    12800.00
01636               0.20    12800.00
01637               0.40    11200.00
01638               0.20    11200.00
01639              -0.20    11200.00
01640              -0.20    10400.00
01641              -1.00     9600.00
01642              -0.20     8800.00
01643              -0.20     8800.00
01644               0.00     8000.00
01645              -0.40     7200.00
01646               0.20     6400.00
01647              -0.20     6400.00
01648              -0.20     5600.00
01649              -0.20     4800.00
01650               0.20     4000.00
01651              -0.40     4000.00
01652               0.20     3200.00
01653              -0.20     2400.00
01654              -0.40     1600.00
01655              -0.20      800.00
01656               0.20        0.00
01657               0.40        0.00
01658               1.00        0.00
01659               3.60     -800.00
01660              -0.60    -1600.00
01661              -1.20    -1600.00
01662               1.40    -3200.00
01663               0.80    -3200.00
01664              -0.60    -4000.00
01665               4.00    -4000.00
01666              16.40    -4800.00
01667              21.80    -6400.00
01668             -25.00    -7200.00
01669             -23.40    -8000.00
01670              25.00    -8000.00
01671              -6.60    -8000.00
01672             -25.00    -8000.00
01673              25.00    -9600.00
01674              25.00   -10400.00
01675             -25.00   -10400.00
01676              25.00   -11200.00
01677              13.20   -11200.00
01678             -25.00   -12800.00
01679              25.00   -12800.00
01680             -23.80   -13600.00
01681              16.80   -14400.00
01682              -2.80   -14400.00
01683             -25.00   -14400.00
01684              25.00   -16000.00
01685             -21.40   -16000.00
01686             -21.20   -16800.00
01687              25.00   -16800.00
01688              -8.60   -17600.00
01689             -25.00   -17600.00
01690              25.00   -18400.00
01691               2.40   -19200.00
01692             -25.00   -18400.00
01693              25.00   -20000.00
01694              -3.40   -20800.00
01695             -13.40   -21600.00
01696              13.80   -22400.00
01697              -9.40   -22400.00
01698              -2.00   -22400.00
01699               5.80   -23200.00
01700              -5.20   -23200.00
01701               1.40   -24000.00
01702               7.40   -24000.00
01703             -12.20   -24000.00
01704               5.40   -25600.00
01705               4.20   -25600.00
01706             -12.20   -25600.00
01707               7.60   -25600.00
01708               0.40   -27200.00
01709              -6.20   -27200.00
01710               2.80   -27200.00
01711               1.00   -27200.00
01712              -4.40   -28000.00
01713               2.00   -28800.00
01714               0.60   -28800.00
01715              -4.00   -28800.00
01716               2.00   -28800.00
01717              -0.60   -29600.00
01718              -2.80   -29600.00
01719               2.60   -29600.00
01720              -1.40   -30400.00
01721              -2.40   -29600.00
01722               2.00   -30400.00
01723              -2.60   -30400.00
01724              -1.20   -30400.00
01725               1.00   -32000.00
01726              -1.80   -32000.00
01727               0.40   -32000.00
01728              -0.20   -32000.00
01729              -1.20   -32000.00
01730              -1.00   -32000.00
01731              -0.60   -32000.00
01732              -1.00   -32000.00
01733              -0.40   -32000.00
01734              -0.40   -32000.00
01735              -1.40   -32000.00
01736              -0.40   -32000.00
01737              -0.60   -32000.00
01738              -2.00   -32800.00
01739               0.20   -32000.00
01740              -1.20   -32000.00
01741              -1.00   -32000.00
01742               0.00   -32800.00
01743              -1.40   -32800.00
01744              -0.60   -32800.00
01745              -0.20   -32000.00
01746              -1.20   -32800.00
01747              -0.60   -32000.00
01748              -1.20   -32000.00
01749              -1.00   -32000.00
01750              -0.60   -32000.00
01751              -1.00   -32000.00
01752              -1.20   -32000.00
01753              -0.60   -31200.00
01754              -0.60   -31200.00
01755              -1.00   -30400.00
01756              -0.40   -30400.00
01757              -0.60   -30400.00
01758              -0.60   -29600.00
01759               0.20   -30400.00
01760              -1.20   -30400.00
01761              -1.00   -29600.00
01762              -0.20   -29600.00
01763              -1.00   -28800.00
01764              -0.80   -28800.00
01765              -0.40   -28800.00
01766              -1.40   -28800.00
01767              -0.60   -28000.00
01768              -0.40   -27200.00
01769              -0.60   -27200.00
01770              -0.40   -27200.00
01771              -0.40   -26400.00
01772              -1.40   -26400.00
01773              -0.20   -26400.00
01774              -1.00   -25600.00
01775              -1.00   -25600.00
01776              -0.20   -25600.00
01777              -1.00   -24800.00
01778              -0.20   -24800.00
01779              -0.60   -24000.00
01780              -1.40   -23200.00
01781               1.00   -23200.00
01782              -1.80   -22400.00
01783              -1.00   -22400.00
01784               1.20   -20800.00
01785              -2.20   -20800.00
01786              -1.00   -20800.00
01787               0.40   -20000.00
01788              -2.00   -18400.00
01789              -0.60   -18400.00
01790               1.20   -18400.00
01791              -1.60   -17600.00
01792              -1.20   -17600.00
01793               0.60   -16800.00
01794              -2.40   -16800.00
01795              -0.20   -16000.00
01796               0.60   -16000.00
01797              -1.80   -15200.00
01798              -0.40   -14400.00
01799              -0.20   -14400.00
01800              -2.00   -12800.00
01801              -0.20   -13600.00
01802              -0.20   -12000.00
01803              -1.40   -11200.00
01804              -0.20   -11200.00
01805              -0.60   -10400.00
01806              -1.20    -9600.00
01807               0.20    -9600.00
01808              -0.40    -8800.00
01809              -0.60    -8000.00
01810              -0.20    -7200.00
01811              -1.20    -7200.00
01812              -0.60    -6400.00
01813              -0.60    -5600.00
01814              -0.60    -4800.00
01815              -0.40    -4800.00
01816              -0.60    -4000.00
01817              -0.20    -3200.00
01818              -0.40    -3200.00
01819              -1.00    -1600.00
01820              -0.40    -1600.00
01821              -0.40     -800.00
01822              -0.40        0.00
01823               0.20        0.00
01824               0.20        0.00
01825               0.60     1600.00
01826               3.40     1600.00
01827              -1.80     2400.00
01828              -0.60     3200.00
01829               1.20     3200.00
01830              -0.40     3200.00
01831              -0.20     4800.00
01832              14.20     5600.00
01833              25.00     7200.00
01834             -25.00     8000.00
01835             -25.00     8000.00
01836              25.00     8800.00
01837              -9.20     8800.00
01838             -25.00     8800.00
01839              25.00     9600.00
01840             -25.00     9600.00
01841             -22.60    11200.00
01842              25.00    11200.00
01843             -25.00    12000.00
01844              25.00    12800.00
01845              11.40    12800.00
01846             -25.00    13600.00
01847              25.00    14400.00
01848             -25.00    14400.00
01849               8.80    16000.00
01850              25.00    15200.00
01851             -25.00    16000.00
01852              25.00    16800.00
01853              25.00    17600.00
01854             -25.00    17600.00
01855              -5.80    19200.00
01856              25.00    19200.00
01857             -25.00    19200.00
01858              -3.40    20800.00
01859              25.00    20800.00
01860             -25.00    21600.00
01861              17.80    21600.00
01862              -1.60    22400.00
01863             -16.20    22400.00
01864              16.80    23200.00
01865              -5.40    24000.00
01866              -7.40    24000.00
01867              16.80    24000.00
01868              -4.60    24800.00
01869             -14.60    24800.00
01870              20.60    25600.00
01871             -12.20    25600.00
01872              -4.40    26400.00
01873              14.00    27200.00
01874              -8.60    27200.00
01875              -0.60    27200.00
01876               5.60    28000.00
01877              -3.40    28000.00
01878              -2.20    28800.00
01879               5.60    28800.00
01880              -3.00    28800.00
01881              -1.20    28800.00
01882               3.40    29600.00
01883              -3.80    29600.00
01884               1.00    30400.00
01885               3.80    30400.00
01886              -4.20    30400.00
01887               3.00    31200.00
01888               1.00    31200.00
01889              -4.20    31200.00
01890               3.60    32000.00
01891              -1.20    32000.00
01892              -1.00    32800.00
01893               3.00    32000.00
01894              -1.00    32000.00
01895              -0.60    32000.00
01896               0.80    32800.00
01897              -0.40    32800.00
01898               0.20    32800.00
01899               1.00    33600.00
01900              -0.20    32800.00
01901               0.20    33600.00
01902               1.40    33600.00
01903              -1.20    33600.00
01904               0.60    33600.00
01905               0.80    33600.00
01906              -1.60    32800.00
01907               2.60    32800.00
01908              -0.20    32800.00
01909              -1.20    33600.00
01910               1.80    32800.00
01911              -0.60    33600.00
01912               0.40    33600.00
01913               0.60    33600.00
01914               0.20    32800.00
01915               0.40    32800.00
01916               0.40    32800.00
01917               0.40    32000.00
01918              -0.20    32800.00
01919               0.40    32000.00
01920               0.20    31200.00
01921               0.20    32000.00
01922               0.40    32000.00
01923              -0.60    31200.00
01924               0.40    31200.00
01925               1.00    31200.00
01926              -0.20    31200.00
01927               0.40    31200.00
01928              -0.20    31200.00
01929              -0.40    30400.00
01930               0.40    30400.00
01931              -0.20    29600.00
01932               0.40    28800.00
01933               0.40    28800.00
01934              -0.40    28800.00
01935               0.00    28000.00
01936              -0.60    28000.00
01937              -0.40    27200.00
01938               0.20    28000.00
01939               0.60    27200.00
01940              -0.20    27200.00
01941              -0.60    26400.00
01942               0.40    25600.00
01943              -0.40    25600.00
01944               0.40    24800.00
01945               0.20    25600.00
01946              -0.60    24000.00
01947               0.20    24000.00
01948              -0.60    24000.00
01949              -0.40    24000.00
01950               0.60    22400.00
01951              -0.40    22400.00
01952               0.40    21600.00
01953               0.40    21600.00
01954              -0.60    20800.00
01955              -0.60    19200.00
01956               0.20    19200.00
01957               0.20    19200.00
01958               0.20    18400.00
01959               0.20    17600.00
01960              -0.40    17600.00
01961               0.20    17600.00
01962               0.40    16000.00
01963              -0.20    15200.00
01964               0.00    15200.00
01965              -0.20    14400.00
01966              -0.60    14400.00
01967               0.40    13600.00
01968              -0.40    12800.00
01969              -0.40    12800.00
01970               1.00    12000.00
01971              -0.40    11200.00
01972              -0.60    11200.00
01973               0.20     9600.00
01974              -0.60     9600.00
01975              -0.40     8800.00
01976               0.20     8800.00
01977              -0.40     8000.00
01978               0.00     7200.00
01979               0.20     6400.00
01980              -0.20     6400.00
01981               0.40     5600.00
01982              -0.20     4800.00
01983              -0.40     4800.00
01984               0.20     4000.00
01985              -0.20     3200.00
01986              -0.40     2400.00
01987              -0.20     2400.00
01988              -0.20     1600.00
01989              -0.20        0.00
01990               0.60        0.00
01991               0.20        0.00
01992               2.60     -800.00
01993               1.40     -800.00
01994              -2.00    -1600.00
01995               1.00    -2400.00
01996               1.20    -4000.00
01997              -0.60    -3200.00
01998               1.20    -4000.00
01999              10.60    -4800.00
02000              25.00    -6400.00
02001             -19.40    -7200.00
02002             -25.00    -8000.00
02003              15.80    -8000.00
02004              13.80    -8000.00
02005             -25.00    -8000.00
02006              10.80    -8000.00
02007              25.00   -10400.00
02008             -25.00   -10400.00
02009              12.20   -10400.00
02010              25.00   -11200.00
02011             -25.00   -12000.00
02012              23.40   -12800.00
02013               0.60   -13600.00
02014              -5.80   -13600.00
02015              21.80   -14400.00
02016             -25.00   -14400.00
02017              25.00   -16000.00
02018              11.00   -16000.00
02019             -25.00   -16800.00
02020              25.00   -16800.00
02021              14.20   -17600.00
02022             -25.00   -17600.00
02023               8.80   -18400.00
02024              24.40   -19200.00
02025             -25.00   -20000.00
02026              13.00   -20000.00
02027              16.60   -20800.00
02028             -21.40   -20800.00
02029              11.40   -21600.00
02030              -2.20   -21600.00
02031              -8.40   -22400.00
02032               6.40   -23200.00
02033              -1.20   -24000.00
02034              -3.60   -24000.00
02035              10.00   -24000.00
02036              -7.80   -24800.00
02037              -3.40   -24800.00
02038              10.20   -25600.00
02039             -11.40   -25600.00
02040               2.00   -26400.00
02041               6.60   -26400.00
02042              -6.80   -27200.00
02043              -0.20   -26400.00
02044               3.20   -27200.00
02045              -3.80   -27200.00
02046              -0.20   -28800.00
02047               2.80   -28000.00
02048              -3.60   -28800.00
02049              -0.20   -28800.00
02050               1.40   -28800.00
02051              -3.40   -29600.00
02052               1.00   -28800.00
02053               1.00   -29600.00
02054              -3.40   -30400.00
02055               1.20   -30400.00
02056              -0.80   -30400.00
02057              -3.00   -30400.00
02058               1.20   -31200.00
02059              -1.20   -31200.00
02060              -1.00   -32000.00
02061               0.40   -32000.00
02062              -1.20   -32000.00
02063              -1.20   -32000.00
02064              -0.60   -32000.00
02065              -1.00   -32000.00
02066              -1.00   -32000.00
02067              -0.20   -32000.00
02068              -1.00   -32800.00
02069              -0.60   -32000.00
02070               0.20   -32800.00
02071              -2.00   -32000.00
02072              -0.60   -32800.00
02073              -0.40   -32800.00
02074              -1.80   -32800.00
02075               0.40   -32000.00
02076              -1.20   -32000.00
02077              -1.20   -32800.00
02078              -0.20   -32000.00
02079              -1.20   -32000.00
02080              -1.00   -32000.00
02081              -0.60   -32000.00
02082              -0.60   -32000.00
02083              -1.00   -32000.00
02084              -0.60   -32000.00
02085              -0.60   -32000.00
02086              -0.60   -30400.00
02087               0.20   -31200.00
02088              -1.00   -32000.00
02089              -1.00   -31200.00
02090              -0.60   -30400.00
02091              -1.40   -31200.00
02092              -0.60   -30400.00
02093              -0.40   -29600.00
02094              -1.00   -29600.00
02095               0.40   -29600.00
02096              -0.60   -28800.00
02097              -1.40   -28800.00
02098              -0.40   -28800.00
02099              -0.60   -28800.00
02100              -0.40   -28000.00
02101              -0.60   -28000.00
02102              -1.00   -27200.00
02103              -0.60   -27200.00
02104              -1.00   -26400.00
02105              -0.60   -26400.00
02106              -0.40   -26400.00
02107              -0.40   -26400.00
02108              -1.40   -25600.00
02109              -1.00   -25600.00
02110              -0.60   -24000.00
02111              -1.00   -24000.00
02112              -0.20   -24000.00
02113              -0.20   -24000.00
02114              -0.60   -23200.00
02115              -0.60   -22400.00
02116              -1.00   -22400.00
02117              -0.60   -22400.00
02118              -0.60   -21600.00
02119              -0.60   -20800.00
02120              -0.40   -20000.00
02121              -1.00   -20000.00
02122              -1.20   -19200.00
02123              -0.60   -18400.00
02124              -0.60   -18400.00
02125              -0.60   -17600.00
02126              -1.00   -16800.00
02127              -0.60   -16800.00
02128              -0.60   -16000.00
02129              -0.60   -16000.00
02130              -0.40   -16000.00
02131              -0.60   -14400.00
02132              -0.60   -14400.00
02133              -0.60   -13600.00
02134              -1.00   -13600.00
02135              -0.80   -12800.00
02136              -1.00   -12000.00
02137              -0.60   -11200.00
02138              -0.40   -11200.00
02139              -0.60   -10400.00
02140              -0.60    -9600.00
02141              -0.60    -8800.00
02142              -0.40    -8000.00
02143              -0.60    -8000.00
02144              -0.60    -7200.00
02145              -0.60    -6400.00
02146              -0.60    -6400.00
02147              -0.60    -5600.00
02148              -0.40    -4800.00
02149              -0.80    -4000.00
02150              -0.60    -3200.00
02151              -0.20    -3200.00
02152              -0.60    -3200.00
02153              -0.40    -1600.00
02154              -0.40     -800.00
02155              -0.60     -800.00
02156               0.20        0.00
02157               0.20      800.00
02158               0.40     1600.00
02159               3.40     1600.00
02160               0.20     2400.00
02161              -2.00     2400.00
02162               1.00     3200.00
02163               0.60     3200.00
02164              -1.40     4800.00
02165               8.20     4800.00
02166              25.00     6400.00
02167             -13.00     7200.00
02168             -25.00     8000.00
02169              15.40     8000.00
02170              13.80     8800.00
02171             -25.00     8000.00
02172              25.00     9600.00
02173              25.00     9600.00
02174             -25.00    11200.00
02175              25.00    11200.00
02176             -25.00    11200.00
02177             -24.60    12000.00
02178              25.00    12800.00
02179             -25.00    12800.00
02180              25.00    14400.00
02181              -4.20    14400.00
02182             -25.00    15200.00
02183              25.00    16000.00
02184             -25.00    16000.00
02185             -16.20    16800.00
02186              25.00    16800.00
02187             -23.40    17600.00
02188             -25.00    18400.00
02189              25.00    19200.00
02190              -3.00    19200.00
02191             -25.00    19200.00
02192              25.00    20800.00
02193             -17.20    21600.00
02194              -2.40    21600.00
02195              17.40    21600.00
02196             -23.80    22400.00
02197              12.20    22400.00
02198               3.40    23200.00
02199             -12.80    24000.00
02200              10.40    24800.00
02201               8.60    24000.00
02202             -20.80    24800.00
02203              14.60    25600.00
02204               2.60    25600.00
02205             -15.80    26400.00
02206              14.80    27200.00
02207              -2.20    27200.00
02208              -5.80    27200.00
02209               6.20    28000.00
02210               0.00    28000.00
02211              -4.60    28000.00
02212               4.60    28800.00
02213               0.00    28800.00
02214              -3.60    28800.00
02215               3.60    28800.00
02216              -1.40    30400.00
02217              -2.00    30400.00
02218               4.60    30400.00
02219              -2.60    30400.00
02220              -0.40    31200.00
02221               3.80    31200.00
02222              -3.80    31200.00
02223               1.80    31200.00
02224               1.40    32000.00
02225              -2.00    32000.00
02226               2.60    32000.00
02227               0.20    32800.00
02228              -1.20    32800.00
02229               0.40    32800.00
02230              -0.20    32000.00
02231               0.20    32800.00
02232               0.40    32800.00
02233               1.00    32800.00
02234              -1.00    32800.00
02235               1.20    32800.00
02236               0.40    32800.00
02237              -1.00    33600.00
02238               1.80    33600.00
02239              -1.20    33600.00
02240               1.00    32800.00
02241               1.80    32800.00
02242              -1.60    33600.00
02243               0.80    32800.00
02244               0.60    32800.00
02245               0.00    32800.00
02246               0.40    33600.00
02247              -0.20    32800.00
02248               0.20    33600.00
02249               0.20    32800.00
02250               0.60    32000.00
02251               0.00    32800.00
02252               0.20    32000.00
02253               0.40    31200.00
02254              -0.20    32800.00
02255               0.20    32000.00
02256              -0.20    31200.00
02257              -0.60    31200.00
02258               0.40    31200.00
02259               0.40    31200.00
02260              -0.40    30400.00
02261               0.20    30400.00
02262               0.20    30400.00
02263              -0.20    30400.00
02264               0.00    28800.00
02265               0.20    29600.00
02266              -0.60    28800.00
02267               0.40    28800.00
02268               0.40    28000.00
02269              -0.60    27200.00
02270               0.40    27200.00
02271               0.20    27200.00
02272              -0.40    27200.00
02273               0.40    26400.00
02274              -0.60    26400.00
02275              -0.20    25600.00
02276               0.40    25600.00
02277              -0.40    25600.00
02278               0.40    24800.00
02279               0.20    24000.00
02280              -0.80    24000.00
02281               0.20    23200.00
02282               0.40    23200.00
02283              -0.60    22400.00
02284               0.20    22400.00
02285               0.20    22400.00
02286              -0.20    21600.00
02287               0.40    20800.00
02288              -0.20    20000.00
02289              -0.60    19200.00
02290               0.60    19200.00
02291               0.20    18400.00
02292              -0.60    17600.00
02293               0.40    17600.00
02294              -0.40    16800.00
02295               0.20    16000.00
02296               0.20    16000.00
02297              -0.20    15200.00
02298              -0.20    15200.00
02299              -0.20    14400.00
02300               0.20    14400.00
02301               0.20    13600.00
02302              -0.60    12800.00
02303               0.60    12000.00
02304               0.20    11200.00
02305              -0.40    11200.00
02306              -0.40    10400.00
02307               0.20    11200.00
02308              -0.20     9600.00
02309              -0.20     8800.00
02310               0.00     8000.00
02311               0.20     8000.00
02312              -0.40     7200.00
02313               0.00     6400.00
02314               0.00     5600.00
02315              -0.20     4800.00
02316              -0.40     4800.00
02317               0.00     3200.00
02318              -0.60     3200.00
02319              -0.60     2400.00
02320              -0.40     1600.00
02321              -0.40     1600.00
02322              -0.60      800.00
02323               0.20        0.00
02324               0.20        0.00
02325               1.40     -800.00
02326               3.60    -1600.00
02327              -1.80    -1600.00
02328               0.20    -2400.00
02329               1.40    -3200.00
02330               0.20    -3200.00
02331              -0.60    -4000.00
02332               6.80    -4000.00
02333              23.20    -6400.00
02334               5.00    -7200.00
02335             -25.00    -8000.00
02336              -2.60    -8000.00
02337              24.80    -8000.00
02338             -25.00    -8000.00
02339             -21.80    -8800.00
02340              25.00    -9600.00
02341             -21.20   -10400.00
02342             -25.00   -10400.00
02343              25.00   -11200.00
02344             -25.00   -11200.00
02345             -12.40   -12800.00
02346              25.00   -12800.00
02347             -25.00   -13600.00
02348              25.00   -14400.00
02349             -25.00   -14400.00
02350               1.80   -15200.00
02351              25.00   -16000.00
02352             -25.00   -16000.00
02353               5.00   -17600.00
02354              25.00   -16800.00
02355             -25.00   -17600.00
02356             -13.20   -18400.00
02357              25.00   -18400.00
02358             -21.80   -19200.00
02359             -10.00   -20000.00
02360              25.00   -20800.00
02361             -18.00   -20000.00
02362              -0.20   -20800.00
02363               7.80   -22400.00
02364             -11.80   -22400.00
02365               3.80   -22400.00
02366               3.00   -23200.00
02367              -6.60   -23200.00
02368               6.80   -24000.00
02369               0.40   -24000.00
02370             -11.00   -24800.00
02371              10.80   -25600.00
02372              -4.40   -26400.00
02373              -6.20   -25600.00
02374               9.00   -25600.00
02375              -4.40   -26400.00
02376              -3.60   -27200.00
02377               4.00   -27200.00
02378              -1.40   -28000.00
02379              -2.60   -28000.00
02380               3.00   -28000.00
02381              -1.80   -28800.00
02382              -2.20   -28800.00
02383               2.00   -28800.00
02384              -2.80   -29600.00
02385              -0.60   -29600.00
02386               2.20   -29600.00
02387              -3.00   -30400.00
02388              -0.20   -30400.00
02389               1.20   -31200.00
02390              -3.40   -31200.00
02391               0.20   -30400.00
02392              -0.20   -31200.00
02393              -1.20   -32000.00
02394               0.20   -32000.00
02395              -1.00   -32000.00
02396              -1.20   -32000.00
02397              -0.60   -32000.00
02398              -1.00   -32000.00
02399              -1.00   -32000.00
02400              -0.60   -32000.00
02401              -0.60   -32800.00
02402              -1.20   -32000.00
02403              -0.20   -32000.00
02404              -1.40   -32800.00
02405              -1.20   -32000.00
02406               0.20   -32800.00
02407              -1.40   -32000.00
02408              -0.20   -32800.00
02409              -0.60   -32000.00
02410              -1.60   -32800.00
02411               0.20   -32000.00
02412              -0.60   -32000.00
02413              -1.20   -32000.00
02414              -0.60   -32000.00
02415              -1.20   -32000.00
02416              -0.80   -32000.00
02417              -0.40   -32000.00
02418              -0.60   -32000.00
02419              -1.00   -32000.00
02420               0.00   -31200.00
02421              -0.60   -31200.00
02422              -0.60   -30400.00
02423              -0.20   -30400.00
02424              -1.20   -30400.00
02425              -0.60   -30400.00
02426               0.20   -29600.00
02427              -1.20   -29600.00
02428              -0.40   -29600.00
02429              -0.60   -28800.00
02430              -1.40   -28800.00
02431              -0.40   -28800.00
02432              -0.60   -28000.00
02433              -1.20   -28800.00
02434              -0.20   -27200.00
02435              -0.60   -27200.00
02436              -1.00   -27200.00
02437              -0.60   -26400.00
02438              -0.40   -26400.00
02439              -0.40   -25600.00
02440              -0.60   -26400.00
02441              -1.20   -25600.00
02442              -0.60   -25600.00
02443              -0.60   -24800.00
02444              -1.00   -24800.00
02445              -0.40   -24000.00
02446              -0.60   -24000.00
02447              -0.60   -23200.00
02448              -0.60   -22400.00
02449              -0.60   -22400.00
02450              -0.80   -21600.00
02451              -0.80   -22400.00
02452              -1.00   -20800.00
02453              -0.40   -20000.00
02454              -0.60   -20000.00
02455              -1.20   -20000.00
02456              -0.80   -18400.00
02457              -1.00   -18400.00
02458              -1.00   -17600.00
02459              -0.60   -16800.00
02460              -0.60   -16800.00
02461              -1.00   -16000.00
02462              -0.60   -16000.00
02463              -0.60   -16000.00
02464              -0.60   -14400.00
02465              -0.60   -14400.00
02466              -0.60   -13600.00
02467              -0.60   -13600.00
02468              -1.00   -12800.00
02469              -0.60   -11200.00
02470              -0.60   -11200.00
02471              -0.60   -11200.00
02472              -0.80    -9600.00
02473              -0.60    -9600.00
02474              -0.60    -8800.00
02475              -0.60    -8000.00
02476              -0.20    -8000.00
02477              -1.00    -7200.00
02478              -0.60    -7200.00
02479              -0.40    -6400.00
02480              -0.60    -5600.00
02481              -0.60    -4800.00
02482              -0.40    -4000.00
02483              -0.80    -4000.00
02484              -0.60    -3200.00
02485              -0.40    -2400.00
02486              -0.40    -1600.00
02487              -0.60    -1600.00
02488              -0.40     -800.00
02489              -0.40     -800.00
02490               0.20      800.00
02491               0.20     1600.00
02492               2.00     1600.00
02493               2.00     2400.00
02494              -2.80     2400.00
02495               0.20     3200.00
02496               1.00     3200.00
02497              -1.00     3200.00
02498               3.60     4800.00
02499              24.20     6400.00
02500              15.40     7200.00
02501             -25.00     8000.00
02502              -5.80     7200.00
02503              25.00     8000.00
02504             -25.00     8800.00
02505               5.80     9600.00
02506              25.00     9600.00
02507             -25.00     9600.00
02508              25.00    11200.00
02509              25.00    11200.00
02510             -25.00    12000.00
02511              25.00    12800.00
02512             -25.00    12800.00
02513              13.00    13600.00
02514              25.00    14400.00
02515             -25.00    14400.00
02516              25.00    15200.00
02517              13.20    15200.00
02518             -25.00    16000.00
02519              25.00    17600.00
02520               5.40    17600.00
02521             -25.00    18400.00
02522              17.00    19200.00
02523              23.40    19200.00
02524             -25.00    19200.00
02525              23.40    20800.00
02526              10.60    20800.00
02527             -21.20    21600.00
02528              25.00    21600.00
02529             -20.40    22400.00
02530               0.20    22400.00
02531              12.40    24000.00
02532             -13.40    24000.00
02533               2.80    24000.00
02534              17.80    24800.00
02535             -18.80    24800.00
02536              -0.20    25600.00
02537              17.00    25600.00
02538             -21.40    25600.00
02539               7.80    26400.00
02540               9.00    27200.00
02541              -9.80    27200.00
02542               3.00    27200.00
02543               4.40    28000.00
02544              -5.20    28000.00
02545               1.00    28000.00
02546               4.20    28800.00
02547              -4.20    28800.00
02548               1.60    28800.00
02549               1.20    29600.00
02550              -3.40    30400.00
02551               3.80    30400.00
02552               0.40    30400.00
02553              -2.80    31200.00
02554               4.60    31200.00
02555              -2.60    31200.00
02556              -1.00    32800.00
02557               3.60    32000.00
02558              -2.60    31200.00
02559               1.40    31200.00
02560               2.20    32000.00
02561              -1.00    32800.00
02562              -0.20    32800.00
02563               0.20    32800.00
02564               0.20    32000.00
02565               0.20    32800.00
02566               1.20    32800.00
02567              -0.60    32800.00
02568              -0.20    32800.00
02569               1.80    33600.00
02570              -1.00    32800.00
02571               1.00    33600.00
02572              -0.40    32800.00
02573              -0.60    33600.00
02574               2.00    33600.00
02575              -1.20    32800.00
02576               0.20    33600.00
02577               1.20    32800.00
02578              -0.40    32800.00
02579               0.20    32800.00
02580              -0.20    32800.00
02581               0.20    32800.00
02582              -0.20    32800.00
02583               0.40    32800.00
02584               0.20    32800.00
02585              -0.40    32000.00
02586               0.40    32000.00
02587               0.60    32000.00
02588              -0.20    31200.00
02589              -0.20    32000.00
02590              -0.20    31200.00
02591               0.40    31200.00
02592               0.20    30400.00
02593              -0.40    30400.00
02594               0.20    30400.00
02595               0.20    30400.00
02596               0.20    30400.00
02597               0.20    29600.00
02598              -0.20    28800.00
02599              -0.20    29600.00
02600              -0.20    28800.00
02601               0.40    28800.00
02602               0.00    28000.00
02603               0.40    28000.00
02604              -0.20    28000.00
02605               1.00    27200.00
02606               0.20    27200.00
02607              -0.40    26400.00
02608               0.20    25600.00
02609               0.60    25600.00
02610              -1.00    25600.00
02611               0.40    24800.00
02612               0.40    24000.00
02613              -1.20    24000.00
02614               1.00    24000.00
02615               0.20    22400.00
02616              -0.60    23200.00
02617               0.60    22400.00
02618              -0.40    21600.00
02619              -0.40    21600.00
02620               1.00    21600.00
02621              -0.40    20800.00
02622              -0.40    19200.00
02623               1.00    19200.00
02624              -0.20    18400.00
02625              -0.60    18400.00
02626               0.60    17600.00
02627              -0.60    17600.00
02628              -0.40    16800.00
02629               0.60    16000.00
02630              -0.40    16000.00
02631               0.00    15200.00
02632               0.40    14400.00
02633              -0.20    14400.00
02634              -0.20    13600.00
02635               0.20    12800.00
02636              -0.20    12000.00
02637               0.60    12000.00
02638              -0.20    11200.00
02639              -0.60    11200.00
02640              -0.20    10400.00
02641               0.20     9600.00
02642              -0.80     8800.00
02643              -0.20     8000.00
02644              -0.40     7200.00
02645              -0.60     7200.00
02646              -0.40     6400.00
02647               0.20     6400.00
02648              -0.20     5600.00
02649              -0.20     4800.00
02650               0.00     4800.00
02651              -0.40     3200.00
02652              -0.40     3200.00
02653              -0.60     2400.00
02654              -0.60     1600.00
02655              -0.40     1600.00
02656              -0.40      800.00
02657               0.00        0.00
02658               0.40     -800.00
02659               3.60    -1600.00
02660              -0.60    -1600.00
02661              -1.00    -2400.00
02662               1.20    -3200.00
02663               1.00    -3200.00
02664              -0.60    -3200.00
02665               3.40    -4800.00
02666              16.40    -4800.00
02667              21.80    -6400.00
02668             -25.00    -7200.00
02669             -23.60    -8000.00
02670              25.00    -8000.00
02671              -7.40    -8800.00
02672             -25.00    -8000.00
02673              25.00    -9600.00
02674              25.00   -10400.00
02675             -25.00   -10400.00
02676              25.00   -12000.00
02677              13.20   -11200.00
02678             -25.00   -12000.00
02679              25.00   -13600.00
02680             -23.80   -12800.00
02681              17.40   -14400.00
02682              -2.80   -14400.00
02683             -25.00   -14400.00
02684              25.00   -15200.00
02685             -21.80   -16000.00
02686             -21.20   -16800.00
02687              25.00   -16800.00
02688              -9.40   -17600.00
02689             -25.00   -18400.00
02690              25.00   -18400.00
02691               1.80   -19200.00
02692             -25.00   -19200.00
02693              25.00   -20000.00
02694              -4.00   -20800.00
02695             -13.40   -20800.00
02696              14.80   -21600.00
02697             -10.00   -22400.00
02698              -2.00   -23200.00
02699               6.80   -23200.00
02700              -5.40   -23200.00
02701               1.00   -24000.00
02702               8.20   -24000.00
02703             -12.60   -24800.00
02704               5.00   -25600.00
02705               4.60   -25600.00
02706             -12.20   -26400.00
02707               7.00   -26400.00
02708               1.00   -26400.00
02709              -6.20   -27200.00
02710               2.40   -27200.00
02711               1.40   -27200.00
02712              -4.40   -28000.00
02713               1.40   -28800.00
02714               0.80   -28800.00
02715              -3.80   -28800.00
02716               1.80   -28800.00
02717              -1.00   -29600.00
02718              -2.80   -29600.00
02719               2.00   -29600.00
02720              -1.60   -30400.00
02721              -2.20   -30400.00
02722               2.00   -30400.00
02723              -2.60   -30400.00
02724              -1.40   -30400.00
02725               1.00   -31200.00
02726              -2.00   -31200.00
02727               0.40   -32000.00
02728              -0.20   -32000.00
02729              -1.40   -32000.00
02730              -0.40   -32800.00
02731              -0.80   -32000.00
02732              -0.80   -32000.00
02733              -0.60   -32800.00
02734              -0.20   -32800.00
02735              -1.40   -32000.00
02736              -0.60   -32000.00
02737              -0.60   -32000.00
02738              -1.80   -32000.00
02739               0.40   -32800.00
02740              -1.00   -32000.00
02741              -1.00   -32000.00
02742               0.40   -32000.00
02743              -1.40   -32800.00
02744              -0.40   -32000.00
02745               0.20   -32000.00
02746              -1.20   -32000.00
02747              -1.00   -32000.00
02748              -1.00   -32000.00
02749              -0.80   -32000.00
02750              -1.00   -31200.00
02751              -0.60   -31200.00
02752              -0.60   -32000.00
02753              -0.60   -30400.00
02754              -0.40   -31200.00
02755              -1.00   -31200.00
02756              -0.60   -30400.00
02757              -0.80   -30400.00
02758              -0.60   -29600.00
02759              -0.20   -29600.00
02760              -1.20   -30400.00
02761              -0.80   -29600.00
02762              -0.60   -29600.00
02763              -1.00   -28800.00
02764              -0.60   -29600.00
02765              -0.60   -28800.00
02766              -1.00   -28000.00
02767              -0.60   -28000.00
02768              -1.00   -28000.00
02769              -0.60   -27200.00
02770              -0.60   -27200.00
02771              -0.80   -27200.00
02772              -0.80   -26400.00
02773              -0.60   -25600.00
02774              -1.20   -25600.00
02775              -1.00   -24800.00
02776              -0.40   -24800.00
02777              -1.00   -24800.00
02778              -0.80   -24000.00
02779              -0.40   -23200.00
02780              -1.00   -23200.00
02781              -1.00   -22400.00
02782              -0.60   -22400.00
02783              -0.60   -22400.00
02784              -0.80   -20800.00
02785              -1.20   -20800.00
02786              -0.40   -20000.00
02787              -0.80   -20000.00
02788              -1.20   -19200.00
02789              -0.60   -20000.00
02790              -1.00   -18400.00
02791              -0.60   -17600.00
02792              -0.80   -16800.00
02793              -0.60   -16800.00
02794              -0.60   -16800.00
02795              -0.80   -16000.00
02796              -0.60   -15200.00
02797              -1.00   -14400.00
02798              -1.00   -14400.00
02799              -0.60   -13600.00
02800              -0.80   -13600.00
02801              -0.60   -12800.00
02802              -0.60   -12000.00
02803              -0.40   -11200.00
02804              -0.40   -11200.00
02805              -0.80   -10400.00
02806              -0.60    -9600.00
02807              -0.60    -9600.00
02808              -0.60    -9600.00
02809              -0.40    -8000.00
02810              -0.60    -7200.00
02811              -0.60    -7200.00
02812              -0.20    -6400.00
02813              -1.20    -6400.00
02814              -0.60    -4800.00
02815              -0.40    -4800.00
02816              -0.60    -4000.00
02817              -0.60    -3200.00
02818              -0.40    -3200.00
02819              -0.40    -1600.00
02820              -0.20    -1600.00
02821              -0.60     -800.00
02822              -0.60        0.00
02823               0.20      800.00
02824               0.20      800.00
02825               0.60     1600.00
02826               3.40     1600.00
02827              -2.20     2400.00
02828              -1.00     3200.00
02829               1.40     3200.00
02830              -0.40     3200.00
02831               0.00     4000.00
02832              14.40     6400.00
02833              25.00     7200.00
02834             -25.00     7200.00
02835             -25.00     8000.00
02836              25.00     8000.00
02837              -9.20     8800.00
02838             -25.00     9600.00
02839              25.00     9600.00
02840             -25.00     9600.00
02841             -23.60    11200.00
02842              25.00    12000.00
02843             -25.00    12000.00
02844              25.00    12800.00
02845              11.80    12800.00
02846             -25.00    13600.00
02847              25.00    14400.00
02848             -25.00    14400.00
02849               8.20    15200.00
02850              25.00    15200.00
02851             -25.00    16000.00
02852              25.00    16800.00
02853              25.00    17600.00
02854             -25.00    18400.00
02855              -6.00    18400.00
02856              25.00    18400.00
02857             -25.00    19200.00
02858              -3.80    20800.00
02859              25.00    20800.00
02860             -25.00    21600.00
02861              17.40    21600.00
02862              -2.00    21600.00
02863             -16.00    22400.00
02864              17.00    23200.00
02865              -5.40    23200.00
02866              -7.40    24000.00
02867              16.40    24800.00
02868              -4.40    24800.00
02869             -14.60    24800.00
02870              20.20    25600.00
02871             -11.80    25600.00
02872              -4.20    25600.00
02873              14.00    27200.00
02874              -8.40    27200.00
02875              -0.60    27200.00
02876               5.80    27200.00
02877              -3.20    28000.00
02878              -2.00    28000.00
02879               5.80    28800.00
02880              -3.00    28800.00
02881              -1.00    28800.00
02882               3.60    29600.00
02883              -3.60    30400.00
02884               1.40    30400.00
02885               3.60    30400.00
02886              -4.00    31200.00
02887               3.40    30400.00
02888               0.80    31200.00
02889              -3.80    31200.00
02890               3.60    32000.00
02891              -1.00    32000.00
02892              -0.60    32800.00
02893               2.60    32000.00
02894              -0.60    32800.00
02895              -0.60    32000.00
02896               0.40    32800.00
02897               0.20    33600.00
02898               0.40    32000.00
02899               0.40    33600.00
02900               0.60    33600.00
02901              -0.20    32800.00
02902               2.00    32800.00
02903              -1.20    32800.00
02904              -0.60    32800.00
02905               1.00    32800.00
02906              -1.20    33600.00
02907               2.00    32000.00
02908               0.20    32800.00
02909              -1.20    33600.00
02910               1.40    32800.00
02911              -0.40    32800.00
02912               0.20    33600.00
02913               0.40    32800.00
02914              -0.40    32800.00
02915               0.20    32800.00
02916               0.40    32000.00
02917               0.20    32000.00
02918              -1.20    32800.00
02919               0.20    32000.00
02920               0.40    32000.00
02921               0.20    32000.00
02922               0.20    32000.00
02923              -1.00    31200.00
02924              -0.20    31200.00
02925               1.20    31200.00
02926              -0.20    31200.00
02927               0.40    30400.00
02928               0.60    30400.00
02929              -0.40    30400.00
02930               0.20    30400.00
02931               0.20    29600.00
02932              -0.20    28800.00
02933              -0.20    28800.00
02934               0.40    28800.00
02935               0.20    28800.00
02936              -0.60    28000.00
02937               0.40    27200.00
02938               0.20    27200.00
02939               0.20    27200.00
02940               0.40    27200.00
02941              -0.20    26400.00
02942               0.40    25600.00
02943               0.20    25600.00
02944               0.20    24800.00
02945               0.20    24800.00
02946              -0.40    24000.00
02947               0.20    24000.00
02948               0.20    24000.00
02949              -0.20    22400.00
02950              -0.20    22400.00
02951              -0.20    21600.00
02952               0.40    21600.00
02953               0.20    20800.00
02954               0.00    20800.00
02955               0.20    20800.00
02956              -0.20    19200.00
02957               0.40    19200.00
02958               0.00    18400.00
02959              -0.20    18400.00
02960               0.20    17600.00
02961              -0.20    17600.00
02962               0.20    16000.00
02963              -0.20    16000.00
02964              -0.20    15200.00
02965              -0.40    14400.00
02966              -0.20    14400.00
02967              -0.20    13600.00
02968              -0.20    12800.00
02969              -0.60    12800.00
02970               0.40    12000.00
02971              -0.40    12000.00
02972              -0.20    11200.00
02973              -0.60    10400.00
02974              -0.20     9600.00
02975              -0.40     9600.00
02976              -0.60     8800.00
02977              -0.20     8000.00
02978              -0.20     7200.00
02979              -0.60     6400.00
02980               0.20     7200.00
02981              -0.60     5600.00
02982              -0.40     4800.00
02983               0.20     4000.00
02984              -0.40     3200.00
02985              -0.60     3200.00
02986              -0.20     2400.00
02987              -1.00     1600.00
02988              -0.60      800.00
02989               0.20      800.00
02990              -0.20        0.00
02991               0.20        0.00
02992               3.20     -800.00
02993               1.00     -800.00
02994              -2.20    -1600.00
02995               1.20    -1600.00
02996               1.00    -3200.00
02997              -0.60    -4000.00
02998               1.20    -4000.00
02999              10.60    -4800.00
03000              25.00    -6400.00
03001             -19.40    -7200.00
03002             -25.00    -8000.00
03003              16.40    -8000.00
03004              13.80    -8000.00
03005             -25.00    -8800.00
03006              11.40    -8000.00
03007              25.00   -10400.00
03008             -25.00    -9600.00
03009              12.40   -11200.00
03010              25.00   -12000.00
03011             -25.00   -12800.00
03012              23.60   -12800.00
03013               0.80   -12800.00
03014              -5.80   -13600.00
03015              22.20   -14400.00
03016             -25.00   -14400.00
03017              25.00   -15200.00
03018              11.00   -16000.00
03019             -25.00   -16800.00
03020              25.00   -16800.00
03021              14.00   -17600.00
03022             -25.00   -18400.00
03023               9.00   -18400.00
03024              23.80   -19200.00
03025             -25.00   -19200.00
03026              13.40   -20000.00
03027              16.20   -20800.00
03028             -21.20   -20800.00
03029              11.60   -20800.00
03030              -2.20   -22400.00
03031              -8.20   -22400.00
03032               6.20   -23200.00
03033              -1.40   -22400.00
03034              -3.80   -24000.00
03035               9.80   -24000.00
03036              -7.80   -24800.00
03037              -3.80   -24800.00
03038              10.20   -25600.00
03039             -11.60   -25600.00
03040               1.40   -26400.00
03041               6.60   -26400.00
03042              -7.00   -27200.00
03043              -0.60   -27200.00
03044               3.40   -27200.00
03045              -4.20   -27200.00
03046              -0.80   -28000.00
03047               3.40   -28000.00
03048              -3.80   -28800.00
03049              -0.20   -28800.00
03050               1.20   -28800.00
03051              -3.40   -29600.00
03052               1.00   -29600.00
03053               0.60   -29600.00
03054              -3.20   -30400.00
03055               1.80   -29600.00
03056              -1.20   -30400.00
03057              -3.00   -30400.00
03058               1.20   -31200.00
03059              -1.20   -31200.00
03060              -0.40   -32000.00
03061               0.60   -32000.00
03062              -1.20   -32000.00
03063              -1.00   -32000.00
03064              -0.60   -32000.00
03065              -0.60   -32000.00
03066              -0.40   -32000.00
03067              -0.20   -32000.00
03068              -1.40   -32000.00
03069              -0.20   -32000.00
03070              -0.20   -32800.00
03071              -2.40   -32000.00
03072               0.40   -32800.00
03073              -0.20   -32000.00
03074              -2.20   -32800.00
03075               1.00   -32800.00
03076              -1.00   -32800.00
03077              -1.20   -32000.00
03078               0.40   -32000.00
03079              -0.60   -32000.00
03080              -0.60   -32000.00
03081              -0.60   -32000.00
03082              -0.60   -32800.00
03083              -0.60   -32000.00
03084              -0.40   -32000.00
03085              -1.20   -32000.00
03086              -0.60   -31200.00
03087              -0.20   -30400.00
03088              -1.20   -30400.00
03089              -0.60   -30400.00
03090              -0.60   -30400.00
03091              -1.20   -30400.00
03092              -0.40   -30400.00
03093              -0.40   -29600.00
03094              -1.20   -29600.00
03095              -0.40   -29600.00
03096              -0.60   -28800.00
03097              -1.20   -28800.00
03098              -0.60   -28800.00
03099              -1.00   -28000.00
03100              -0.80   -28800.00
03101              -0.60   -27200.00
03102              -1.00   -27200.00
03103              -0.80   -28000.00
03104              -1.00   -26400.00
03105              -0.40   -26400.00
03106              -0.60   -26400.00
03107              -2.00   -25600.00
03108              -0.60   -25600.00
03109               0.20   -25600.00
03110              -1.40   -24000.00
03111              -0.60   -24000.00
03112               0.00   -24000.00
03113              -2.00   -24000.00
03114              -1.00   -23200.00
03115               0.40   -22400.00
03116              -1.80   -22400.00
03117              -0.60   -21600.00
03118              -0.20   -20800.00
03119              -1.20   -20800.00
03120              -0.80   -20000.00
03121              -0.60   -20000.00
03122              -1.40   -19200.00
03123              -0.20   -18400.00
03124               0.20   -18400.00
03125              -1.80   -17600.00
03126              -1.00   -17600.00
03127               0.40   -16800.00
03128              -1.40   -16000.00
03129              -0.40   -16000.00
03130               0.60   -15200.00
03131              -1.80   -14400.00
03132              -1.20   -14400.00
03133               0.20   -13600.00
03134              -1.20   -12800.00
03135              -0.60   -12000.00
03136              -0.40   -11200.00
03137              -1.00   -11200.00
03138              -0.40   -10400.00
03139              -0.60   -10400.00
03140              -0.60    -9600.00
03141              -0.60    -9600.00
03142              -0.40    -8000.00
03143              -0.60    -8000.00
03144              -0.20    -7200.00
03145              -0.60    -6400.00
03146              -0.80    -5600.00
03147              -0.40    -5600.00
03148              -0.60    -4800.00
03149              -1.00    -4000.00
03150              -0.20    -3200.00
03151              -0.20    -2400.00
03152              -0.60    -1600.00
03153              -0.40    -1600.00
03154              -0.20    -1600.00
03155              -0.60     -800.00
03156               0.20        0.00
03157               0.40      800.00
03158               0.20     1600.00
03159               3.40     1600.00
03160               0.20     1600.00
03161              -2.20     2400.00
03162               0.80     3200.00
03163               0.40     3200.00
03164              -1.80     4800.00
03165               8.00     5600.00
03166              25.00     7200.00
03167             -12.80     8000.00
03168             -25.00     8000.00
03169              15.40     8000.00
03170              13.80     8800.00
03171             -25.00     8800.00
03172              25.00     9600.00
03173              25.00     9600.00
03174             -25.00    11200.00
03175              25.00    11200.00
03176             -25.00    12000.00
03177             -25.00    12800.00
03178              25.00    12800.00
03179             -25.00    12800.00
03180              25.00    14400.00
03181              -3.80    14400.00
03182             -25.00    15200.00
03183              25.00    15200.00
03184             -25.00    16000.00
03185             -16.40    16800.00
03186              25.00    17600.00
03187             -23.60    17600.00
03188             -25.00    18400.00
03189              25.00    19200.00
03190              -3.40    19200.00
03191             -25.00    20000.00
03192              25.00    20800.00
03193             -17.20    20800.00
03194              -2.60    21600.00
03195              17.80    22400.00
03196             -23.80    22400.00
03197              12.20    23200.00
03198               3.00    23200.00
03199             -12.40    24000.00
03200              10.00    24000.00
03201               9.00    24800.00
03202             -20.20    24800.00
03203              14.40    25600.00
03204               2.60    25600.00
03205             -15.60    25600.00
03206              14.80    27200.00
03207              -2.40    27200.00
03208              -5.40    27200.00
03209               6.20    27200.00
03210               0.20    28800.00
03211              -4.40    28000.00
03212               4.60    28000.00
03213               0.60    28800.00
03214              -3.80    28800.00
03215               3.60    28800.00
03216              -1.40    30400.00
03217              -2.00    30400.00
03218               5.40    30400.00
03219              -2.20    30400.00
03220              -0.20    31200.00
03221               3.80    31200.00
03222              -3.80    31200.00
03223               1.80    31200.00
03224               1.40    31200.00
03225              -2.20    32000.00
03226               2.20    31200.00
03227               0.40    32800.00
03228              -1.20    32000.00
03229               0.20    32000.00
03230               0.20    32800.00
03231               0.20    32800.00
03232               0.40    32800.00
03233               1.00    32800.00
03234              -0.80    32800.00
03235               1.00    32800.00
03236               0.60    33600.00
03237              -1.40    33600.00
03238               1.60    32800.00
03239              -1.00    33600.00
03240               0.20    33600.00
03241               1.40    33600.00
03242              -1.80    33600.00
03243               0.60    33600.00
03244               0.40    33600.00
03245              -0.20    32800.00
03246               0.20    32800.00
03247              -0.20    32000.00
03248               0.40    33600.00
03249              -0.20    32800.00
03250               0.60    32000.00
03251               0.00    32800.00
03252               0.20    32800.00
03253               0.40    32000.00
03254               0.00    32000.00
03255               0.40    32000.00
03256              -0.40    31200.00
03257              -0.40    31200.00
03258               1.00    30400.00
03259               0.00    31200.00
03260               0.00    30400.00
03261               0.60    30400.00
03262              -0.20    30400.00
03263               0.40    29600.00
03264               0.20    29600.00
03265              -0.20    28800.00
03266               0.00    28800.00
03267               0.20    28800.00
03268               0.20    28000.00
03269              -0.20    28000.00
03270               0.00    27200.00
03271               0.20    27200.00
03272               0.20    27200.00
03273               0.40    27200.00
03274              -0.40    26400.00
03275               0.20    25600.00
03276               0.60    25600.00
03277              -0.20    24800.00
03278               0.40    24800.00
03279              -0.20    24800.00
03280              -0.20    24000.00
03281               0.40    24000.00
03282              -0.20    23200.00
03283               0.20    22400.00
03284              -0.40    22400.00
03285               0.20    21600.00
03286               0.20    21600.00
03287              -0.20    20800.00
03288               0.20    20000.00
03289              -0.20    20000.00
03290               0.40    19200.00
03291               0.20    18400.00
03292              -0.20    18400.00
03293              -0.20    17600.00
03294              -0.40    17600.00
03295               0.20    16000.00
03296              -0.20    16000.00
03297              -0.20    15200.00
03298              -0.20    15200.00
03299              -0.20    14400.00
03300               0.20    13600.00
03301               0.00    14400.00
03302              -0.60    12800.00
03303               0.20    12000.00
03304              -0.40    12000.00
03305              -0.20    11200.00
03306              -0.40    10400.00
03307              -0.40     9600.00
03308              -0.60     9600.00
03309              -0.20     8800.00
03310              -0.40     8000.00
03311              -0.20     8000.00
03312              -0.40     7200.00
03313              -0.20     6400.00
03314               0.00     5600.00
03315              -0.20     4800.00
03316              -0.60     4800.00
03317              -0.20     3200.00
03318              -0.40     3200.00
03319              -0.60     3200.00
03320              -0.40     2400.00
03321              -0.40     1600.00
03322              -0.40      800.00
03323               0.20        0.00
03324               0.20        0.00
03325               1.40     -800.00
03326               3.40    -1600.00
03327              -1.40    -1600.00
03328               0.20    -2400.00
03329               1.20    -2400.00
03330               0.40    -3200.00
03331              -0.40    -4000.00
03332               6.80    -4800.00
03333              23.00    -4800.00
03334               5.20    -7200.00
03335             -25.00    -7200.00
03336              -2.60    -8000.00
03337              25.00    -8000.00
03338             -25.00    -8800.00
03339             -21.40    -8000.00
03340              25.00    -9600.00
03341             -21.20   -10400.00
03342             -25.00   -11200.00
03343              25.00   -12000.00
03344             -25.00   -11200.00
03345             -12.40   -12800.00
03346              25.00   -13600.00
03347             -25.00   -13600.00
03348              25.00   -14400.00
03349             -25.00   -14400.00
03350               1.80   -15200.00
03351              25.00   -16000.00
03352             -25.00   -16000.00
03353               5.00   -16800.00
03354              25.00   -16800.00
03355             -25.00   -17600.00
03356             -13.20   -18400.00
03357              25.00   -19200.00
03358             -22.00   -19200.00
03359             -10.00   -20000.00
03360              25.00   -20000.00
03361             -18.20   -20800.00
03362              -0.40   -20800.00
03363               7.60   -22400.00
03364             -11.60   -22400.00
03365               3.60   -23200.00
03366               2.60   -23200.00
03367              -6.20   -24000.00
03368               6.80   -24000.00
03369               0.00   -24800.00
03370             -10.80   -24800.00
03371              11.00   -25600.00
03372              -5.00   -25600.00
03373              -6.80   -26400.00
03374               9.20   -26400.00
03375              -4.40   -27200.00
03376              -4.40   -27200.00
03377               4.20   -27200.00
03378              -1.40   -27200.00
03379              -3.40   -27200.00
03380               3.40   -28800.00
03381              -1.80   -28800.00
03382              -3.00   -28800.00
03383               2.00   -28800.00
03384              -2.20   -28800.00
03385              -1.20   -29600.00
03386               2.20   -29600.00
03387              -2.60   -29600.00
03388               0.00   -30400.00
03389               1.00   -30400.00
03390              -3.40   -30400.00
03391               0.40   -30400.00
03392              -0.20   -31200.00
03393              -1.20   -31200.00
03394               0.60   -32000.00
03395              -1.00   -32000.00
03396              -1.40   -32000.00
03397              -0.40   -32000.00
03398              -0.60   -32000.00
03399              -0.60   -32000.00
03400              -0.60   -32000.00
03401              -0.60   -32000.00
03402              -1.20   -32000.00
03403               0.40   -32800.00
03404              -1.20   -32000.00
03405              -0.60   -32800.00
03406               0.60   -32800.00
03407              -1.80   -32800.00
03408              -0.20   -32000.00
03409              -0.60   -32800.00
03410              -1.80   -32000.00
03411               0.00   -32000.00
03412              -0.20   -32800.00
03413              -0.60   -32800.00
03414              -0.60   -32000.00
03415              -0.60   -32000.00
03416              -0.80   -32000.00
03417              -0.60   -32000.00
03418              -1.00   -32000.00
03419              -0.60   -32000.00
03420              -0.20   -31200.00
03421              -0.60   -30400.00
03422              -0.80   -31200.00
03423              -0.60   -30400.00
03424              -1.20   -30400.00
03425              -0.60   -29600.00
03426              -0.40   -30400.00
03427              -1.80   -29600.00
03428              -0.60   -29600.00
03429              -1.00   -28800.00
03430              -1.20   -28800.00
03431              -0.60   -28800.00
03432              -0.60   -28800.00
03433              -1.20   -28000.00
03434              -0.60   -28000.00
03435              -1.00   -28000.00
03436              -0.60   -27200.00
03437              -0.60   -26400.00
03438              -0.40   -27200.00
03439              -0.80   -26400.00
03440              -0.60   -26400.00
03441              -1.20   -25600.00
03442              -1.00   -25600.00
03443              -0.60   -24000.00
03444              -0.60   -24000.00
03445              -0.80   -24000.00
03446              -0.60   -24000.00
03447              -1.00   -23200.00
03448              -1.00   -22400.00
03449              -0.80   -22400.00
03450              -0.60   -21600.00
03451              -1.00   -20800.00
03452              -1.00   -20800.00
03453              -0.40   -20800.00
03454              -1.20   -20000.00
03455              -1.00   -19200.00
03456              -0.60   -18400.00
03457              -0.80   -18400.00
03458              -0.40   -17600.00
03459              -0.60   -17600.00
03460              -0.60   -16800.00
03461              -0.60   -16000.00
03462              -0.60   -16000.00
03463              -0.60   -15200.00
03464              -0.40   -14400.00
03465              -0.40   -14400.00
03466              -0.60   -13600.00
03467              -0.80   -12800.00
03468              -0.60   -12800.00
03469              -1.00   -12800.00
03470              -0.60   -11200.00
03471              -0.40   -11200.00
03472              -0.60   -10400.00
03473              -0.60    -9600.00
03474              -0.60    -8800.00
03475              -0.60    -8000.00
03476              -0.40    -8000.00
03477              -0.40    -7200.00
03478              -0.40    -7200.00
03479              -0.40    -6400.00
03480              -0.60    -5600.00
03481              -0.60    -4800.00
03482              -0.40    -4000.00
03483              -0.80    -4000.00
03484              -0.60    -3200.00
03485              -0.40    -1600.00
03486              -0.80    -1600.00
03487              -0.60     -800.00
03488              -0.40     -800.00
03489              -0.40        0.00
03490              -0.20        0.00
03491               0.20     1600.00
03492               2.00     1600.00
03493               2.00     1600.00
03494              -2.60     2400.00
03495              -0.20     3200.00
03496               1.00     3200.00
03497              -1.20     4000.00
03498               3.00     4800.00
03499              24.00     7200.00
03500              15.40     7200.00
03501             -25.00     8000.00
03502              -6.20     8000.00
03503              25.00     8000.00
03504             -25.00     8800.00
03505               5.20     8800.00
03506              25.00     9600.00
03507             -25.00    10400.00
03508              25.00    11200.00
03509              25.00    11200.00
03510             -25.00    12000.00
03511              25.00    12800.00
03512             -25.00    12800.00
03513              12.60    13600.00
03514              25.00    14400.00
03515             -25.00    15200.00
03516              25.00    15200.00
03517              13.20    16000.00
03518             -25.00    16800.00
03519              25.00    16800.00
03520               4.40    17600.00
03521             -25.00    18400.00
03522              17.80    18400.00
03523              22.80    19200.00
03524             -25.00    20000.00
03525              24.40    20800.00
03526              11.00    21600.00
03527             -22.80    21600.00
03528              25.00    21600.00
03529             -19.00    22400.00
03530              -1.60    22400.00
03531              12.20    24000.00
03532             -11.40    23200.00
03533               1.20    24000.00
03534              16.80    24800.00
03535             -16.00    24800.00
03536              -0.40    25600.00
03537              15.40    25600.00
03538             -19.40    25600.00
03539               8.40    26400.00
03540               7.40    27200.00
03541              -9.00    27200.00
03542               4.20    27200.00
03543               3.40    28000.00
03544              -5.20    28800.00
03545               1.80    28000.00
03546               3.80    28800.00
03547              -4.40    28800.00
03548               1.80    29600.00
03549               1.80    29600.00
03550              -3.80    28800.00
03551               4.20    30400.00
03552               1.00    29600.00
03553              -3.40    31200.00
03554               4.60    30400.00
03555              -2.20    31200.00
03556              -1.40    31200.00
03557               3.00    31200.00
03558              -2.40    32800.00
03559               1.00    32000.00
03560               2.00    32000.00
03561              -1.00    32800.00
03562              -0.20    32800.00
03563              -0.20    32800.00
03564              -0.40    32800.00
03565              -0.20    32800.00
03566               1.00    32800.00
03567              -0.60    32800.00
03568               0.20    32800.00
03569               1.80    32800.00
03570              -1.20    33600.00
03571               1.00    32800.00
03572               0.40    32800.00
03573              -1.00    33600.00
03574               2.00    33600.00
03575              -1.20    33600.00
03576              -0.40    32800.00
03577               1.00    32800.00
03578               0.00    32000.00
03579               0.40    32800.00
03580              -0.20    32800.00
03581               0.20    32800.00
03582               0.20    32800.00
03583               0.40    32000.00
03584               0.40    32800.00
03585              -0.20    32000.00
03586               0.60    32800.00
03587               0.20    32800.00
03588               0.20    32000.00
03589               0.40    31200.00
03590              -0.60    32000.00
03591               0.40    31200.00
03592               0.40    31200.00
03593              -0.40    31200.00
03594               0.40    30400.00
03595               0.20    30400.00
03596               0.40    30400.00
03597               0.40    30400.00
03598               0.20    29600.00
03599               0.20    29600.00
03600               0.00    28800.00
03601               0.40    28800.00
03602               0.20    28000.00
03603              -0.20    27200.00
03604               0.40    27200.00
03605               0.20    27200.00
03606               0.60    26400.00
03607               0.20    25600.00
03608              -0.20    26400.00
03609               0.40    25600.00
03610              -0.20    24800.00
03611               0.40    24800.00
03612               0.00    24800.00
03613              -0.40    24800.00
03614               0.40    24000.00
03615               0.40    23200.00
03616              -0.20    22400.00
03617               0.20    22400.00
03618               0.00    22400.00
03619               0.00    21600.00
03620              -0.20    20800.00
03621              -0.20    20800.00
03622              -0.40    19200.00
03623               0.20    19200.00
03624              -0.20    19200.00
03625              -0.40    18400.00
03626              -0.20    17600.00
03627              -0.40    17600.00
03628              -0.40    17600.00
03629              -0.20    16000.00
03630              -0.40    15200.00
03631              -0.20    15200.00
03632              -0.20    14400.00
03633               0.00    14400.00
03634               0.20    12800.00
03635              -0.40    12800.00
03636              -0.40    12800.00
03637               0.20    11200.00
03638              -0.60    11200.00
03639              -0.60    11200.00
03640              -0.40     9600.00
03641               0.20     8800.00
03642              -0.60     8800.00
03643              -0.40     8800.00
03644               0.20     8000.00
03645              -0.20     7200.00
03646              -0.40     7200.00
03647               0.20     6400.00
03648              -0.20     5600.00
03649              -0.20     4800.00
03650              -0.20     4800.00
03651               0.00     3200.00
03652              -0.60     2400.00
03653              -0.60     2400.00
03654              -0.40     1600.00
03655              -0.40      800.00
03656              -0.20        0.00
03657               0.40        0.00
03658               0.60     -800.00
03659               3.80    -1600.00
03660              -0.40    -1600.00
03661              -1.00    -1600.00
03662               1.40    -3200.00
03663               0.80    -3200.00
03664              -0.60    -4000.00
03665               3.60    -4000.00
03666              16.60    -4800.00
03667              21.80    -6400.00
03668             -25.00    -7200.00
03669             -23.80    -8000.00
03670              25.00    -8000.00
03671              -6.40    -8000.00
03672             -25.00    -8800.00
03673              25.00    -9600.00
03674              25.00    -9600.00
03675             -25.00   -10400.00
03676              25.00   -11200.00
03677              13.80   -12000.00
03678             -25.00   -12000.00
03679              25.00   -12800.00
03680             -23.60   -13600.00
03681              16.60   -14400.00
03682              -2.40   -14400.00
03683             -25.00   -14400.00
03684              25.00   -15200.00
03685             -21.40   -16000.00
03686             -21.40   -16800.00
03687              25.00   -17600.00
03688              -9.00   -17600.00
03689             -25.00   -18400.00
03690              25.00   -19200.00
03691               2.60   -19200.00
03692             -25.00   -19200.00
03693              25.00   -20800.00
03694              -2.20   -20800.00
03695             -14.00   -20800.00
03696              13.40   -20800.00
03697              -8.40   -22400.00
03698              -3.40   -22400.00
03699               6.00   -23200.00
03700              -4.40   -24000.00
03701              -0.60   -24000.00
03702               7.60   -24000.00
03703             -11.40   -25600.00
03704               3.60   -24800.00
03705               4.40   -25600.00
03706             -10.80   -25600.00
03707               5.80   -25600.00
03708               1.00   -26400.00
03709              -5.00   -27200.00
03710               1.00   -27200.00
03711               2.00   -27200.00
03712              -3.80   -28000.00
03713               0.80   -28800.00
03714               1.80   -28800.00
03715              -4.20   -28800.00
03716               1.20   -28800.00
03717               0.20   -29600.00
03718              -2.80   -29600.00
03719               1.80   -30400.00
03720              -0.60   -29600.00
03721              -2.80   -30400.00
03722               1.80   -30400.00
03723              -1.40   -30400.00
03724              -1.40   -30400.00
03725               1.00   -32000.00
03726              -1.20   -32000.00
03727              -0.20   -31200.00
03728              -0.40   -32000.00
03729              -1.20   -32000.00
03730              -0.80   -32000.00
03731              -0.40   -32000.00
03732              -0.80   -32000.00
03733              -0.60   -32800.00
03734              -0.40   -32000.00
03735              -1.40   -32800.00
03736              -0.20   -32800.00
03737              -0.60   -32800.00
03738              -1.80   -32800.00
03739               0.40   -32000.00
03740              -1.00   -32000.00
03741              -0.60   -32000.00
03742               0.40   -32800.00
03743              -1.40   -32800.00
03744              -0.60   -32000.00
03745               0.00   -32800.00
03746              -1.40   -32000.00
03747              -1.00   -32000.00
03748              -1.00   -32000.00
03749              -1.00   -32000.00
03750              -0.80   -31200.00
03751              -0.60   -31200.00
03752              -1.20   -32000.00
03753              -0.60   -31200.00
03754              -0.40   -31200.00
03755              -1.00   -31200.00
03756              -0.60   -30400.00
03757              -0.60   -30400.00
03758              -0.60   -30400.00
03759              -0.20   -29600.00
03760              -1.40   -30400.00
03761              -1.20   -29600.00
03762              -0.60   -28800.00
03763              -1.20   -29600.00
03764              -0.60   -28800.00
03765              -0.60   -28800.00
03766              -1.20   -27200.00
03767              -1.00   -28000.00
03768              -0.60   -28000.00
03769              -0.60   -27200.00
03770              -0.60   -27200.00
03771              -0.60   -26400.00
03772              -0.60   -26400.00
03773              -0.80   -25600.00
03774              -1.20   -25600.00
03775              -1.00   -25600.00
03776              -0.40   -24800.00
03777              -0.60   -24800.00
03778              -1.00   -24000.00
03779              -0.60   -23200.00
03780              -1.20   -23200.00
03781              -0.60   -23200.00
03782              -0.60   -22400.00
03783              -0.80   -22400.00
03784              -0.40   -21600.00
03785              -0.60   -21600.00
03786              -0.60   -20000.00
03787              -0.60   -20000.00
03788              -1.00   -19200.00
03789              -1.00   -18400.00
03790              -0.60   -19200.00
03791              -0.40   -17600.00
03792              -0.60   -17600.00
03793              -1.00   -16800.00
03794              -0.60   -16800.00
03795              -0.60   -16800.00
03796              -0.40   -16000.00
03797              -0.40   -15200.00
03798              -0.60   -14400.00
03799              -0.60   -14400.00
03800              -0.60   -13600.00
03801              -0.60   -12800.00
03802              -0.60   -12000.00
03803              -0.40   -12000.00
03804              -0.60   -11200.00
03805              -0.40   -10400.00
03806              -0.40    -9600.00
03807              -0.60    -9600.00
03808              -0.60    -8000.00
03809              -0.40    -8000.00
03810              -0.60    -8000.00
03811              -0.40    -7200.00
03812              -0.60    -6400.00
03813              -0.60    -5600.00
03814              -0.40    -4800.00
03815              -0.60    -4000.00
03816              -0.60    -4000.00
03817              -0.40    -3200.00
03818              -0.60    -3200.00
03819              -0.60    -2400.00
03820              -0.40    -1600.00
03821              -0.80     -800.00
03822              -0.40     -800.00
03823              -0.20        0.00
03824              -0.40        0.00
03825               1.00     1600.00
03826               3.00     1600.00
03827              -2.40     2400.00
03828              -0.60     3200.00
03829               1.20     3200.00
03830              -0.40     4800.00
03831               0.20     4000.00
03832              14.60     5600.00
03833              25.00     7200.00
03834             -25.00     8000.00
03835             -25.00     7200.00
03836              25.00     8800.00
03837              -9.20     8800.00
03838             -25.00     8800.00
03839              25.00     9600.00
03840             -25.00    10400.00
03841             -23.40    11200.00
03842              25.00    11200.00
03843             -25.00    12000.00
03844              25.00    12800.00
03845              11.60    12800.00
03846             -25.00    12800.00
03847              25.00    14400.00
03848             -25.00    14400.00
03849               8.40    16000.00
03850              25.00    16000.00
03851             -25.00    16000.00
03852              25.00    17600.00
03853              25.00    17600.00
03854             -25.00    17600.00
03855              -5.60    18400.00
03856              25.00    19200.00
03857             -25.00    20000.00
03858              -3.60    20800.00
03859              25.00    20800.00
03860             -25.00    21600.00
03861              17.60    21600.00
03862              -2.00    21600.00
03863             -15.80    22400.00
03864              16.60    23200.00
03865              -5.40    24000.00
03866              -7.00    24000.00
03867              16.60    24000.00
03868              -4.00    24800.00
03869             -14.00    25600.00
03870              19.60    25600.00
03871             -11.80    25600.00
03872              -4.20    26400.00
03873              14.00    27200.00
03874              -7.60    27200.00
03875              -0.20    27200.00
03876               5.40    28000.00
03877              -3.40    28000.00
03878              -2.20    28000.00
03879               5.20    28800.00
03880              -2.80    28800.00
03881              -1.00    28800.00
03882               3.00    29600.00
03883              -3.80    30400.00
03884               0.80    30400.00
03885               3.80    30400.00
03886              -4.20    30400.00
03887               2.80    30400.00
03888               1.00    31200.00
03889              -4.20    31200.00
03890               2.80    32000.00
03891              -1.40    31200.00
03892              -0.80    32000.00
03893               2.60    32000.00
03894              -0.20    32800.00
03895              -0.20    32800.00
03896               0.40    32800.00
03897               0.20    32800.00
03898              -0.20    32800.00
03899               1.00    33600.00
03900               0.20    33600.00
03901              -1.40    32800.00
03902               1.20    32000.00
03903              -1.80    33600.00
03904              -0.60    33600.00
03905               1.40    33600.00
03906              -1.00    33600.00
03907               2.80    32800.00
03908               1.00    32800.00
03909              -1.20    33600.00
03910               1.20    32800.00
03911              -0.80    33600.00
03912              -1.00    32800.00
03913              -0.20    32800.00
03914              -0.40    33600.00
03915               0.40    32000.00
03916               1.40    32800.00
03917               1.40    32000.00
03918              -0.20    32800.00
03919               0.80    32800.00
03920              -0.40    32000.00
03921              -0.60    31200.00
03922              -0.20    32800.00
03923              -1.00    31200.00
03924               0.40    31200.00
03925               1.60    31200.00
03926               0.40    30400.00
03927               1.40    30400.00
03928               0.80    30400.00
03929              -0.20    30400.00
03930               0.20    29600.00
03931              -1.00    28800.00
03932              -0.60    28800.00
03933              -0.20    28800.00
03934               0.40    28800.00
03935               1.00    28000.00
03936               0.80    28000.00
03937               0.40    28000.00
03938               0.20    27200.00
03939               0.20    27200.00
03940              -0.20    27200.00
03941              -0.60    26400.00
03942               0.40    25600.00
03943               0.20    25600.00
03944               0.40    25600.00
03945               0.60    24800.00
03946              -0.20    24000.00
03947               0.40    24000.00
03948              -0.20    24000.00
03949              -1.00    22400.00
03950              -0.40    22400.00
03951              -0.80    22400.00
03952               0.20    21600.00
03953               0.20    21600.00
03954               0.20    20800.00
03955               0.20    20000.00
03956               0.20    19200.00
03957               0.40    19200.00
03958              -0.20    18400.00
03959              -0.60    18400.00
03960              -0.60    17600.00
03961              -0.60    16800.00
03962               0.20    16800.00
03963              -0.60    16000.00
03964               0.00    15200.00
03965               0.20    15200.00
03966              -0.40    14400.00
03967               0.20    12800.00
03968              -0.60    12800.00
03969              -1.20    12800.00
03970              -0.20    12000.00
03971              -0.20    12000.00
03972              -0.20    11200.00
03973              -0.20     9600.00
03974               0.40     9600.00
03975              -0.20     8800.00
03976              -0.40     8800.00
03977              -0.20     8000.00
03978              -0.60     7200.00
03979              -0.80     7200.00
03980              -0.20     6400.00
03981              -0.60     5600.00
03982               0.00     5600.00
03983              -0.40     4000.00
03984               0.40     4000.00
03985               0.20     3200.00
03986              -0.40     2400.00
03987              -1.00     1600.00
03988              -0.60     1600.00
03989               0.40      800.00
03990              -0.40        0.00
03991              -0.20        0.00
03992               3.60     -800.00
03993               1.20    -1600.00
03994              -2.60    -1600.00
03995               2.00    -2400.00
03996               1.20    -3200.00
03997              -1.00    -3200.00
03998               1.80    -4000.00
03999              10.60    -4000.00
04000              25.00    -6400.00
04001             -18.60    -7200.00
04002             -25.00    -7200.00
04003              16.20    -8000.00
04004              14.80    -8800.00
04005             -25.00    -8000.00
04006              10.60    -8800.00
04007              25.00    -9600.00
04008             -25.00   -10400.00
04009              11.80   -11200.00
04010              25.00   -12000.00
04011             -25.00   -12000.00
04012              23.40   -12800.00
04013               1.20   -12800.00
04014              -6.40   -13600.00
04015              22.20   -14400.00
04016             -25.00   -14400.00
04017              25.00   -15200.00
04018              11.60   -16000.00
04019             -25.00   -16800.00
04020              25.00   -16800.00
04021              14.80   -17600.00
04022             -25.00   -17600.00
04023               8.20   -18400.00
04024              24.40   -19200.00
04025             -25.00   -19200.00
04026              12.40   -20000.00
04027              16.60   -20800.00
04028             -21.80   -21600.00
04029              10.60   -21600.00
04030              -2.00   -22400.00
04031              -8.40   -22400.00
04032               6.20   -23200.00
04033              -1.00   -23200.00
04034              -4.40   -23200.00
04035              10.00   -24000.00
04036              -7.60   -24000.00
04037              -4.40   -24800.00
04038              10.60   -24800.00
04039             -11.40   -25600.00
04040               1.20   -26400.00
04041               6.60   -26400.00
04042              -6.80   -27200.00
04043              -0.60   -26400.00
04044               3.00   -27200.00
04045              -3.80   -27200.00
04046              -0.60   -28800.00
04047               3.20   -28800.00
04048              -3.80   -28800.00
04049              -0.20   -28800.00
04050               1.40   -28800.00
04051              -3.60   -29600.00
04052               1.20   -29600.00
04053               1.20   -29600.00
04054              -3.60   -30400.00
04055               1.40   -30400.00
04056              -1.00   -30400.00
04057              -2.80   -30400.00
04058               1.20   -30400.00
04059              -1.20   -30400.00
04060              -0.40   -31200.00
04061               0.60   -31200.00
04062              -1.20   -32000.00
04063              -1.00   -32000.00
04064              -0.40   -32000.00
04065              -0.60   -32000.00
04066              -0.60   -32000.00
04067              -0.20   -32000.00
04068              -1.00   -32000.00
04069              -0.80   -32800.00
04070              -0.20   -32000.00
04071              -2.00   -32800.00
04072              -0.20   -32000.00
04073              -0.40   -32000.00
04074              -1.60   -32800.00
04075               0.60   -32000.00
04076              -1.20   -32000.00
04077              -1.00   -32800.00
04078               0.20   -32800.00
04079              -1.00   -32000.00
04080              -0.60   -32000.00
04081              -0.60   -32000.00
04082              -0.80   -32800.00
04083              -0.80   -32000.00
04084              -1.00   -32000.00
04085              -1.00   -32000.00
04086              -1.00   -31200.00
04087              -0.60   -31200.00
04088              -1.00   -30400.00
04089              -0.60   -30400.00
04090              -0.60   -30400.00
04091              -1.20   -30400.00
04092              -0.40   -29600.00
04093              -0.60   -29600.00
04094              -1.40   -29600.00
04095              -0.40   -29600.00
04096              -0.60   -28800.00
04097              -1.20   -29600.00
04098              -0.60   -28800.00
04099              -0.60   -28800.00
04100              -0.80   -28800.00
04101              -1.00   -27200.00
04102              -0.60   -27200.00
04103              -1.00   -27200.00
04104              -1.20   -26400.00
04105              -0.60   -27200.00
04106              -0.40   -25600.00
04107              -0.60   -25600.00
04108              -0.60   -25600.00
04109              -0.60   -24800.00
04110              -0.60   -24800.00
04111              -0.60   -24000.00
04112              -0.60   -24000.00
04113              -0.40   -24000.00
04114              -0.60   -23200.00
04115              -0.60   -23200.00
04116              -0.60   -22400.00
04117              -0.80   -22400.00
04118              -0.80   -20800.00
04119              -0.60   -20800.00
04120              -0.60   -20000.00
04121              -0.80   -20000.00
04122              -0.80   -19200.00
04123              -0.60   -18400.00
04124              -0.60   -17600.00
04125              -0.40   -17600.00
04126              -1.00   -16800.00
04127              -0.60   -16800.00
04128              -0.40   -16000.00
04129              -0.60   -16000.00
04130              -0.60   -15200.00
04131              -0.60   -14400.00
04132              -1.00   -14400.00
04133              -1.00   -13600.00
04134              -0.60   -12800.00
04135              -1.00   -12800.00
04136              -1.00   -12000.00
04137              -0.40   -11200.00
04138              -0.60   -10400.00
04139              -1.20    -9600.00
04140              -0.60    -9600.00
04141              -0.60    -8800.00
04142              -0.60    -8000.00
04143              -1.00    -8000.00
04144              -0.60    -7200.00
04145              -0.60    -6400.00
04146              -1.00    -5600.00
04147              -0.60    -5600.00
04148              -0.20    -4800.00
04149              -1.80    -4000.00
04150              -0.60    -4000.00
04151              -0.20    -3200.00
04152              -1.40    -2400.00
04153              -0.20    -1600.00
04154              -0.40     -800.00
04155              -0.40     -800.00
04156              -0.40        0.00
04157               0.20        0.00
04158               0.20     1600.00
04159               2.60     1600.00
04160               0.00     2400.00
04161              -2.00     2400.00
04162               0.40     3200.00
04163               0.60     3200.00
04164              -1.20     4800.00
04165               7.60     5600.00
04166              25.00     7200.00
04167             -12.60     7200.00
04168             -25.00     8000.00
04169              15.00     8800.00
04170              13.80     8000.00
04171             -25.00     8800.00
04172              25.00     9600.00
04173              25.00     9600.00
04174             -25.00    10400.00
04175              25.00    11200.00
04176             -25.00    11200.00
04177             -25.00    12000.00
04178              25.00    12800.00
04179             -25.00    12800.00
04180              25.00    14400.00
04181              -2.80    14400.00
04182             -25.00    15200.00
04183              25.00    15200.00
04184             -25.00    16000.00
04185             -17.00    16000.00
04186              25.00    17600.00
04187             -23.00    18400.00
04188             -25.00    18400.00
04189              25.00    18400.00
04190              -3.00    19200.00
04191             -25.00    19200.00
04192              25.00    20800.00
04193             -16.60    21600.00
04194              -3.00    21600.00
04195              18.00    22400.00
04196             -23.80    22400.00
04197              11.60    22400.00
04198               3.80    24000.00
04199             -12.40    24000.00
04200              10.00    24800.00
04201               9.40    24000.00
04202             -20.60    24800.00
04203              14.00    25600.00
04204               2.60    26400.00
04205             -16.40    25600.00
04206              14.80    26400.00
04207              -2.40    27200.00
04208              -6.00    27200.00
04209               6.20    27200.00
04210              -0.20    28000.00
04211              -5.20    28000.00
04212               4.60    28800.00
04213               0.20    28800.00
04214              -4.40    28800.00
04215               4.00    29600.00
04216              -1.40    29600.00
04217              -2.60    30400.00
04218               5.40    30400.00
04219              -2.20    30400.00
04220              -0.60    31200.00
04221               3.80    31200.00
04222              -4.20    31200.00
04223               1.20    32000.00
04224               1.40    31200.00
04225              -2.60    32000.00
04226               2.20    32800.00
04227               0.60    32000.00
04228              -1.40    32000.00
04229              -0.40    32800.00
04230               0.40    32800.00
04231               0.00    32800.00
04232               0.20    33600.00
04233               1.20    32800.00
04234              -0.60    32800.00
04235               1.00    32800.00
04236               0.60    33600.00
04237              -1.00    33600.00
04238               1.40    32800.00
04239              -1.40    33600.00
04240               0.40    32800.00
04241               1.80    33600.00
04242              -1.60    33600.00
04243               0.60    32800.00
04244               0.40    33600.00
04245              -0.20    32000.00
04246               0.40    33600.00
04247               0.20    33600.00
04248               0.40    32800.00
04249               0.00    32800.00
04250               0.60    32800.00
04251               0.20    32800.00
04252              -0.20    32800.00
04253               0.40    32000.00
04254               0.20    32800.00
04255               0.60    32000.00
04256              -0.40    32000.00
04257              -0.20    32000.00
04258               1.20    31200.00
04259               0.00    30400.00
04260               0.00    31200.00
04261               1.00    31200.00
04262               0.20    30400.00
04263               0.40    30400.00
04264               0.40    29600.00
04265               0.20    29600.00
04266               0.20    28800.00
04267               0.20    28800.00
04268               0.40    28000.00
04269              -0.40    28800.00
04270              -0.40    27200.00
04271              -0.20    27200.00
04272               0.20    27200.00
04273               0.40    26400.00
04274              -0.60    25600.00
04275               0.40    25600.00
04276               0.40    25600.00
04277              -0.20    25600.00
04278               0.60    24800.00
04279              -0.40    24000.00
04280              -0.20    24000.00
04281               0.20    24000.00
04282              -0.20    24000.00
04283               0.20    22400.00
04284              -0.40    22400.00
04285              -0.20    21600.00
04286               0.20    21600.00
04287              -0.20    20800.00
04288              -0.40    20800.00
04289              -0.20    19200.00
04290               0.20    19200.00
04291              -0.20    18400.00
04292               0.00    18400.00
04293              -0.20    17600.00
04294              -0.40    16800.00
04295               0.20    16800.00
04296              -0.20    16000.00
04297              -0.40    16000.00
04298               0.20    15200.00
04299              -0.40    14400.00
04300              -0.20    14400.00
04301               0.20    13600.00
04302              -0.60    12800.00
04303              -0.40    12000.00
04304              -0.20    11200.00
04305              -0.20    11200.00
04306              -0.60    10400.00
04307               0.40    10400.00
04308              -0.20     9600.00
04309              -0.60     8800.00
04310               0.20     8800.00
04311              -0.20     8000.00
04312              -0.60     8000.00
04313               0.00     6400.00
04314               0.20     5600.00
04315              -0.20     5600.00
04316              -0.40     4800.00
04317              -0.20     4000.00
04318              -0.20     3200.00
04319              -0.60     3200.00
04320              -1.00     2400.00
04321              -0.20     1600.00
04322              -0.40      800.00
04323              -0.40        0.00
04324               0.80     -800.00
04325               1.80     -800.00
04326               3.20     -800.00
04327              -1.20    -1600.00
04328               0.20    -2400.00
04329               1.20    -3200.00
04330               0.40    -3200.00
04331              -0.40    -4000.00
04332               6.20    -4800.00
04333              23.00    -6400.00
04334               5.40    -6400.00
04335             -25.00    -7200.00
04336              -2.80    -8000.00
04337              25.00    -8000.00
04338             -25.00    -8000.00
04339             -22.00    -8800.00
04340              25.00    -9600.00
04341             -20.80   -10400.00
04342             -25.00   -10400.00
04343              25.00   -12000.00
04344             -25.00   -11200.00
04345             -12.60   -12800.00
04346              25.00   -12800.00
04347             -25.00   -13600.00
04348              25.00   -14400.00
04349             -25.00   -14400.00
04350               1.20   -14400.00
04351              25.00   -16000.00
04352             -25.00   -16000.00
04353               4.20   -16800.00
04354              25.00   -16800.00
04355             -25.00   -17600.00
04356             -13.40   -18400.00
04357              25.00   -19200.00
04358             -22.20   -19200.00
04359             -10.20   -20000.00
04360              25.00   -20800.00
04361             -18.20   -20800.00
04362              -0.40   -20800.00
04363               7.60   -21600.00
04364             -11.80   -22400.00
04365               3.60   -23200.00
04366               3.00   -22400.00
04367              -6.80   -24000.00
04368               7.00   -24000.00
04369               0.40   -24000.00
04370             -11.40   -24800.00
04371              11.20   -24800.00
04372              -4.60   -25600.00
04373              -6.80   -25600.00
04374               9.20   -26400.00
04375              -4.40   -26400.00
04376              -4.20   -27200.00
04377               4.40   -27200.00
04378              -1.80   -27200.00
04379              -2.80   -28000.00
04380               3.40   -28000.00
04381              -2.00   -28800.00
04382              -2.80   -28800.00
04383               2.60   -28800.00
04384              -2.80   -28800.00
04385              -0.60   -28800.00
04386               2.80   -29600.00
04387              -3.00   -30400.00
04388              -0.20   -30400.00
04389               1.00   -30400.00
04390              -3.40   -30400.00
04391               0.20   -30400.00
04392               0.00   -31200.00
04393              -1.20   -32000.00
04394               0.60   -31200.00
04395              -1.00   -32000.00
04396              -1.40   -32000.00
04397              -0.20   -32800.00
04398              -0.60   -32000.00
04399              -1.20   -32000.00
04400              -0.20   -32000.00
04401              -1.00   -32000.00
04402              -1.00   -32000.00
04403               0.20   -32000.00
04404              -1.80   -32000.00
04405              -0.80   -32000.00
04406               0.40   -32000.00
04407              -2.40   -32800.00
04408               0.20   -32000.00
04409              -0.20   -32000.00
04410              -2.60   -32800.00
04411              -0.40   -32800.00
04412               0.20   -32800.00
04413              -1.20   -32000.00
04414              -1.80   -32000.00
04415               0.00   -32000.00
04416              -0.20   -32000.00
04417              -2.20   -32000.00
04418              -0.60   -31200.00
04419               0.80   -32000.00
04420              -1.80   -30400.00
04421              -1.40   -31200.00
04422               1.00   -30400.00
04423              -1.40   -30400.00
04424              -2.60   -30400.00
04425               1.00   -30400.00
04426              -0.60   -29600.00
04427              -2.80   -29600.00
04428               1.00   -28800.00
04429              -0.20   -29600.00
04430              -2.60   -28800.00
04431              -0.40   -28800.00
04432               0.20   -28800.00
04433              -1.80   -28000.00
04434              -1.00   -28000.00
04435              -0.20   -27200.00
04436              -0.40   -27200.00
04437              -1.00   -27200.00
04438               0.20   -26400.00
04439              -0.40   -25600.00
04440              -1.20   -25600.00
04441              -1.20   -25600.00
04442              -0.60   -25600.00
04443              -0.60   -24800.00
04444              -1.00   -24000.00
04445              -0.40   -24000.00
04446              -0.20   -23200.00
04447              -1.00   -23200.00
04448              -0.60   -23200.00
04449              -0.40   -22400.00
04450              -0.80   -22400.00
04451              -0.60   -21600.00
04452              -0.80   -20800.00
04453              -0.40   -20800.00
04454              -1.00   -20000.00
04455              -1.20   -20000.00
04456              -0.60   -18400.00
04457              -0.60   -18400.00
04458               0.20   -17600.00
04459              -1.00   -16800.00
04460              -0.60   -16800.00
04461              -0.20   -16000.00
04462              -0.60   -16000.00
04463              -0.60   -15200.00
04464              -0.40   -14400.00
04465              -0.60   -14400.00
04466              -0.60   -13600.00
04467              -0.60   -13600.00
04468              -0.60   -12800.00
04469              -1.20   -11200.00
04470              -0.60   -12000.00
04471              -0.60   -11200.00
04472              -0.60   -10400.00
04473              -0.60    -9600.00
04474              -0.60    -9600.00
04475              -0.60    -8000.00
04476              -0.60    -8000.00
04477              -0.80    -7200.00
04478              -0.60    -6400.00
04479              -0.60    -6400.00
04480              -0.60    -4800.00
04481              -0.60    -4800.00
04482              -0.80    -4000.00
04483              -0.60    -3200.00
04484              -0.60    -3200.00
04485              -0.60    -3200.00
04486              -0.60    -1600.00
04487              -0.40    -1600.00
04488              -1.00     -800.00
04489              -0.60        0.00
04490              -0.20        0.00
04491               0.20      800.00
04492               1.80     1600.00
04493               2.20     2400.00
04494              -2.60     2400.00
04495              -0.20     3200.00
04496               1.00     3200.00
04497              -1.20     4000.00
04498               3.00     4800.00
04499              23.80     5600.00
04500              15.60     8000.00
04501             -25.00     8000.00
04502              -6.00     8000.00
04503              25.00     8000.00
04504             -25.00     8800.00
04505               5.20     9600.00
04506              25.00     9600.00
04507             -25.00     9600.00
04508              25.00    11200.00
04509              25.00    11200.00
04510             -25.00    12000.00
04511              25.00    12800.00
04512             -25.00    12800.00
04513              12.20    14400.00
04514              25.00    14400.00
04515             -25.00    14400.00
04516              25.00    15200.00
04517              14.00    16000.00
04518             -25.00    16000.00
04519              25.00    16800.00
04520               5.20    17600.00
04521             -25.00    18400.00
04522              17.60    18400.00
04523              23.40    19200.00
04524             -25.00    19200.00
04525              24.40    20800.00
04526              11.60    20800.00
04527             -23.60    21600.00
04528              25.00    21600.00
04529             -18.80    22400.00
04530              -2.20    22400.00
04531              12.40    24000.00
04532             -11.00    24000.00
04533               0.40    24000.00
04534              17.00    24800.00
04535             -15.80    24800.00
04536              -1.00    25600.00
04537              15.80    25600.00
04538             -19.80    25600.00
04539               8.20    26400.00
04540               7.60    26400.00
04541             -10.00    27200.00
04542               4.20    27200.00
04543               3.40    28000.00
04544              -6.20    28000.00
04545               1.80    28000.00
04546               4.40    28800.00
04547              -5.80    28800.00
04548               1.80    29600.00
04549               2.00    29600.00
04550              -5.20    30400.00
04551               3.60    30400.00
04552               1.40    30400.00
04553              -4.20    31200.00
04554               4.40    31200.00
04555              -1.20    31200.00
04556              -2.20    31200.00
04557               3.00    31200.00
04558              -2.00    31200.00
04559               0.40    32800.00
04560               1.40    32000.00
04561              -0.40    32800.00
04562              -0.60    32800.00
04563              -0.40    32800.00
04564               0.40    32800.00
04565              -0.40    32800.00
04566               1.00    33600.00
04567              -0.20    33600.00
04568               0.20    33600.00
04569               1.80    32800.00
04570              -1.40    33600.00
04571               1.40    32800.00
04572               0.20    33600.00
04573              -1.00    32800.00
04574               2.60    33600.00
04575              -1.20    33600.00
04576              -0.60    33600.00
04577               1.20    32800.00
04578              -0.20    33600.00
04579               0.40    33600.00
04580               0.40    33600.00
04581               0.20    33600.00
04582               0.20    32800.00
04583               0.40    33600.00
04584               0.20    32000.00
04585              -0.20    32800.00
04586               1.00    32000.00
04587               0.20    32000.00
04588               0.40    32000.00
04589               0.60    32800.00
04590              -0.40    31200.00
04591               0.80    30400.00
04592               0.60    31200.00
04593              -0.40    30400.00
04594               0.40    30400.00
04595               0.00    30400.00
04596              -0.20    30400.00
04597               0.20    29600.00
04598              -0.20    28800.00
04599               0.20    28800.00
04600              -0.20    28800.00
04601               0.40    28800.00
04602               0.20    28000.00
04603              -0.40    28000.00
04604               0.20    28000.00
04605               0.20    28000.00
04606               0.20    27200.00
04607              -0.40    26400.00
04608              -0.20    26400.00
04609               0.40    25600.00
04610              -0.40    25600.00
04611               0.20    24800.00
04612              -0.20    24800.00
04613              -0.60    24000.00
04614               0.40    24000.00
04615              -0.20    24000.00
04616               0.40    22400.00
04617               0.00    22400.00
04618              -0.40    22400.00
04619               1.00    21600.00
04620              -0.60    21600.00
04621              -0.60    20000.00
04622               0.00    19200.00
04623               0.00    19200.00
04624               0.20    19200.00
04625              -0.20    17600.00
04626              -0.40    17600.00
04627              -0.20    17600.00
04628               0.00    16000.00
04629               0.00    16000.00
04630              -0.40    16000.00
04631               0.20    15200.00
04632              -0.60    14400.00
04633               0.20    13600.00
04634               0.40    13600.00
04635              -0.20    12800.00
04636               0.20    12800.00
04637               0.40    12000.00
04638              -0.60    11200.00
04639               0.00    11200.00
04640              -0.40    10400.00
04641               0.20     9600.00
04642              -0.40     8800.00
04643              -0.40     8000.00
04644              -0.20     8000.00
04645              -0.20     7200.00
04646              -0.40     6400.00
04647               0.40     7200.00
04648               0.00     5600.00
04649              -0.20     4800.00
04650               0.00     4000.00
04651               0.20     3200.00
04652              -0.40     3200.00
04653              -0.60     2400.00
04654              -0.40     2400.00
04655              -0.40     1600.00
04656              -0.40        0.00
04657               0.00        0.00
04658               0.60     -800.00
04659               3.60     -800.00
04660              -0.60    -1600.00
04661              -1.00    -1600.00
04662               1.40    -3200.00
04663               1.00    -3200.00
04664              -0.60    -4000.00
04665               3.60    -4000.00
04666              16.40    -4800.00
04667              22.00    -6400.00
04668             -25.00    -7200.00
04669             -24.20    -8000.00
04670              25.00    -8000.00
04671              -6.00    -8800.00
04672             -25.00    -8000.00
04673              25.00    -8800.00
04674              25.00   -10400.00
04675             -25.00   -10400.00
04676              25.00   -11200.00
04677              14.20   -11200.00
04678             -25.00   -12000.00
04679              25.00   -12800.00
04680             -23.60   -12800.00
04681              16.40   -14400.00
04682              -2.20   -14400.00
04683             -25.00   -15200.00
04684              25.00   -15200.00
04685             -20.60   -16000.00
04686             -22.20   -16800.00
04687              25.00   -16800.00
04688              -8.20   -17600.00
04689             -25.00   -18400.00
04690              25.00   -19200.00
04691               3.00   -19200.00
04692             -25.00   -19200.00
04693              25.00   -20000.00
04694              -2.80   -20000.00
04695             -13.40   -20800.00
04696              13.80   -21600.00
04697              -9.80   -22400.00
04698              -1.80   -22400.00
04699               5.80   -23200.00
04700              -5.80   -23200.00
04701               1.40   -24000.00
04702               7.40   -24000.00
04703             -13.00   -24000.00
04704               5.60   -25600.00
04705               4.40   -25600.00
04706             -13.00   -25600.00
04707               7.80   -26400.00
04708               0.80   -26400.00
04709              -6.60   -27200.00
04710               3.00   -27200.00
04711               1.20   -27200.00
04712              -4.40   -28000.00
04713               2.00   -28000.00
04714               0.80   -28800.00
04715              -4.00   -28800.00
04716               1.80   -28800.00
04717              -1.20   -29600.00
04718              -2.80   -29600.00
04719               2.60   -29600.00
04720              -1.40   -29600.00
04721              -2.20   -30400.00
04722               2.20   -30400.00
04723              -2.80   -30400.00
04724              -1.40   -31200.00
04725               1.00   -32000.00
04726              -2.00   -31200.00
04727               0.60   -32000.00
04728              -0.40   -32000.00
04729              -1.80   -32000.00
04730              -0.60   -32000.00
04731              -1.00   -32000.00
04732              -1.20   -32000.00
04733              -0.60   -32000.00
04734              -0.40   -32000.00
04735              -1.80   -32000.00
04736              -0.20   -32000.00
04737              -1.00   -32000.00
04738              -2.00   -32000.00
04739               0.40   -32000.00
04740              -1.20   -32000.00
04741              -0.80   -32000.00
04742               0.40   -32000.00
04743              -1.80   -32800.00
04744              -0.60   -32000.00
04745              -0.40   -32000.00
04746              -1.20   -32000.00
04747              -0.80   -32000.00
04748              -0.60   -32000.00
04749              -1.20   -32000.00
04750              -1.00   -32000.00
04751              -0.60   -32000.00
04752              -1.00   -31200.00
04753              -0.40   -32000.00
04754              -0.40   -30400.00
04755              -1.20   -31200.00
04756              -0.40   -30400.00
04757              -0.60   -30400.00
04758              -1.00   -29600.00
04759              -0.20   -30400.00
04760              -1.20   -29600.00
04761              -1.00   -29600.00
04762              -0.60   -28800.00
04763              -0.60   -29600.00
04764              -1.00   -28800.00
04765              -0.60   -28800.00
04766              -0.60   -28000.00
04767              -0.80   -27200.00
04768              -0.40   -27200.00
04769              -0.20   -27200.00
04770              -0.60   -27200.00
04771              -0.60   -26400.00
04772              -0.60   -26400.00
04773              -0.40   -25600.00
04774              -1.20   -25600.00
04775              -0.60   -25600.00
04776              -0.20   -24800.00
04777              -0.60   -24000.00
04778              -1.00   -24000.00
04779              -0.20   -23200.00
04780              -1.00   -23200.00
04781              -0.60   -22400.00
04782              -0.60   -22400.00
04783              -0.60   -22400.00
04784              -0.40   -20800.00
04785              -0.60   -20800.00
04786              -0.40   -20000.00
04787              -0.40   -20000.00
04788              -1.20   -20000.00
04789              -0.80   -18400.00
04790              -0.60   -18400.00
04791              -0.80   -17600.00
04792              -0.60   -17600.00
04793              -0.60   -16800.00
04794              -0.80   -16000.00
04795              -0.60   -16000.00
04796              -0.60   -16000.00
04797              -0.60   -14400.00
04798              -0.60   -14400.00
04799              -1.00   -13600.00
04800              -0.40   -13600.00
04801              -1.00   -12800.00
04802              -1.00   -12800.00
04803              -0.60   -11200.00
04804              -0.40   -10400.00
04805              -0.60   -10400.00
04806              -0.60   -10400.00
04807              -0.60    -9600.00
04808              -0.60    -8800.00
04809              -0.60    -8000.00
04810              -0.60    -8000.00
04811              -0.60    -7200.00
04812              -0.60    -6400.00
04813              -0.60    -5600.00
04814              -0.60    -4800.00
04815              -0.60    -4000.00
04816              -0.60    -3200.00
04817              -0.40    -3200.00
04818              -0.40    -3200.00
04819              -0.60    -1600.00
04820              -0.60    -1600.00
04821              -0.40     -800.00
04822              -0.60        0.00
04823              -0.20        0.00
04824              -0.20     1600.00
04825               0.40     1600.00
04826               3.40     2400.00
04827              -2.20     2400.00
04828              -1.00     3200.00
04829               1.20     3200.00
04830               0.00     4000.00
04831               0.20     4800.00
04832              14.40     5600.00
04833              25.00     8000.00
04834             -25.00     7200.00
04835             -25.00     8000.00
04836              25.00     8800.00
04837              -8.80     8000.00
04838             -25.00     9600.00
04839              25.00     9600.00
04840             -25.00     9600.00
04841             -24.40    11200.00
04842              25.00    11200.00
04843             -25.00    12000.00
04844              25.00    12800.00
04845              13.00    12800.00
04846             -25.00    13600.00
04847              25.00    14400.00
04848             -25.00    14400.00
04849               6.60    16000.00
04850              25.00    16000.00
04851             -25.00    16800.00
04852              25.00    16800.00
04853              25.00    17600.00
04854             -25.00    17600.00
04855              -6.60    18400.00
04856              25.00    19200.00
04857             -25.00    19200.00
04858              -4.40    20800.00
04859              25.00    20000.00
04860             -25.00    20800.00
04861              17.20    21600.00
04862              -1.80    22400.00
04863             -16.60    23200.00
04864              17.00    24000.00
04865              -5.40    23200.00
04866              -7.40    24000.00
04867              16.40    24800.00
04868              -4.40    24800.00
04869             -15.00    25600.00
04870              20.40    26400.00
04871             -11.60    25600.00
04872              -4.40    26400.00
04873              14.00    27200.00
04874              -8.40    27200.00
04875              -0.60    27200.00
04876               5.80    28000.00
04877              -3.40    28000.00
04878              -2.20    28000.00
04879               5.20    28800.00
04880              -3.00    28800.00
04881              -1.80    28800.00
04882               3.40    30400.00
04883              -3.80    30400.00
04884               1.00    30400.00
04885               3.80    31200.00
04886              -4.40    31200.00
04887               2.80    31200.00
04888               1.20    31200.00
04889              -3.80    31200.00
04890               3.40    32000.00
04891              -1.00    32000.00
04892              -0.80    32000.00
04893               2.60    32800.00
04894              -0.60    32800.00
04895              -0.60    32000.00
04896               0.40    32800.00
04897               0.20    32800.00
04898              -0.20    33600.00
04899               1.00    32800.00
04900               0.40    32800.00
04901              -0.80    32800.00
04902               1.40    33600.00
04903              -0.80    32800.00
04904              -0.40    33600.00
04905               1.40    33600.00
04906              -1.40    33600.00
04907               1.80    33600.00
04908               0.40    33600.00
04909              -1.20    33600.00
04910               1.40    33600.00
04911               0.40    33600.00
04912               0.20    33600.00
04913               0.20    32800.00
04914               0.20    32800.00
04915               0.20    32800.00
04916               0.20    32000.00
04917               1.00    32800.00
04918              -0.40    32800.00
04919               0.40    32000.00
04920               0.20    32000.00
04921               0.00    32000.00
04922               0.60    32000.00
04923              -0.60    31200.00
04924               0.20    31200.00
04925               1.20    31200.00
04926              -0.20    31200.00
04927               0.20    30400.00
04928               0.60    30400.00
04929              -0.20    30400.00
04930              -0.40    29600.00
04931               0.40    29600.00
04932              -0.60    29600.00
04933              -0.40    28800.00
04934               0.40    28800.00
04935               0.20    28800.00
04936              -0.40    28000.00
04937               0.20    28000.00
04938              -0.20    27200.00
04939               0.60    27200.00
04940               0.40    27200.00
04941              -0.60    26400.00
04942               0.80    25600.00
04943               0.20    24800.00
04944              -0.20    24800.00
04945               0.40    24800.00
04946              -0.60    24800.00
04947              -0.40    24000.00
04948               0.20    23200.00
04949               0.20    23200.00
04950              -0.20    22400.00
04951               0.20    22400.00
04952               0.40    21600.00
04953              -0.20    21600.00
04954               0.20    20000.00
04955              -0.20    20000.00
04956              -0.20    19200.00
04957               0.40    19200.00
04958               0.20    18400.00
04959              -0.40    18400.00
04960               0.00    17600.00
04961              -0.40    16800.00
04962               0.40    16800.00
04963              -0.20    16000.00
04964               0.00    15200.00
04965               0.20    14400.00
04966               0.20    14400.00
04967               0.20    13600.00
04968               0.20    13600.00
04969              -0.40    12800.00
04970               0.40    12000.00
04971              -0.20    12000.00
04972               0.20    11200.00
04973              -0.20    10400.00
04974              -0.20     9600.00
04975              -0.20     8800.00
04976              -0.40     8000.00
04977              -0.20     8000.00
04978               0.20     8000.00
04979              -0.40     6400.00
04980               0.00     7200.00
04981              -0.20     5600.00
04982              -0.20     5600.00
04983              -0.40     4800.00
04984               0.20     3200.00
04985              -0.20     3200.00
04986              -0.40     2400.00
04987              -0.60     1600.00
04988              -0.20     1600.00
04989              -0.40        0.00
04990               0.20        0.00
04991               0.40        0.00
04992               2.80     -800.00
04993               1.20    -1600.00
04994              -1.40    -1600.00
04995               1.20    -2400.00
04996               0.60    -3200.00
04997              -0.40    -4000.00
04998               1.40    -4000.00
04999              10.00    -4800.00
05000              25.00    -5600.00
