Unit:(mV)
                     CH1         CH2
Frequency              ? 299.919 kHz
00001              25.00    -6400.00
00002               0.20    -8000.00
00003             -25.00    -7200.00
00004               4.20    -8000.00
00005              25.00    -8800.00
00006             -25.00    -8800.00
00007             -17.20    -8800.00
00008              25.00   -10400.00
00009             -25.00   -10400.00
00010             -25.00   -10400.00
00011              25.00   -11200.00
00012             -25.00   -12000.00
00013              -7.60   -12800.00
00014              24.40   -12800.00
00015             -15.60   -13600.00
00016              25.00   -14400.00
00017             -25.00   -14400.00
00018              15.40   -16000.00
00019              25.00   -16000.00
00020             -25.00   -16000.00
00021              15.40   -16800.00
00022              25.00   -17600.00
00023             -25.00   -18400.00
00024              -4.40   -19200.00
00025              25.00   -19200.00
00026             -23.00   -19200.00
00027               0.40   -20000.00
00028              25.00   -20800.00
00029             -16.20   -20800.00
00030               9.00   -22400.00
00031               6.60   -22400.00
00032              -7.00   -23200.00
00033              10.00   -23200.00
00034               3.60   -24000.00
00035              -1.20   -24000.00
00036              13.40   -24000.00
00037               0.20   -24800.00
00038              -4.20   -25600.00
00039              17.00   -25600.00
00040              -4.40   -26400.00
00041               2.00   -26400.00
00042              14.80   -27200.00
00043              -2.20   -27200.00
00044               4.00   -27200.00
00045              10.20   -27200.00
00046               1.20   -28800.00
00047               5.40   -28800.00
00048               9.80   -28000.00
00049               2.00   -29600.00
00050               5.80   -29600.00
00051               8.40   -29600.00
00052               2.80   -30400.00
00053               7.60   -29600.00
00054               9.00   -30400.00
00055               3.80   -30400.00
00056               8.20   -31200.00
00057               7.40   -31200.00
00058               5.20   -32000.00
00059               9.20   -32000.00
00060               6.80   -32000.00
00061               7.80   -32000.00
00062              10.20   -32000.00
00063               6.80   -32800.00
00064               7.60   -32800.00
00065              10.00   -32800.00
00066               7.80   -32800.00
00067               8.40   -32800.00
00068              10.60   -32800.00
00069               9.00   -32800.00
00070               8.20   -32800.00
00071              10.80   -32800.00
00072               8.60   -32800.00
00073               9.20   -32800.00
00074              11.20   -33600.00
00075               9.20   -32800.00
00076              10.80   -32800.00
00077               9.60   -32800.00
00078               9.00   -32800.00
00079              10.80   -32800.00
00080               9.20   -32800.00
00081               9.00   -32800.00
00082               9.80   -32800.00
00083               9.00   -32800.00
00084               8.40   -32800.00
00085               8.60   -32000.00
00086               8.60   -32800.00
00087               7.40   -32000.00
00088               8.20   -32000.00
00089               7.60   -32000.00
00090               6.80   -32000.00
00091               8.20   -32000.00
00092               7.40   -30400.00
00093               7.00   -31200.00
00094               7.40   -31200.00
00095               5.80   -30400.00
00096               5.80   -30400.00
00097               6.00   -29600.00
00098               6.00   -29600.00
00099               6.80   -28800.00
00100               5.80   -29600.00
00101               5.00   -28800.00
00102               5.20   -28800.00
00103               4.20   -28800.00
00104               5.20   -27200.00
00105               5.00   -27200.00
00106               5.00   -27200.00
00107               4.40   -26400.00
00108               4.20   -26400.00
00109               3.60   -26400.00
00110               4.40   -25600.00
00111               4.60   -25600.00
00112               3.80   -25600.00
00113               3.40   -24000.00
00114               3.40   -24000.00
00115               2.80   -23200.00
00116               3.00   -23200.00
00117               3.60   -22400.00
00118               3.40   -22400.00
00119               2.80   -22400.00
00120               2.60   -20800.00
00121               2.60   -20800.00
00122               1.80   -20000.00
00123               2.20   -20000.00
00124               2.00   -19200.00
00125               2.20   -17600.00
00126               2.60   -18400.00
00127               2.00   -17600.00
00128               1.80   -17600.00
00129               1.80   -16800.00
00130               1.20   -16000.00
00131               1.40   -16000.00
00132               1.20   -14400.00
00133               1.00   -14400.00
00134               1.40   -13600.00
00135               1.00   -13600.00
00136               1.00   -12800.00
00137               1.20   -12000.00
00138               1.00   -11200.00
00139               1.00   -10400.00
00140               0.60   -10400.00
00141               0.40    -9600.00
00142               0.40    -8800.00
00143               0.40    -8800.00
00144               0.40    -8000.00
00145               0.20    -8000.00
00146               0.40    -7200.00
00147               0.40    -6400.00
00148              -0.20    -6400.00
00149               0.40    -4800.00
00150               0.20    -4000.00
00151              -0.40    -4000.00
00152               0.20    -3200.00
00153               0.20    -2400.00
00154              -0.40    -1600.00
00155              -0.40     -800.00
00156              -0.40        0.00
00157              -0.40        0.00
00158               0.00      800.00
00159               0.20     1600.00
00160               2.00     1600.00
00161               2.20     1600.00
00162              -3.00     2400.00
00163              -0.60     3200.00
00164               1.00     4800.00
00165              -2.20     4800.00
00166               3.40     4800.00
00167              25.00     7200.00
00168              12.40     7200.00
00169             -25.00     8000.00
00170              -4.40     8000.00
00171              25.00     8800.00
00172             -25.00     8800.00
00173               1.80     9600.00
00174              25.00    10400.00
00175             -25.00    10400.00
00176              25.00    11200.00
00177              25.00    12000.00
00178             -25.00    12800.00
00179              25.00    12800.00
00180             -25.00    13600.00
00181              17.20    13600.00
00182              25.00    14400.00
00183             -25.00    15200.00
00184              25.00    15200.00
00185              -0.40    16000.00
00186             -25.00    16800.00
00187              25.00    17600.00
00188              -4.40    18400.00
00189             -25.00    18400.00
00190              14.60    19200.00
00191              14.40    19200.00
00192             -25.00    20800.00
00193              23.40    20800.00
00194              -0.20    21600.00
00195             -20.20    21600.00
00196              22.60    22400.00
00197             -25.00    22400.00
00198              -1.80    22400.00
00199               6.40    24000.00
00200             -15.60    24000.00
00201              -1.00    24800.00
00202              10.60    25600.00
00203             -20.60    25600.00
00204              -1.20    25600.00
00205               6.60    26400.00
00206             -23.00    26400.00
00207               5.20    27200.00
00208              -0.60    27200.00
00209             -12.60    28000.00
00210              -0.60    28000.00
00211              -5.40    28000.00
00212              -9.20    28800.00
00213              -2.20    28800.00
00214              -6.00    28800.00
00215              -8.60    29600.00
00216              -2.20    30400.00
00217              -8.20    30400.00
00218             -10.00    30400.00
00219              -0.60    30400.00
00220              -8.60    31200.00
00221             -10.20    31200.00
00222              -0.60    31200.00
00223             -11.00    32000.00
00224             -10.20    32800.00
00225              -3.80    32000.00
00226             -10.40    32000.00
00227              -8.60    32800.00
00228              -6.20    33600.00
00229              -8.60    32800.00
00230             -10.60    33600.00
00231             -10.00    33600.00
00232              -7.40    33600.00
00233             -10.20    33600.00
00234              -8.80    33600.00
00235              -8.40    33600.00
00236             -10.20    33600.00
00237              -9.40    33600.00
00238             -11.60    33600.00
00239             -10.00    33600.00
00240             -11.40    33600.00
00241             -10.80    33600.00
00242              -8.40    33600.00
00243             -11.80    33600.00
00244             -11.00    33600.00
00245              -9.40    33600.00
00246             -10.40    33600.00
00247             -10.60    33600.00
00248             -10.20    33600.00
00249              -9.80    32800.00
00250             -10.00    32800.00
00251              -9.00    33600.00
00252              -9.00    33600.00
00253              -9.40    32800.00
00254              -7.80    32800.00
00255              -8.60    32000.00
00256              -8.40    32800.00
00257              -8.20    32000.00
00258              -9.20    32000.00
00259              -7.00    32000.00
00260              -7.40    31200.00
00261              -7.60    31200.00
00262              -6.80    31200.00
00263              -7.20    31200.00
00264              -6.80    30400.00
00265              -6.00    30400.00
00266              -7.40    29600.00
00267              -6.80    30400.00
00268              -5.60    28800.00
00269              -6.00    28800.00
00270              -5.80    28800.00
00271              -5.80    28800.00
00272              -5.40    28000.00
00273              -5.20    28000.00
00274              -5.20    27200.00
00275              -5.80    27200.00
00276              -5.00    27200.00
00277              -4.60    26400.00
00278              -4.80    25600.00
00279              -3.60    25600.00
00280              -4.40    24800.00
00281              -4.40    24800.00
00282              -3.60    24000.00
00283              -4.20    24000.00
00284              -3.60    23200.00
00285              -3.60    22400.00
00286              -3.80    22400.00
00287              -3.40    21600.00
00288              -3.40    21600.00
00289              -2.80    20800.00
00290              -3.00    20800.00
00291              -3.00    19200.00
00292              -2.40    19200.00
00293              -3.00    18400.00
00294              -3.00    18400.00
00295              -2.20    17600.00
00296              -2.20    17600.00
00297              -2.20    16800.00
00298              -2.20    16000.00
00299              -2.00    15200.00
00300              -2.20    15200.00
00301              -1.80    14400.00
00302              -1.80    13600.00
00303              -2.20    12800.00
00304              -2.20    12800.00
00305              -1.40    12000.00
00306              -1.20    12000.00
00307              -1.40    11200.00
00308              -2.00    10400.00
00309              -0.60    10400.00
00310              -1.40     9600.00
00311              -1.40     8000.00
00312              -0.60     8000.00
00313              -1.40     7200.00
00314              -1.00     6400.00
00315              -0.40     6400.00
00316              -1.40     5600.00
00317              -0.60     4800.00
00318              -1.00     4800.00
00319              -1.00     4000.00
00320              -0.20     3200.00
00321              -1.00     2400.00
00322              -1.20     1600.00
00323               0.40     1600.00
00324              -0.60        0.00
00325              -0.20        0.00
00326               1.80     -800.00
00327               3.40    -1600.00
00328              -0.20    -1600.00
00329              -0.60    -1600.00
00330               1.20    -3200.00
00331               1.80    -3200.00
00332              -0.40    -3200.00
00333               3.40    -4000.00
00334              17.60    -4800.00
00335              23.40    -7200.00
00336             -25.00    -8000.00
00337             -23.60    -8000.00
00338              25.00    -8000.00
00339              -4.20    -8800.00
00340             -25.00    -8800.00
00341              25.00    -9600.00
00342              25.00   -10400.00
00343             -25.00   -10400.00
00344              25.00   -11200.00
00345              23.60   -11200.00
00346             -25.00   -12800.00
00347              25.00   -13600.00
00348             -16.20   -13600.00
00349              18.00   -14400.00
00350              -4.40   -14400.00
00351             -24.20   -14400.00
00352              25.00   -16000.00
00353             -21.20   -16000.00
00354             -16.20   -17600.00
00355              25.00   -16800.00
00356              -5.80   -17600.00
00357             -23.40   -17600.00
00358              25.00   -18400.00
00359               5.40   -19200.00
00360             -25.00   -20000.00
00361              25.00   -20000.00
00362              -3.00   -21600.00
00363              -8.20   -21600.00
00364              16.00   -22400.00
00365              -6.80   -22400.00
00366               5.00   -23200.00
00367              10.80   -23200.00
00368              -0.60   -24000.00
00369               6.80   -24000.00
00370              10.80   -24800.00
00371             -10.40   -24800.00
00372               9.00   -25600.00
00373               7.40   -25600.00
00374              -7.40   -26400.00
00375              15.20   -26400.00
00376               6.80   -27200.00
00377              -0.20   -27200.00
00378              10.20   -28000.00
00379               5.40   -27200.00
00380              -1.20   -28800.00
00381               8.20   -28000.00
00382               4.60   -29600.00
00383               1.00   -28800.00
00384              10.60   -29600.00
00385               6.60   -29600.00
00386               5.00   -29600.00
00387              11.40   -30400.00
00388               4.80   -30400.00
00389               4.20   -30400.00
00390               8.40   -31200.00
00391               3.20   -31200.00
00392               7.00   -32000.00
00393               9.80   -32000.00
00394               6.80   -32000.00
00395              11.80   -32000.00
00396               8.60   -32000.00
00397               5.40   -32000.00
00398               9.20   -32800.00
00399               7.00   -32800.00
00400               6.20   -32800.00
00401              10.60   -32800.00
00402              10.00   -32800.00
00403               9.00   -32800.00
00404              11.80   -32800.00
00405              10.00   -32800.00
00406               8.60   -32800.00
00407              10.40   -32800.00
00408               8.40   -32800.00
00409               9.20   -32800.00
00410              10.80   -32800.00
00411               9.20   -32800.00
00412              11.60   -32800.00
00413              11.00   -32800.00
00414               8.60   -32800.00
00415               9.60   -32800.00
00416               8.40   -32000.00
00417               7.80   -32000.00
00418               8.20   -32000.00
00419               9.00   -32800.00
00420               8.40   -32000.00
00421               8.60   -32000.00
00422               9.40   -32800.00
00423               7.80   -32000.00
00424               6.80   -31200.00
00425               6.60   -31200.00
00426               6.20   -31200.00
00427               6.20   -30400.00
00428               6.20   -30400.00
00429               6.80   -30400.00
00430               6.60   -29600.00
00431               6.60   -29600.00
00432               6.40   -29600.00
00433               5.20   -29600.00
00434               5.00   -28800.00
00435               5.20   -28800.00
00436               5.00   -28000.00
00437               5.40   -28000.00
00438               5.40   -27200.00
00439               5.00   -27200.00
00440               4.20   -26400.00
00441               4.40   -26400.00
00442               3.80   -26400.00
00443               3.00   -25600.00
00444               3.80   -25600.00
00445               3.80   -24800.00
00446               3.40   -24800.00
00447               3.60   -24000.00
00448               3.60   -24000.00
00449               3.00   -23200.00
00450               2.80   -22400.00
00451               2.60   -22400.00
00452               2.60   -22400.00
00453               2.20   -20800.00
00454               2.60   -20800.00
00455               2.60   -20800.00
00456               2.60   -20000.00
00457               2.20   -19200.00
00458               2.00   -19200.00
00459               2.00   -18400.00
00460               1.60   -17600.00
00461               1.80   -16800.00
00462               1.80   -16800.00
00463               1.80   -16000.00
00464               2.00   -16000.00
00465               1.60   -15200.00
00466               1.00   -14400.00
00467               1.40   -14400.00
00468               1.00   -13600.00
00469               0.60   -12800.00
00470               1.20   -12800.00
00471               0.60   -11200.00
00472               1.00   -11200.00
00473               1.40   -10400.00
00474               0.40    -9600.00
00475               0.40    -9600.00
00476               0.60    -8800.00
00477               0.40    -8000.00
00478               0.40    -8000.00
00479              -0.40    -7200.00
00480              -0.60    -6400.00
00481               1.40    -6400.00
00482               1.20    -4800.00
00483              -1.00    -4000.00
00484               0.40    -4000.00
00485               1.00    -3200.00
00486              -1.40    -3200.00
00487               0.20    -2400.00
00488               1.20    -1600.00
00489              -1.40     -800.00
00490              -0.20     -800.00
00491               0.80        0.00
00492              -0.60      800.00
00493               0.00     1600.00
00494               4.20     2400.00
00495              -2.40     1600.00
00496              -0.60     2400.00
00497               2.00     3200.00
00498              -2.00     4000.00
00499              -1.00     4800.00
00500              13.60     5600.00
00501              25.00     7200.00
00502             -25.00     7200.00
00503             -25.00     8000.00
00504              25.00     8800.00
00505              -4.40     8000.00
00506             -25.00     8800.00
00507              25.00     9600.00
00508             -12.40     9600.00
00509             -25.00    11200.00
00510              25.00    11200.00
00511             -25.00    12000.00
00512              13.20    12800.00
00513              19.00    12800.00
00514             -25.00    13600.00
00515              25.00    14400.00
00516             -25.00    15200.00
00517              -1.80    16000.00
00518              25.00    15200.00
00519             -25.00    16000.00
00520              21.80    17600.00
00521              25.00    18400.00
00522             -25.00    17600.00
00523             -10.00    19200.00
00524              25.00    19200.00
00525             -25.00    20000.00
00526              -7.60    20800.00
00527              25.00    20800.00
00528             -25.00    21600.00
00529              15.60    22400.00
00530              -4.60    22400.00
00531             -21.80    22400.00
00532              14.00    24000.00
00533              -9.20    24000.00
00534             -10.80    24000.00
00535              12.20    24800.00
00536              -9.80    25600.00
00537             -16.00    25600.00
00538              13.80    25600.00
00539             -18.40    25600.00
00540              -4.60    27200.00
00541               8.00    27200.00
00542             -16.00    27200.00
00543              -0.60    28000.00
00544              -1.00    28000.00
00545             -13.40    28800.00
00546              -2.80    28800.00
00547              -1.00    28800.00
00548             -12.40    29600.00
00549              -3.00    30400.00
00550              -4.60    30400.00
00551             -11.40    30400.00
00552              -3.00    31200.00
00553              -5.20    31200.00
00554             -10.80    31200.00
00555              -2.20    32000.00
00556              -8.60    32000.00
00557             -11.40    32000.00
00558              -3.00    32800.00
00559             -11.00    32000.00
00560              -8.60    32800.00
00561              -3.60    32800.00
00562             -11.60    33600.00
00563              -9.40    33600.00
00564              -7.60    32800.00
00565             -11.00    32800.00
00566              -8.60    33600.00
00567              -8.20    33600.00
00568             -10.00    33600.00
00569             -10.60    33600.00
00570              -8.40    33600.00
00571             -11.40    33600.00
00572             -10.80    32800.00
00573              -8.60    33600.00
00574             -12.40    33600.00
00575              -9.00    33600.00
00576             -10.20    33600.00
00577             -12.80    33600.00
00578              -9.20    33600.00
00579             -10.60    33600.00
00580             -10.80    33600.00
00581              -9.80    33600.00
00582             -10.20    33600.00
00583             -10.20    32800.00
00584              -9.40    33600.00
00585              -8.60    32800.00
00586              -9.80    32800.00
00587              -8.60    33600.00
00588              -8.60    32000.00
00589              -8.60    32800.00
00590              -8.20    32000.00
00591              -9.00    32000.00
00592              -7.60    31200.00
00593              -7.00    31200.00
00594              -7.60    31200.00
00595              -7.00    31200.00
00596              -7.00    31200.00
00597              -7.40    30400.00
00598              -6.20    29600.00
00599              -7.00    30400.00
00600              -6.60    29600.00
00601              -6.20    29600.00
00602              -5.80    28800.00
00603              -5.60    28800.00
00604              -6.00    28800.00
00605              -5.20    28000.00
00606              -5.00    28000.00
00607              -5.20    27200.00
00608              -5.00    27200.00
00609              -5.00    27200.00
00610              -4.80    27200.00
00611              -4.60    25600.00
00612              -4.20    25600.00
00613              -4.00    25600.00
00614              -5.00    24800.00
00615              -3.60    24000.00
00616              -3.80    24000.00
00617              -4.20    24000.00
00618              -3.40    23200.00
00619              -3.60    22400.00
00620              -3.60    21600.00
00621              -3.40    21600.00
00622              -3.40    21600.00
00623              -3.20    20800.00
00624              -3.20    20800.00
00625              -2.60    19200.00
00626              -2.80    19200.00
00627              -2.80    18400.00
00628              -2.80    17600.00
00629              -2.60    17600.00
00630              -2.00    16000.00
00631              -2.60    16000.00
00632              -2.20    16000.00
00633              -2.20    15200.00
00634              -2.20    14400.00
00635              -1.40    14400.00
00636              -2.00    13600.00
00637              -2.20    12800.00
00638              -1.40    12800.00
00639              -1.40    12000.00
00640              -1.80    11200.00
00641              -2.00    10400.00
00642              -1.20     9600.00
00643              -1.40     9600.00
00644              -1.80     8800.00
00645              -1.00     8000.00
00646              -2.00     8000.00
00647              -1.20     8000.00
00648              -0.80     6400.00
00649              -1.40     5600.00
00650              -1.00     4800.00
00651              -0.60     4800.00
00652              -0.80     4000.00
00653              -0.60     4000.00
00654              -0.60     2400.00
00655              -1.20     1600.00
00656              -0.60     1600.00
00657              -0.40      800.00
00658              -0.40        0.00
00659               0.40     -800.00
00660               2.00     -800.00
00661               2.60    -1600.00
00662              -1.20    -1600.00
00663               0.60    -2400.00
00664               2.00    -3200.00
00665               0.60    -3200.00
00666               0.60    -4000.00
00667              10.00    -4800.00
00668              25.00    -6400.00
00669             -12.40    -7200.00
00670             -25.00    -8000.00
00671              13.80    -8000.00
00672              19.80    -8000.00
00673             -25.00    -8000.00
00674              -1.40    -8800.00
00675              25.00   -10400.00
00676             -25.00    -9600.00
00677             -10.80   -11200.00
00678              25.00   -12000.00
00679             -25.00   -12000.00
00680              10.20   -12800.00
00681              13.00   -12800.00
00682              -7.00   -13600.00
00683              23.80   -14400.00
00684             -25.00   -15200.00
00685              25.00   -16000.00
00686              19.00   -16000.00
00687             -25.00   -16800.00
00688              25.00   -16800.00
00689              20.40   -17600.00
00690             -25.00   -17600.00
00691               5.60   -18400.00
00692              25.00   -19200.00
00693             -25.00   -19200.00
00694              11.60   -20000.00
00695              21.40   -20800.00
00696             -16.80   -20800.00
00697              13.40   -21600.00
00698               1.40   -22400.00
00699              -4.60   -22400.00
00700              10.60   -23200.00
00701               2.00   -23200.00
00702               0.40   -24000.00
00703              14.80   -24800.00
00704              -3.80   -24000.00
00705              -0.40   -25600.00
00706              15.80   -25600.00
00707              -7.40   -26400.00
00708               6.20   -26400.00
00709              12.60   -27200.00
00710              -3.00   -27200.00
00711               6.20   -27200.00
00712               9.00   -28000.00
00713               0.20   -28000.00
00714               6.80   -28800.00
00715               9.00   -28800.00
00716               1.20   -28800.00
00717               7.20   -29600.00
00718               7.60   -29600.00
00719               2.60   -29600.00
00720               9.00   -30400.00
00721               7.80   -30400.00
00722               3.40   -30400.00
00723              10.00   -30400.00
00724               6.00   -31200.00
00725               5.00   -31200.00
00726               9.80   -32000.00
00727               6.20   -32000.00
00728               8.40   -32000.00
00729              10.00   -32000.00
00730               6.20   -32000.00
00731               8.60   -32800.00
00732               9.40   -32800.00
00733               7.40   -32000.00
00734               9.80   -32800.00
00735              10.00   -32800.00
00736               8.60   -32800.00
00737              10.00   -33600.00
00738              10.20   -32800.00
00739               8.20   -32800.00
00740              10.60   -32800.00
00741              10.80   -32800.00
00742               9.00   -32800.00
00743              11.60   -32800.00
00744               9.80   -32800.00
00745               9.40   -32800.00
00746              11.00   -32800.00
00747               8.60   -32800.00
00748               9.60   -32800.00
00749               9.40   -32800.00
00750               8.60   -32800.00
00751               9.00   -32800.00
00752               8.60   -32000.00
00753               8.20   -32000.00
00754               8.20   -32000.00
00755               8.40   -32000.00
00756               7.60   -31200.00
00757               7.40   -30400.00
00758               7.60   -30400.00
00759               6.80   -30400.00
00760               6.80   -30400.00
00761               6.80   -30400.00
00762               6.20   -29600.00
00763               6.80   -29600.00
00764               6.20   -29600.00
00765               5.80   -29600.00
00766               6.20   -29600.00
00767               5.40   -28800.00
00768               5.40   -28800.00
00769               5.40   -28800.00
00770               5.20   -27200.00
00771               4.60   -28000.00
00772               4.60   -28000.00
00773               4.60   -27200.00
00774               4.20   -27200.00
00775               4.20   -26400.00
00776               3.60   -25600.00
00777               3.60   -25600.00
00778               4.20   -25600.00
00779               3.40   -24000.00
00780               3.60   -24000.00
00781               3.60   -24000.00
00782               2.80   -23200.00
00783               3.00   -23200.00
00784               3.00   -23200.00
00785               2.60   -22400.00
00786               2.60   -21600.00
00787               2.60   -20800.00
00788               2.80   -20000.00
00789               2.40   -20000.00
00790               2.00   -20000.00
00791               2.00   -19200.00
00792               2.20   -18400.00
00793               2.00   -17600.00
00794               1.20   -17600.00
00795               2.00   -16800.00
00796               2.00   -16000.00
00797               1.00   -16000.00
00798               2.00   -15200.00
00799               1.40   -14400.00
00800               0.40   -14400.00
00801               1.80   -13600.00
00802               1.00   -12800.00
00803               1.20   -12800.00
00804               1.00   -12000.00
00805               0.20   -11200.00
00806               1.80   -11200.00
00807               0.40   -10400.00
00808               0.00    -9600.00
00809               2.00    -9600.00
00810               0.00    -8000.00
00811              -0.40    -8000.00
00812               1.40    -8000.00
00813               0.20    -6400.00
00814              -1.00    -6400.00
00815               1.60    -6400.00
00816               0.20    -4000.00
00817              -1.20    -4000.00
00818               1.00    -3200.00
00819               0.20    -3200.00
00820              -0.40    -2400.00
00821               0.40    -1600.00
00822              -0.80     -800.00
00823              -0.20        0.00
00824               0.20        0.00
00825              -0.60        0.00
00826               0.60     1600.00
00827               2.80     1600.00
00828               0.20     2400.00
00829              -2.60     2400.00
00830               0.20     3200.00
00831               0.20     4000.00
00832              -1.20     4800.00
00833               5.80     5600.00
00834              25.00     7200.00
00835              -1.20     7200.00
00836             -25.00     8000.00
00837               6.00     8000.00
00838              22.20     8000.00
00839             -25.00     8800.00
00840              22.60     9600.00
00841              25.00     9600.00
00842             -25.00    11200.00
00843              25.00    12000.00
00844              11.20    12000.00
00845             -25.00    12000.00
00846              25.00    12800.00
00847             -25.00    13600.00
00848              25.00    14400.00
00849              19.60    14400.00
00850             -25.00    16000.00
00851              25.00    16000.00
00852             -25.00    16000.00
00853             -25.00    16800.00
00854              25.00    17600.00
00855             -17.00    18400.00
00856             -25.00    19200.00
00857              22.00    18400.00
00858               3.60    19200.00
00859             -25.00    20800.00
00860              25.00    21600.00
00861             -13.00    21600.00
00862             -10.60    21600.00
00863              18.20    22400.00
00864             -25.00    22400.00
00865               4.60    23200.00
00866               2.00    24000.00
00867             -15.60    24000.00
00868               2.80    24800.00
00869               7.60    24800.00
00870             -22.40    25600.00
00871               5.00    26400.00
00872               1.00    25600.00
00873             -21.40    27200.00
00874               8.40    27200.00
00875              -6.20    27200.00
00876             -11.00    28000.00
00877               2.20    28000.00
00878              -6.60    28800.00
00879              -9.80    28000.00
00880              -0.40    28800.00
00881              -6.80    29600.00
00882              -9.40    30400.00
00883              -2.40    29600.00
00884              -8.20    30400.00
00885              -8.60    30400.00
00886              -1.60    31200.00
00887              -9.20    31200.00
00888              -7.60    31200.00
00889              -3.40    31200.00
00890             -11.80    32000.00
00891              -6.20    32800.00
00892              -6.60    32000.00
00893             -11.60    32800.00
00894              -4.60    32000.00
00895              -7.60    32800.00
00896             -10.80    32800.00
00897              -7.40    33600.00
00898              -9.80    33600.00
00899             -10.20    32800.00
00900              -8.20    33600.00
00901              -9.80    33600.00
00902             -10.60    33600.00
00903              -8.80    33600.00
00904             -10.80    33600.00
00905             -11.40    33600.00
00906              -8.60    33600.00
00907             -13.20    33600.00
00908              -9.20    33600.00
00909              -9.00    33600.00
00910             -14.60    33600.00
00911              -8.60    33600.00
00912              -9.40    33600.00
00913             -12.20    33600.00
00914              -9.20    33600.00
00915              -9.40    33600.00
00916             -11.00    33600.00
00917              -9.40    33600.00
00918              -8.60    32800.00
00919             -10.00    32800.00
00920              -9.40    32800.00
00921              -8.40    32000.00
00922              -9.00    32800.00
00923              -7.60    32000.00
00924              -8.80    32000.00
00925              -7.80    31200.00
00926              -7.00    31200.00
00927              -8.60    31200.00
00928              -6.80    31200.00
00929              -6.60    30400.00
00930              -8.00    31200.00
00931              -5.80    30400.00
00932              -5.80    30400.00
00933              -8.40    29600.00
00934              -6.20    29600.00
00935              -5.60    28800.00
00936              -6.40    28800.00
00937              -5.80    28000.00
00938              -4.80    28800.00
00939              -6.00    28000.00
00940              -5.60    27200.00
00941              -4.20    27200.00
00942              -5.20    27200.00
00943              -5.20    26400.00
00944              -3.80    26400.00
00945              -5.00    25600.00
00946              -4.40    24800.00
00947              -4.20    24800.00
00948              -4.20    24000.00
00949              -3.60    24000.00
00950              -3.80    24000.00
00951              -3.80    24000.00
00952              -4.40    23200.00
00953              -3.60    22400.00
00954              -2.60    22400.00
00955              -3.80    21600.00
00956              -3.20    20800.00
00957              -2.20    20000.00
00958              -3.40    19200.00
00959              -3.40    19200.00
00960              -2.20    18400.00
00961              -2.40    17600.00
00962              -4.20    17600.00
00963              -1.40    17600.00
00964              -1.40    16000.00
00965              -4.00    16000.00
00966              -1.60    15200.00
00967              -2.00    14400.00
00968              -2.80    15200.00
00969              -2.00    13600.00
00970              -2.60    12800.00
00971              -1.80    12800.00
00972              -2.00    12000.00
00973              -2.20    11200.00
00974              -0.60    11200.00
00975              -1.80     9600.00
00976              -2.20     9600.00
00977              -0.60     9600.00
00978              -1.20     8000.00
00979              -2.80     8000.00
00980               0.20     7200.00
00981              -0.40     6400.00
00982              -2.80     5600.00
00983              -0.20     4800.00
00984               0.00     4800.00
00985              -2.80     4000.00
00986              -0.20     3200.00
00987               0.00     2400.00
00988              -2.20     2400.00
00989               0.00     1600.00
00990               0.40     1600.00
00991              -1.60        0.00
00992               0.40        0.00
00993               1.80     -800.00
00994               3.00     -800.00
00995              -0.60    -1600.00
00996               0.20    -2400.00
00997               1.00    -3200.00
00998               1.40    -3200.00
00999               0.20    -4000.00
01000               5.00    -4800.00
01001              20.40    -5600.00
01002              17.00    -7200.00
01003             -25.00    -7200.00
01004             -13.40    -8000.00
01005              25.00    -8800.00
01006             -14.80    -8000.00
01007             -25.00    -8000.00
01008              25.00    -9600.00
01009              19.00   -10400.00
01010             -25.00   -10400.00
01011              25.00   -11200.00
01012              -1.20   -12000.00
01013             -25.00   -12000.00
01014              25.00   -12800.00
01015             -20.40   -13600.00
01016              24.80   -14400.00
01017             -17.60   -14400.00
01018              -9.80   -15200.00
01019              25.00   -16000.00
01020             -25.00   -16800.00
01021              -4.40   -17600.00
01022              25.00   -17600.00
01023             -15.60   -17600.00
01024             -18.00   -18400.00
01025              25.00   -19200.00
01026              -6.60   -20000.00
01027             -16.60   -20000.00
01028              25.00   -20000.00
01029              -9.20   -20800.00
01030              -1.00   -21600.00
01031              13.40   -22400.00
01032              -8.40   -23200.00
01033               7.40   -22400.00
01034               6.80   -23200.00
01035              -2.60   -24000.00
01036              10.60   -24000.00
01037               6.80   -24000.00
01038              -8.60   -24800.00
01039              14.80   -25600.00
01040               2.60   -25600.00
01041              -5.00   -27200.00
01042              15.80   -26400.00
01043               1.00   -27200.00
01044               0.40   -27200.00
01045              10.80   -27200.00
01046               3.40   -28000.00
01047               2.40   -28000.00
01048               9.80   -28800.00
01049               3.80   -28800.00
01050               3.00   -29600.00
01051               9.40   -29600.00
01052               3.40   -29600.00
01053               5.80   -29600.00
01054               9.20   -30400.00
01055               4.20   -30400.00
01056               7.40   -30400.00
01057               8.40   -30400.00
01058               4.40   -31200.00
01059               8.60   -31200.00
01060               7.40   -32000.00
01061               6.60   -32800.00
01062              11.00   -32000.00
01063               7.00   -32000.00
01064               7.40   -32000.00
01065               9.80   -32000.00
01066               7.60   -32800.00
01067               8.40   -32800.00
01068              10.20   -32800.00
01069               9.40   -32800.00
01070               9.00   -32800.00
01071              10.60   -32800.00
01072               9.00   -32800.00
01073               9.40   -32800.00
01074              11.00   -32800.00
01075               9.20   -32800.00
01076              10.60   -32800.00
01077              10.60   -32800.00
01078               8.60   -32800.00
01079              10.80   -32800.00
01080              10.00   -32000.00
01081               9.00   -32800.00
01082               9.80   -32800.00
01083               9.00   -32800.00
01084               8.60   -32800.00
01085               8.60   -32000.00
01086               8.60   -32000.00
01087               8.20   -32000.00
01088               8.40   -32000.00
01089               8.20   -32000.00
01090               7.20   -32000.00
01091               7.40   -31200.00
01092               6.80   -31200.00
01093               6.80   -31200.00
01094               7.20   -31200.00
01095               6.20   -30400.00
01096               6.60   -29600.00
01097               6.00   -29600.00
01098               5.60   -28800.00
01099               6.00   -28800.00
01100               5.80   -28800.00
01101               5.20   -28800.00
01102               5.20   -28800.00
01103               4.60   -28000.00
01104               5.00   -28000.00
01105               4.40   -27200.00
01106               4.80   -27200.00
01107               4.20   -26400.00
01108               3.80   -26400.00
01109               3.60   -26400.00
01110               3.60   -25600.00
01111               3.80   -25600.00
01112               3.60   -24800.00
01113               3.40   -24000.00
01114               3.40   -24000.00
01115               3.20   -23200.00
01116               3.00   -23200.00
01117               3.00   -22400.00
01118               2.80   -22400.00
01119               2.80   -21600.00
01120               2.20   -21600.00
01121               2.80   -20800.00
01122               2.20   -20800.00
01123               2.00   -20000.00
01124               2.20   -19200.00
01125               2.20   -18400.00
01126               2.20   -18400.00
01127               2.00   -17600.00
01128               2.00   -17600.00
01129               1.80   -16800.00
01130               1.40   -16000.00
01131               1.40   -16000.00
01132               1.20   -15200.00
01133               1.20   -14400.00
01134               1.60   -14400.00
01135               1.00   -13600.00
01136               1.00   -12800.00
01137               1.00   -12800.00
01138               0.60   -12000.00
01139               1.20   -11200.00
01140               0.60    -9600.00
01141               0.40    -9600.00
01142               1.00    -9600.00
01143               0.40    -8800.00
01144               0.40    -8000.00
01145               1.00    -7200.00
01146               0.40    -7200.00
01147               0.40    -7200.00
01148               0.20    -5600.00
01149               0.00    -4800.00
01150               0.00    -4800.00
01151              -0.20    -4000.00
01152              -0.20    -3200.00
01153               0.00    -2400.00
01154              -0.20    -1600.00
01155              -0.40    -1600.00
01156              -0.40     -800.00
01157              -0.20        0.00
01158              -0.20        0.00
01159              -0.20     1600.00
01160               0.60     1600.00
01161               3.20     1600.00
01162              -2.60     2400.00
01163              -1.40     2400.00
01164               1.00     3200.00
01165              -1.00     4800.00
01166               0.20     4800.00
01167              16.60     5600.00
01168              25.00     7200.00
01169             -25.00     8000.00
01170             -25.00     8000.00
01171              25.00     8800.00
01172             -17.20     8800.00
01173             -25.00     8800.00
01174              25.00    10400.00
01175             -25.00    10400.00
01176             -15.00    12000.00
01177              25.00    12000.00
01178             -25.00    12000.00
01179              25.00    12800.00
01180              -6.20    12800.00
01181             -25.00    14400.00
01182              25.00    14400.00
01183             -25.00    15200.00
01184              25.00    16000.00
01185              25.00    16000.00
01186             -25.00    16800.00
01187              25.00    17600.00
01188              17.40    18400.00
01189             -25.00    18400.00
01190              -1.00    19200.00
01191              25.00    19200.00
01192             -25.00    20000.00
01193               5.40    20800.00
01194              20.60    21600.00
01195             -25.00    21600.00
01196              21.20    22400.00
01197             -15.20    22400.00
01198             -13.80    22400.00
01199              12.40    24000.00
01200             -12.60    24000.00
01201              -7.00    24000.00
01202              12.60    24800.00
01203             -13.40    24800.00
01204             -12.20    26400.00
01205              13.00    26400.00
01206             -20.40    25600.00
01207              -2.00    27200.00
01208               5.20    27200.00
01209             -14.80    27200.00
01210              -1.40    28000.00
01211              -2.00    28800.00
01212             -11.00    28800.00
01213              -3.80    28800.00
01214              -2.20    29600.00
01215             -10.60    30400.00
01216              -4.60    29600.00
01217              -5.00    30400.00
01218             -10.20    30400.00
01219              -3.60    31200.00
01220              -5.00    31200.00
01221             -10.40    31200.00
01222              -2.80    31200.00
01223              -8.60    31200.00
01224             -10.00    32000.00
01225              -4.20    32800.00
01226             -11.00    32800.00
01227              -7.60    33600.00
01228              -5.80    32800.00
01229             -11.00    32800.00
01230              -8.60    33600.00
01231              -8.80    33600.00
01232             -10.20    33600.00
01233              -9.00    33600.00
01234              -8.60    33600.00
01235             -10.20    33600.00
01236             -10.20    33600.00
01237              -8.60    33600.00
01238             -11.60    33600.00
01239             -10.00    33600.00
01240             -10.00    33600.00
01241             -12.40    33600.00
01242              -8.60    33600.00
01243             -11.40    33600.00
01244             -11.80    33600.00
01245              -9.20    33600.00
01246             -11.40    33600.00
01247             -10.20    33600.00
01248             -10.00    33600.00
01249             -10.40    33600.00
01250              -9.80    32800.00
01251              -9.20    33600.00
01252              -9.20    32800.00
01253              -9.60    33600.00
01254              -7.80    32800.00
01255              -8.60    32800.00
01256              -8.40    32800.00
01257              -7.60    32800.00
01258              -9.20    31200.00
01259              -7.00    32000.00
01260              -7.00    31200.00
01261              -8.20    31200.00
01262              -6.80    31200.00
01263              -7.00    31200.00
01264              -7.00    30400.00
01265              -6.00    30400.00
01266              -6.60    30400.00
01267              -6.60    30400.00
01268              -6.00    28800.00
01269              -6.00    29600.00
01270              -5.80    28000.00
01271              -5.80    28000.00
01272              -5.20    28000.00
01273              -5.40    28000.00
01274              -4.80    27200.00
01275              -4.60    27200.00
01276              -5.60    27200.00
01277              -4.20    27200.00
01278              -4.20    25600.00
01279              -4.40    25600.00
01280              -4.40    25600.00
01281              -4.40    24800.00
01282              -3.80    24000.00
01283              -4.40    24000.00
01284              -3.00    24000.00
01285              -3.60    22400.00
01286              -3.80    22400.00
01287              -2.80    21600.00
01288              -3.60    21600.00
01289              -3.20    21600.00
01290              -3.40    20000.00
01291              -3.00    20000.00
01292              -2.60    19200.00
01293              -3.00    18400.00
01294              -3.00    18400.00
01295              -2.80    18400.00
01296              -3.00    16800.00
01297              -2.20    16800.00
01298              -2.20    16000.00
01299              -2.60    16000.00
01300              -2.40    15200.00
01301              -1.80    14400.00
01302              -2.20    14400.00
01303              -2.40    13600.00
01304              -2.00    12800.00
01305              -1.80    12800.00
01306              -1.40    12000.00
01307              -1.40    11200.00
01308              -2.20     9600.00
01309              -1.40     9600.00
01310              -1.40     9600.00
01311              -1.60     8800.00
01312              -1.20     8000.00
01313              -1.80     8000.00
01314              -1.20     6400.00
01315              -0.40     6400.00
01316              -1.40     5600.00
01317              -0.60     5600.00
01318              -0.40     4800.00
01319              -1.00     3200.00
01320              -1.00     3200.00
01321              -1.00     2400.00
01322              -0.20     1600.00
01323              -0.20     1600.00
01324              -0.60      800.00
01325               0.40        0.00
01326               0.40        0.00
01327               2.20     -800.00
01328               2.00    -1600.00
01329              -1.20    -1600.00
01330               0.60    -1600.00
01331               2.20    -3200.00
01332               0.20    -3200.00
01333               1.80    -4800.00
01334              12.60    -4800.00
01335              25.00    -6400.00
01336             -24.40    -8000.00
01337             -25.00    -8000.00
01338              21.00    -8000.00
01339              13.00    -8000.00
01340             -25.00    -8800.00
01341              15.00    -8800.00
01342              25.00   -10400.00
01343             -25.00    -9600.00
01344              16.20   -11200.00
01345              25.00   -11200.00
01346             -25.00   -12000.00
01347              23.40   -13600.00
01348               0.60   -12800.00
01349               2.60   -13600.00
01350              15.60   -14400.00
01351             -25.00   -14400.00
01352              25.00   -16000.00
01353               3.40   -16000.00
01354             -25.00   -16800.00
01355              25.00   -16800.00
01356              11.00   -17600.00
01357             -25.00   -18400.00
01358              14.60   -18400.00
01359              22.20   -20000.00
01360             -25.00   -19200.00
01361              21.00   -20000.00
01362              13.00   -20800.00
01363             -15.60   -21600.00
01364              16.40   -20800.00
01365              -2.80   -22400.00
01366              -2.00   -22400.00
01367              10.20   -22400.00
01368               0.00   -24000.00
01369               2.20   -24000.00
01370              14.20   -24000.00
01371              -6.80   -24800.00
01372               3.80   -25600.00
01373              13.80   -25600.00
01374              -8.60   -25600.00
01375              10.00   -26400.00
01376               9.80   -27200.00
01377              -2.80   -27200.00
01378               7.80   -27200.00
01379               7.60   -28000.00
01380               0.20   -28800.00
01381               8.00   -28800.00
01382               8.00   -28800.00
01383               1.20   -29600.00
01384               8.40   -29600.00
01385               6.60   -29600.00
01386               3.00   -30400.00
01387               9.20   -30400.00
01388               6.60   -30400.00
01389               5.00   -30400.00
01390               9.80   -31200.00
01391               5.00   -31200.00
01392               6.80   -32000.00
01393               9.20   -32000.00
01394               5.80   -31200.00
01395               9.80   -32000.00
01396               9.00   -32000.00
01397               6.20   -32800.00
01398               9.80   -32000.00
01399               9.00   -32800.00
01400               7.60   -32800.00
01401              10.00   -32800.00
01402               9.80   -32800.00
01403               8.40   -32800.00
01404              10.60   -32800.00
01405              10.20   -32800.00
01406               8.60   -32800.00
01407              11.00   -32800.00
01408              10.20   -32800.00
01409               9.40   -32800.00
01410              11.60   -32800.00
01411               9.00   -32800.00
01412               9.40   -32800.00
01413              11.00   -32800.00
01414               9.20   -32800.00
01415               9.40   -32800.00
01416               9.00   -32000.00
01417               8.80   -32000.00
01418               8.60   -32000.00
01419               8.40   -32000.00
01420               8.60   -32000.00
01421               8.20   -32000.00
01422               7.80   -32000.00
01423               7.60   -31200.00
01424               7.60   -31200.00
01425               7.20   -30400.00
01426               6.80   -30400.00
01427               7.00   -30400.00
01428               6.00   -30400.00
01429               6.20   -30400.00
01430               6.60   -29600.00
01431               5.80   -29600.00
01432               5.80   -28800.00
01433               5.80   -29600.00
01434               5.20   -28800.00
01435               5.20   -28000.00
01436               5.40   -28000.00
01437               5.00   -27200.00
01438               4.40   -27200.00
01439               5.00   -27200.00
01440               4.40   -27200.00
01441               4.20   -26400.00
01442               4.20   -26400.00
01443               3.60   -25600.00
01444               3.60   -25600.00
01445               4.20   -24800.00
01446               2.80   -24000.00
01447               3.60   -24800.00
01448               3.60   -24000.00
01449               2.60   -23200.00
01450               3.40   -23200.00
01451               3.20   -22400.00
01452               2.20   -21600.00
01453               2.80   -20800.00
01454               2.80   -20800.00
01455               2.20   -20800.00
01456               2.00   -20000.00
01457               2.20   -20000.00
01458               2.00   -18400.00
01459               2.20   -19200.00
01460               2.00   -17600.00
01461               1.80   -17600.00
01462               2.00   -16800.00
01463               1.60   -16000.00
01464               1.80   -16000.00
01465               2.00   -15200.00
01466               1.00   -14400.00
01467               1.20   -14400.00
01468               1.80   -13600.00
01469               1.00   -13600.00
01470               0.60   -12800.00
01471               1.00   -12000.00
01472               1.40   -11200.00
01473               1.20   -10400.00
01474               0.40   -10400.00
01475               0.80    -9600.00
01476               0.60    -9600.00
01477               0.20    -8800.00
01478               0.60    -8000.00
01479               0.60    -7200.00
01480              -0.20    -6400.00
01481               0.60    -6400.00
01482               0.40    -4800.00
01483              -0.20    -4800.00
01484               0.20    -4800.00
01485               0.00    -4000.00
01486              -0.20    -3200.00
01487              -0.40    -2400.00
01488              -0.60    -1600.00
01489               0.00     -800.00
01490              -0.60        0.00
01491              -1.20        0.00
01492               0.20        0.00
01493               0.40     1600.00
01494               2.20     1600.00
01495               0.20     2400.00
01496              -2.60     3200.00
01497               0.20     3200.00
01498               0.60     4000.00
01499              -2.20     4000.00
01500               7.40     5600.00
01501              25.00     7200.00
01502             -15.60     7200.00
01503             -25.00     8000.00
01504              15.80     8800.00
01505              13.40     8800.00
01506             -25.00     8800.00
01507              25.00     9600.00
01508              25.00    10400.00
01509             -25.00    10400.00
01510              25.00    12000.00
01511             -19.80    12000.00
01512             -25.00    12800.00
01513              25.00    12800.00
01514             -25.00    13600.00
01515              25.00    14400.00
01516             -12.40    15200.00
01517             -25.00    15200.00
01518              25.00    16000.00
01519             -25.00    16000.00
01520             -10.60    16800.00
01521              25.00    17600.00
01522             -25.00    17600.00
01523             -22.20    18400.00
01524              25.00    19200.00
01525              -8.60    20800.00
01526             -25.00    20000.00
01527              25.00    20800.00
01528             -23.80    21600.00
01529              -0.40    22400.00
01530              11.20    22400.00
01531             -25.00    22400.00
01532              10.00    23200.00
01533              -2.20    24000.00
01534             -14.80    24000.00
01535               6.20    24800.00
01536               2.20    25600.00
01537             -22.00    25600.00
01538               9.80    25600.00
01539              -6.00    25600.00
01540             -17.00    27200.00
01541               9.80    27200.00
01542             -10.20    27200.00
01543              -8.40    27200.00
01544               1.60    28000.00
01545              -8.40    28800.00
01546              -8.40    28800.00
01547              -0.40    29600.00
01548              -8.20    30400.00
01549              -8.20    29600.00
01550              -2.80    30400.00
01551              -9.00    30400.00
01552              -7.60    30400.00
01553              -2.20    31200.00
01554             -10.60    31200.00
01555              -6.60    31200.00
01556              -4.40    32800.00
01557             -12.20    32000.00
01558              -5.40    32000.00
01559              -7.60    32800.00
01560             -10.80    32800.00
01561              -5.00    32000.00
01562              -9.00    32800.00
01563             -10.20    33600.00
01564              -7.60    33600.00
01565             -10.20    33600.00
01566             -10.20    33600.00
01567              -8.60    33600.00
01568              -9.60    33600.00
01569             -11.00    33600.00
01570              -8.40    33600.00
01571             -10.40    33600.00
01572             -11.80    33600.00
01573              -8.40    33600.00
01574             -12.40    34400.00
01575             -10.20    33600.00
01576              -9.00    33600.00
01577             -12.80    33600.00
01578              -9.20    33600.00
01579             -10.80    33600.00
01580             -12.20    33600.00
01581              -8.40    33600.00
01582              -9.80    33600.00
01583             -11.00    33600.00
01584              -8.60    33600.00
01585              -9.00    32800.00
01586             -10.80    32800.00
01587              -8.20    32800.00
01588              -7.80    32000.00
01589              -9.80    32000.00
01590              -7.60    32800.00
01591              -8.20    32000.00
01592              -8.80    32000.00
01593              -6.40    32000.00
01594              -7.40    31200.00
01595              -7.60    31200.00
01596              -5.80    30400.00
01597              -6.60    31200.00
01598              -7.80    30400.00
01599              -6.60    30400.00
01600              -6.00    30400.00
01601              -6.60    28800.00
01602              -5.40    29600.00
01603              -5.00    28800.00
01604              -6.60    28800.00
01605              -5.40    28000.00
01606              -4.40    28000.00
01607              -5.40    28000.00
01608              -4.40    27200.00
01609              -4.60    27200.00
01610              -4.80    26400.00
01611              -4.20    26400.00
01612              -4.40    24800.00
01613              -4.40    25600.00
01614              -4.60    24800.00
01615              -4.20    24000.00
01616              -3.80    24000.00
01617              -3.80    24000.00
01618              -3.80    23200.00
01619              -4.20    23200.00
01620              -3.40    21600.00
01621              -3.20    21600.00
01622              -3.60    20800.00
01623              -3.00    20800.00
01624              -3.40    20800.00
01625              -3.00    19200.00
01626              -2.80    18400.00
01627              -2.80    18400.00
01628              -2.60    18400.00
01629              -3.40    17600.00
01630              -2.00    16800.00
01631              -2.00    16000.00
01632              -3.80    16000.00
01633              -1.40    15200.00
01634              -1.60    15200.00
01635              -3.00    14400.00
01636              -2.00    13600.00
01637              -1.20    12800.00
01638              -2.80    12800.00
01639              -1.00    12000.00
01640              -1.40    11200.00
01641              -2.20    11200.00
01642              -2.00    10400.00
01643              -0.60     9600.00
01644              -1.80     8800.00
01645              -1.40     8000.00
01646              -1.80     8000.00
01647              -0.60     7200.00
01648              -1.20     6400.00
01649              -1.80     5600.00
01650               0.20     5600.00
01651              -1.20     4800.00
01652              -1.80     4000.00
01653               0.40     3200.00
01654              -0.60     3200.00
01655              -1.80     2400.00
01656               1.00     1600.00
01657              -0.20      800.00
01658              -1.00        0.00
01659               1.40        0.00
01660               1.20    -1600.00
01661               3.00     -800.00
01662              -1.00    -1600.00
01663               0.60    -2400.00
01664               1.60    -3200.00
01665               1.00    -3200.00
01666               0.20    -4000.00
01667               6.60    -4000.00
01668              24.00    -5600.00
01669               7.80    -7200.00
01670             -25.00    -7200.00
01671              -2.80    -8000.00
01672              25.00    -8000.00
01673             -25.00    -8800.00
01674             -25.00    -8000.00
01675              25.00    -9600.00
01676              -6.80   -10400.00
01677             -25.00    -9600.00
01678              25.00   -11200.00
01679             -25.00   -12000.00
01680             -19.20   -12800.00
01681              25.00   -12800.00
01682             -18.80   -13600.00
01683              25.00   -14400.00
01684             -25.00   -14400.00
01685               5.40   -15200.00
01686              25.00   -16000.00
01687             -25.00   -16800.00
01688               7.60   -16800.00
01689              25.00   -17600.00
01690             -22.40   -18400.00
01691             -10.60   -19200.00
01692              25.00   -18400.00
01693             -17.40   -19200.00
01694              -6.60   -20000.00
01695              25.00   -20800.00
01696             -14.20   -21600.00
01697               5.00   -21600.00
01698               9.00   -22400.00
01699              -7.80   -22400.00
01700               9.20   -23200.00
01701               5.00   -23200.00
01702              -2.00   -24000.00
01703              12.20   -24800.00
01704               2.60   -24800.00
01705              -6.60   -24800.00
01706              16.40   -25600.00
01707              -2.00   -25600.00
01708              -1.00   -26400.00
01709              15.60   -27200.00
01710              -1.80   -26400.00
01711               2.60   -28000.00
01712              10.60   -27200.00
01713               1.80   -28800.00
01714               4.20   -28800.00
01715              10.20   -29600.00
01716               2.60   -28800.00
01717               5.20   -29600.00
01718               9.00   -29600.00
01719               2.60   -29600.00
01720               7.00   -30400.00
01721               9.20   -30400.00
01722               3.80   -31200.00
01723               8.60   -31200.00
01724               8.00   -31200.00
01725               4.20   -32000.00
01726               9.40   -31200.00
01727               7.20   -32000.00
01728               6.80   -32000.00
01729              10.60   -32000.00
01730               6.80   -32000.00
01731               8.20   -32800.00
01732              10.00   -32800.00
01733               8.20   -32800.00
01734               9.20   -32800.00
01735              10.00   -32800.00
01736               8.80   -32800.00
01737               9.00   -32800.00
01738              10.80   -32800.00
01739               9.00   -32800.00
01740               9.80   -32800.00
01741              11.00   -32800.00
01742               9.20   -32800.00
01743              11.60   -32800.00
01744              10.20   -32800.00
01745               9.00   -32800.00
01746              10.80   -32800.00
01747               9.00   -32000.00
01748               9.00   -32800.00
01749               9.80   -32800.00
01750               9.00   -32800.00
01751               8.80   -32800.00
01752               8.40   -32000.00
01753               8.40   -32800.00
01754               7.80   -32000.00
01755               7.60   -32000.00
01756               8.40   -32000.00
01757               6.80   -31200.00
01758               7.00   -32000.00
01759               7.00   -30400.00
01760               7.00   -31200.00
01761               7.40   -30400.00
01762               6.00   -30400.00
01763               6.40   -30400.00
01764               6.60   -29600.00
01765               5.20   -29600.00
01766               5.20   -29600.00
01767               6.00   -28800.00
01768               5.40   -28800.00
01769               5.00   -28800.00
01770               5.20   -28000.00
01771               5.00   -28000.00
01772               3.80   -27200.00
01773               5.20   -27200.00
01774               4.60   -27200.00
01775               3.80   -26400.00
01776               4.20   -26400.00
01777               3.80   -25600.00
01778               3.80   -25600.00
01779               4.00   -24800.00
01780               3.60   -24000.00
01781               3.60   -24000.00
01782               3.00   -24000.00
01783               3.00   -23200.00
01784               2.80   -22400.00
01785               2.80   -23200.00
01786               3.00   -22400.00
01787               2.20   -21600.00
01788               3.00   -20800.00
01789               2.80   -20000.00
01790               1.80   -20000.00
01791               2.40   -19200.00
01792               2.80   -18400.00
01793               2.00   -18400.00
01794               1.20   -17600.00
01795               2.20   -17600.00
01796               2.20   -16000.00
01797               1.20   -16000.00
01798               1.80   -16000.00
01799               2.00   -15200.00
01800               1.00   -14400.00
01801               1.20   -13600.00
01802               1.80   -13600.00
01803               1.00   -12800.00
01804               0.40   -12800.00
01805               1.20   -12000.00
01806               1.40   -11200.00
01807               0.20   -10400.00
01808               0.80   -10400.00
01809               1.40    -9600.00
01810               0.40    -8000.00
01811               0.40    -8000.00
01812               0.60    -7200.00
01813               0.20    -7200.00
01814              -0.40    -6400.00
01815               0.20    -5600.00
01816              -0.20    -4800.00
01817              -0.20    -4000.00
01818              -0.20    -4000.00
01819              -0.20    -3200.00
01820              -0.20    -3200.00
01821               0.20    -1600.00
01822              -0.20    -1600.00
01823              -0.40     -800.00
01824              -0.60        0.00
01825              -0.60        0.00
01826               0.40     1600.00
01827               1.40     1600.00
01828               2.60     1600.00
01829              -2.60     3200.00
01830              -0.60     2400.00
01831               0.40     3200.00
01832              -1.20     4000.00
01833               1.80     4800.00
01834              21.20     6400.00
01835              20.40     7200.00
01836             -25.00     8000.00
01837             -12.60     8000.00
01838              25.00     8800.00
01839             -25.00     8800.00
01840             -11.60     8800.00
01841              25.00    10400.00
01842             -25.00    10400.00
01843              15.00    12000.00
01844              25.00    12000.00
01845             -25.00    12000.00
01846              25.00    12800.00
01847             -25.00    12800.00
01848              -1.20    14400.00
01849              25.00    14400.00
01850             -25.00    15200.00
01851              25.00    16000.00
01852              18.60    16000.00
01853             -25.00    17600.00
01854              25.00    17600.00
01855               4.80    18400.00
01856             -25.00    19200.00
01857               8.40    19200.00
01858              20.20    19200.00
01859             -25.00    20800.00
01860              16.80    20800.00
01861               8.60    21600.00
01862             -25.00    21600.00
01863              23.40    22400.00
01864             -22.60    23200.00
01865              -6.20    23200.00
01866               9.40    24000.00
01867             -14.60    24000.00
01868              -3.40    24800.00
01869              12.20    25600.00
01870             -18.00    25600.00
01871              -6.00    25600.00
01872               9.40    26400.00
01873             -22.20    26400.00
01874               3.40    27200.00
01875               0.60    27200.00
01876             -14.20    27200.00
01877               1.00    28000.00
01878              -4.40    28000.00
01879             -11.60    28800.00
01880              -2.20    28800.00
01881              -3.80    28800.00
01882             -11.00    29600.00
01883              -3.00    29600.00
01884              -5.40    29600.00
01885             -10.80    30400.00
01886              -2.80    30400.00
01887              -6.60    31200.00
01888             -10.20    31200.00
01889              -2.80    31200.00
01890             -10.40    31200.00
01891              -8.60    32000.00
01892              -4.40    32800.00
01893             -11.60    32000.00
01894              -6.60    32800.00
01895              -6.20    32000.00
01896             -11.20    32800.00
01897              -8.20    32800.00
01898              -9.20    33600.00
01899             -10.00    33600.00
01900              -9.00    33600.00
01901              -8.40    33600.00
01902             -10.80    33600.00
01903              -9.20    33600.00
01904              -9.20    33600.00
01905             -12.00    33600.00
01906              -9.00    33600.00
01907             -11.40    33600.00
01908             -12.00    33600.00
01909              -7.60    33600.00
01910             -12.40    33600.00
01911             -11.60    33600.00
01912              -8.60    33600.00
01913             -12.00    33600.00
01914              -9.80    33600.00
01915              -9.40    33600.00
01916             -10.60    33600.00
01917              -9.00    33600.00
01918              -8.20    33600.00
01919              -9.40    32800.00
01920              -9.20    32800.00
01921              -8.40    32800.00
01922              -8.60    32000.00
01923              -7.60    32800.00
01924              -8.20    32000.00
01925              -8.60    31200.00
01926              -6.60    32000.00
01927              -7.40    32000.00
01928              -8.00    31200.00
01929              -6.00    31200.00
01930              -7.00    31200.00
01931              -6.60    30400.00
01932              -5.80    31200.00
01933              -6.60    30400.00
01934              -6.60    29600.00
01935              -5.60    29600.00
01936              -5.40    28800.00
01937              -5.80    28800.00
01938              -5.40    28000.00
01939              -5.40    28000.00
01940              -5.40    28000.00
01941              -4.60    27200.00
01942              -5.00    27200.00
01943              -5.00    26400.00
01944              -4.40    26400.00
01945              -4.60    25600.00
01946              -4.20    25600.00
01947              -4.20    25600.00
01948              -4.40    24800.00
01949              -4.00    24000.00
01950              -4.20    24000.00
01951              -3.00    24000.00
01952              -4.00    22400.00
01953              -3.80    22400.00
01954              -2.80    21600.00
01955              -3.80    21600.00
01956              -3.40    20800.00
01957              -3.00    21600.00
01958              -3.40    20000.00
01959              -2.20    19200.00
01960              -3.00    19200.00
01961              -3.00    18400.00
01962              -2.60    17600.00
01963              -2.60    17600.00
01964              -2.00    16000.00
01965              -2.60    16000.00
01966              -2.60    16000.00
01967              -2.60    15200.00
01968              -2.00    14400.00
01969              -2.00    13600.00
01970              -2.60    13600.00
01971              -1.80    12800.00
01972              -1.40    12000.00
01973              -2.00    11200.00
01974              -1.00    11200.00
01975              -2.00    11200.00
01976              -1.00     9600.00
01977              -1.20     8800.00
01978              -1.80     8800.00
01979              -1.20     8000.00
01980              -1.20     8000.00
01981              -0.60     7200.00
01982              -0.60     6400.00
01983              -1.20     6400.00
01984              -0.40     4800.00
01985              -1.00     4000.00
01986              -0.80     3200.00
01987              -0.40     3200.00
01988              -0.60     2400.00
01989              -1.00     1600.00
01990              -0.20     1600.00
01991              -0.20      800.00
01992               0.20        0.00
01993               1.00     -800.00
01994               3.20     -800.00
01995               0.40    -1600.00
01996              -1.20    -2400.00
01997               1.60    -3200.00
01998               1.20    -3200.00
01999               0.20    -3200.00
02000               3.40    -4000.00
02001              15.00    -4800.00
02002              25.00    -6400.00
02003             -25.00    -7200.00
02004             -25.00    -8000.00
02005              25.00    -8000.00
02006               2.60    -8800.00
02007             -25.00    -8000.00
02008              25.00    -8800.00
02009              25.00   -10400.00
02010             -25.00   -10400.00
02011              25.00   -11200.00
02012              25.00   -12000.00
02013             -25.00   -12800.00
02014              25.00   -13600.00
02015             -11.00   -13600.00
02016              13.20   -13600.00
02017               4.40   -14400.00
02018             -25.00   -14400.00
02019              25.00   -16000.00
02020             -12.40   -16000.00
02021             -24.00   -16800.00
02022              25.00   -17600.00
02023              -0.20   -17600.00
02024             -25.00   -18400.00
02025              23.40   -18400.00
02026              12.40   -19200.00
02027             -25.00   -20000.00
02028              25.00   -20000.00
02029               3.80   -20800.00
02030             -11.00   -21600.00
02031              16.60   -21600.00
02032              -6.20   -22400.00
02033               2.20   -23200.00
02034               9.80   -24000.00
02035              -1.80   -24000.00
02036               5.60   -24000.00
02037              12.00   -24800.00
02038              -9.00   -24000.00
02039               9.00   -25600.00
02040              10.60   -26400.00
02041              -8.40   -26400.00
02042              13.60   -26400.00
02043               6.00   -27200.00
02044              -2.80   -27200.00
02045               9.40   -27200.00
02046               5.80   -28000.00
02047               1.00   -28800.00
02048               9.40   -28800.00
02049               6.00   -29600.00
02050               1.60   -28800.00
02051               9.80   -29600.00
02052               5.60   -30400.00
02053               4.40   -29600.00
02054              10.00   -30400.00
02055               5.20   -30400.00
02056               5.40   -30400.00
02057               9.80   -31200.00
02058               4.60   -31200.00
02059               7.80   -30400.00
02060               9.20   -31200.00
02061               6.00   -32000.00
02062              10.20   -32000.00
02063               8.20   -32000.00
02064               6.60   -32000.00
02065               9.40   -32000.00
02066               8.40   -32800.00
02067               8.40   -32000.00
02068              10.20   -32800.00
02069               9.40   -32800.00
02070               8.60   -32800.00
02071              10.60   -32800.00
02072               9.40   -32800.00
02073               8.60   -32800.00
02074              11.00   -32800.00
02075               9.60   -32800.00
02076               9.80   -32800.00
02077              11.40   -33600.00
02078               8.80   -32800.00
02079              10.20   -32800.00
02080              10.20   -32800.00
02081               9.00   -32800.00
02082               9.40   -32800.00
02083               8.60   -32000.00
02084               9.00   -32800.00
02085               8.60   -32800.00
02086               8.20   -32800.00
02087               8.20   -32000.00
02088               8.20   -32000.00
02089               8.40   -32000.00
02090               7.40   -32000.00
02091               7.00   -31200.00
02092               7.00   -31200.00
02093               7.00   -30400.00
02094               7.20   -30400.00
02095               5.40   -30400.00
02096               5.80   -29600.00
02097               7.40   -30400.00
02098               6.00   -29600.00
02099               4.20   -29600.00
02100               6.00   -28800.00
02101               7.00   -28800.00
02102               3.60   -28800.00
02103               4.20   -28800.00
02104               7.40   -28000.00
02105               5.00   -28000.00
02106               2.80   -27200.00
02107               5.20   -27200.00
02108               5.80   -26400.00
02109               2.60   -25600.00
02110               3.60   -25600.00
02111               5.80   -25600.00
02112               2.60   -24800.00
02113               2.00   -24000.00
02114               6.20   -24000.00
02115               3.60   -24000.00
02116               1.20   -24000.00
02117               5.20   -23200.00
02118               3.60   -22400.00
02119               1.00   -22400.00
02120               2.80   -21600.00
02121               3.80   -20800.00
02122               2.20   -20000.00
02123               2.00   -20000.00
02124               2.60   -18400.00
02125               2.60   -18400.00
02126               2.00   -18400.00
02127               1.20   -17600.00
02128               1.80   -17600.00
02129               2.00   -16800.00
02130               2.00   -16800.00
02131               2.80   -16000.00
02132               1.80   -16000.00
02133               0.60   -14400.00
02134               2.20   -13600.00
02135               1.20   -13600.00
02136               0.40   -12800.00
02137               1.20   -12000.00
02138               0.40   -12000.00
02139               1.20   -11200.00
02140               1.00   -11200.00
02141               0.20   -10400.00
02142               1.20    -9600.00
02143               1.00    -8800.00
02144              -0.20    -8000.00
02145               0.40    -8000.00
02146               0.40    -7200.00
02147              -0.20    -6400.00
02148               0.20    -6400.00
02149               0.40    -5600.00
02150              -0.20    -4800.00
02151               0.20    -4000.00
02152              -0.40    -4000.00
02153              -0.40    -3200.00
02154              -0.40    -2400.00
02155              -0.60    -1600.00
02156              -0.60     -800.00
02157              -0.40        0.00
02158              -0.40        0.00
02159              -0.20        0.00
02160               0.20     1600.00
02161               3.00     1600.00
02162              -1.20     2400.00
02163              -2.00     3200.00
02164               0.40     3200.00
02165               0.00     4000.00
02166              -2.00     4800.00
02167              10.60     5600.00
02168              25.00     7200.00
02169             -25.00     8000.00
02170             -25.00     8000.00
02171              22.80     8800.00
02172               3.00     8800.00
02173             -25.00     8800.00
02174              25.00    11200.00
02175               7.00    10400.00
02176             -25.00    11200.00
02177              25.00    11200.00
02178             -25.00    12000.00
02179              -4.20    12800.00
02180              25.00    12800.00
02181             -25.00    13600.00
02182              25.00    14400.00
02183             -25.00    15200.00
02184             -23.60    16000.00
02185              25.00    16000.00
02186             -25.00    16800.00
02187               9.40    17600.00
02188              25.00    17600.00
02189             -25.00    18400.00
02190             -15.80    18400.00
02191              25.00    19200.00
02192             -20.40    20000.00
02193             -17.00    20800.00
02194              25.00    20800.00
02195             -25.00    22400.00
02196               9.20    21600.00
02197               1.20    22400.00
02198             -23.80    22400.00
02199              12.80    24000.00
02200              -6.20    24000.00
02201             -12.60    24000.00
02202               9.40    24800.00
02203              -3.00    24800.00
02204             -20.40    25600.00
02205              13.00    25600.00
02206             -11.80    25600.00
02207             -12.20    26400.00
02208               9.00    27200.00
02209             -13.20    27200.00
02210              -5.80    28000.00
02211               0.60    28000.00
02212              -9.60    28000.00
02213              -6.80    28800.00
02214              -0.60    28800.00
02215             -10.00    28800.00
02216              -7.40    28800.00
02217              -3.00    30400.00
02218             -10.20    30400.00
02219              -6.20    30400.00
02220              -2.80    31200.00
02221             -11.00    31200.00
02222              -5.00    31200.00
02223              -6.20    32000.00
02224             -11.80    32000.00
02225              -4.20    32000.00
02226              -9.20    32000.00
02227             -10.00    32800.00
02228              -4.80    32000.00
02229             -10.20    32800.00
02230             -10.00    32800.00
02231              -7.80    33600.00
02232             -10.20    32800.00
02233              -9.80    32800.00
02234              -8.40    33600.00
02235              -9.60    33600.00
02236             -10.80    33600.00
02237              -8.20    33600.00
02238             -10.40    33600.00
02239             -11.00    33600.00
02240              -9.00    33600.00
02241             -12.20    33600.00
02242              -9.00    33600.00
02243             -10.00    33600.00
02244             -12.60    33600.00
02245              -9.00    33600.00
02246             -11.00    33600.00
02247             -10.60    33600.00
02248              -9.20    33600.00
02249             -10.80    33600.00
02250              -9.60    33600.00
02251              -8.40    32800.00
02252              -9.20    33600.00
02253              -9.80    32800.00
02254              -8.20    32800.00
02255              -8.20    32800.00
02256              -8.60    32000.00
02257              -7.40    32800.00
02258              -8.60    32000.00
02259              -7.60    32800.00
02260              -6.80    31200.00
02261              -8.20    32000.00
02262              -6.80    31200.00
02263              -6.60    31200.00
02264              -7.00    30400.00
02265              -6.20    30400.00
02266              -6.60    29600.00
02267              -6.60    30400.00
02268              -5.80    29600.00
02269              -6.00    28800.00
02270              -6.00    28800.00
02271              -5.60    28800.00
02272              -5.80    28000.00
02273              -5.40    27200.00
02274              -5.20    27200.00
02275              -5.00    27200.00
02276              -5.20    27200.00
02277              -4.60    25600.00
02278              -4.40    25600.00
02279              -4.40    25600.00
02280              -4.40    25600.00
02281              -4.40    24800.00
02282              -4.20    24000.00
02283              -3.80    24000.00
02284              -3.80    24000.00
02285              -3.40    23200.00
02286              -4.20    22400.00
02287              -3.60    22400.00
02288              -3.00    21600.00
02289              -3.60    21600.00
02290              -3.80    20800.00
02291              -3.00    20000.00
02292              -2.60    19200.00
02293              -3.40    18400.00
02294              -3.00    18400.00
02295              -2.60    17600.00
02296              -2.80    17600.00
02297              -2.20    16000.00
02298              -2.20    16000.00
02299              -2.40    16000.00
02300              -2.40    15200.00
02301              -2.00    14400.00
02302              -2.00    14400.00
02303              -2.20    13600.00
02304              -2.20    12800.00
02305              -1.40    12800.00
02306              -1.40    12000.00
02307              -1.40    11200.00
02308              -2.00    11200.00
02309              -1.20    10400.00
02310              -1.20     9600.00
02311              -1.40     8800.00
02312              -0.60     8000.00
02313              -1.20     8000.00
02314              -1.20     7200.00
02315              -0.60     7200.00
02316              -1.00     5600.00
02317              -0.40     5600.00
02318              -0.60     4800.00
02319              -0.60     4000.00
02320              -0.60     3200.00
02321              -1.00     2400.00
02322              -1.00     1600.00
02323              -0.40     1600.00
02324              -0.60      800.00
02325               0.20        0.00
02326               1.00     -800.00
02327               1.80     -800.00
02328               3.00     -800.00
02329              -1.40    -1600.00
02330               0.60    -2400.00
02331               2.00    -3200.00
02332               0.60    -4000.00
02333               0.40    -4000.00
02334               8.60    -4800.00
02335              25.00    -6400.00
02336              -3.80    -7200.00
02337             -25.00    -8000.00
02338               6.80    -8000.00
02339              24.20    -8800.00
02340             -25.00    -8000.00
02341             -13.00    -8800.00
02342              25.00   -10400.00
02343             -25.00   -10400.00
02344             -25.00   -11200.00
02345              25.00   -12000.00
02346             -25.00   -12000.00
02347              -1.80   -12800.00
02348              20.80   -13600.00
02349             -13.20   -13600.00
02350              25.00   -14400.00
02351             -25.00   -14400.00
02352              20.00   -14400.00
02353              25.00   -16000.00
02354             -25.00   -16000.00
02355              18.80   -17600.00
02356              25.00   -17600.00
02357             -25.00   -18400.00
02358              -1.20   -18400.00
02359              25.00   -19200.00
02360             -25.00   -19200.00
02361               4.20   -20000.00
02362              25.00   -20800.00
02363             -17.00   -20800.00
02364              10.60   -21600.00
02365               5.00   -22400.00
02366              -6.80   -23200.00
02367              10.20   -22400.00
02368               2.80   -23200.00
02369              -1.00   -24000.00
02370              14.00   -24000.00
02371              -1.00   -24800.00
02372              -3.00   -25600.00
02373              16.60   -25600.00
02374              -5.20   -25600.00
02375               3.40   -26400.00
02376              14.60   -27200.00
02377              -2.60   -27200.00
02378               4.40   -28000.00
02379              10.20   -27200.00
02380               0.60   -28800.00
02381               5.80   -28800.00
02382               9.40   -28800.00
02383               1.60   -28800.00
02384               6.60   -28800.00
02385               8.40   -29600.00
02386               2.40   -29600.00
02387               8.60   -30400.00
02388               8.60   -30400.00
02389               3.80   -30400.00
02390               9.40   -31200.00
02391               7.40   -31200.00
02392               6.60   -31200.00
02393               5.80   -31200.00
02394               9.00   -32000.00
02395               8.40   -32000.00
02396               1.40   -32000.00
02397              14.60   -32000.00
02398               3.40   -32000.00
02399              18.60   -32000.00
02400               6.40   -32000.00
02401               5.80   -32800.00
02402              17.40   -32800.00
02403              -1.20   -32800.00
02404              10.20   -32800.00
02405               8.40   -32800.00
02406               9.00   -32800.00
02407              12.60   -32800.00
02408              11.60   -32800.00
02409              10.60   -32800.00
02410               9.40   -32800.00
02411              14.20   -32800.00
02412               5.80   -32800.00
02413               7.00   -32800.00
02414               9.20   -32800.00
02415               8.60   -32800.00
02416               9.40   -32000.00
02417              10.00   -32800.00
02418              10.80   -32000.00
02419              11.60   -32000.00
02420               6.80   -32800.00
02421               5.00   -32000.00
02422               8.40   -32000.00
02423               6.80   -32000.00
02424               4.60   -32000.00
02425               7.00   -30400.00
02426              10.00   -31200.00
02427               9.00   -30400.00
02428               5.60   -30400.00
02429               9.80   -30400.00
02430               5.60   -29600.00
02431               1.80   -29600.00
02432               7.40   -29600.00
02433               4.60   -28800.00
02434               2.60   -28800.00
02435               8.60   -28800.00
02436               8.40   -28800.00
02437               3.40   -28000.00
02438               7.60   -28000.00
02439               3.60   -27200.00
02440               2.20   -27200.00
02441               4.80   -26400.00
02442               2.60   -26400.00
02443               3.80   -26400.00
02444               6.60   -25600.00
02445               5.20   -25600.00
02446               3.60   -24800.00
02447               4.60   -24800.00
02448               2.20   -24000.00
02449               1.40   -23200.00
02450               3.80   -24000.00
02451               2.00   -22400.00
02452               2.60   -22400.00
02453               4.80   -21600.00
02454               3.00   -20800.00
02455               3.40   -20800.00
02456               3.40   -20000.00
02457               1.80   -18400.00
02458               1.40   -19200.00
02459               1.40   -18400.00
02460               1.00   -17600.00
02461               2.20   -17600.00
02462               2.80   -17600.00
02463               2.00   -16800.00
02464               2.60   -16000.00
02465               1.80   -15200.00
02466               0.20   -14400.00
02467               1.60   -14400.00
02468               1.40   -14400.00
02469               0.20   -13600.00
02470               1.80   -12800.00
02471               1.20   -12000.00
02472               0.60   -11200.00
02473               1.40   -11200.00
02474               0.40   -11200.00
02475               0.40    -9600.00
02476               0.60    -9600.00
02477              -0.20    -8000.00
02478               0.20    -8000.00
02479               0.60    -7200.00
02480               0.40    -7200.00
02481               0.40    -6400.00
02482              -0.20    -5600.00
02483               0.20    -4800.00
02484               0.20    -4800.00
02485              -0.40    -3200.00
02486              -0.40    -3200.00
02487               0.00    -2400.00
02488              -0.40    -1600.00
02489              -0.40    -1600.00
02490              -0.40     -800.00
02491              -0.20        0.00
02492              -0.20     1600.00
02493              -0.40      800.00
02494               2.00     1600.00
02495               2.00     2400.00
02496              -3.20     3200.00
02497               0.20     3200.00
02498               1.00     4800.00
02499              -2.20     4000.00
02500               3.80     5600.00
02501              25.00     6400.00
02502               8.20     7200.00
02503             -25.00     8000.00
02504              -0.60     8800.00
02505              25.00     8800.00
02506             -25.00     8800.00
02507               8.20     9600.00
02508              25.00    11200.00
02509             -25.00    10400.00
02510              25.00    11200.00
02511              25.00    12000.00
02512             -25.00    12000.00
02513              25.00    12800.00
02514             -25.00    12800.00
02515              25.00    14400.00
02516              25.00    14400.00
02517             -25.00    15200.00
02518              25.00    16000.00
02519             -10.20    16000.00
02520             -25.00    16000.00
02521              25.00    17600.00
02522              -8.60    17600.00
02523             -25.00    19200.00
02524              17.20    19200.00
02525              11.00    19200.00
02526             -25.00    20000.00
02527              25.00    21600.00
02528              -4.20    21600.00
02529             -17.20    21600.00
02530              21.40    22400.00
02531             -25.00    22400.00
02532               1.20    24000.00
02533               5.20    24000.00
02534             -15.60    24800.00
02535               0.40    24000.00
02536               9.40    24800.00
02537             -21.40    24800.00
02538               0.40    25600.00
02539               4.60    25600.00
02540             -22.60    27200.00
02541               6.80    27200.00
02542              -3.00    27200.00
02543             -12.40    28000.00
02544               1.00    28000.00
02545              -5.40    28000.00
02546             -10.60    28800.00
02547              -1.40    28800.00
02548              -5.40    29600.00
02549              -9.80    29600.00
02550              -3.00    30400.00
02551              -7.20    30400.00
02552              -9.80    30400.00
02553              -2.80    30400.00
02554              -8.60    31200.00
02555              -8.60    31200.00
02556              -3.00    32000.00
02557             -11.60    32800.00
02558              -7.00    32000.00
02559              -5.20    32000.00
02560             -11.80    32800.00
02561              -5.60    32800.00
02562              -7.40    32000.00
02563             -11.00    32800.00
02564              -7.80    32800.00
02565              -9.60    33600.00
02566             -10.20    33600.00
02567              -8.40    33600.00
02568              -9.00    33600.00
02569             -11.20    33600.00
02570              -9.20    33600.00
02571              -9.20    33600.00
02572             -12.40    33600.00
02573              -8.80    33600.00
02574             -11.00    33600.00
02575             -11.00    33600.00
02576              -8.00    33600.00
02577             -12.40    34400.00
02578             -10.40    33600.00
02579              -9.20    33600.00
02580             -11.60    33600.00
02581              -9.40    33600.00
02582             -10.00    33600.00
02583             -10.20    33600.00
02584              -9.60    33600.00
02585              -8.60    33600.00
02586              -9.20    33600.00
02587              -9.40    33600.00
02588              -7.80    32800.00
02589              -8.60    32000.00
02590              -7.80    32800.00
02591              -7.80    32000.00
02592              -8.60    32800.00
02593              -7.00    32000.00
02594              -7.40    31200.00
02595              -7.40    31200.00
02596              -6.80    31200.00
02597              -6.80    30400.00
02598              -6.80    30400.00
02599              -6.60    30400.00
02600              -6.20    30400.00
02601              -6.20    30400.00
02602              -6.60    29600.00
02603              -5.40    28800.00
02604              -5.40    28800.00
02605              -6.40    28000.00
02606              -5.20    28000.00
02607              -5.20    27200.00
02608              -4.60    27200.00
02609              -5.20    26400.00
02610              -5.80    27200.00
02611              -3.40    25600.00
02612              -4.40    25600.00
02613              -5.20    25600.00
02614              -3.20    24800.00
02615              -4.60    24000.00
02616              -5.20    24000.00
02617              -2.80    24000.00
02618              -3.20    23200.00
02619              -5.40    22400.00
02620              -2.60    22400.00
02621              -2.80    21600.00
02622              -4.60    21600.00
02623              -2.40    20800.00
02624              -3.00    20800.00
02625              -3.00    19200.00
02626              -2.00    19200.00
02627              -3.60    18400.00
02628              -2.60    18400.00
02629              -2.20    17600.00
02630              -2.80    16800.00
02631              -1.80    16800.00
02632              -2.20    16000.00
02633              -2.60    15200.00
02634              -2.20    15200.00
02635              -2.00    14400.00
02636              -2.60    13600.00
02637              -1.40    12800.00
02638              -1.20    12800.00
02639              -1.20    12000.00
02640              -1.40    11200.00
02641              -2.00    11200.00
02642              -1.80    10400.00
02643              -0.60     9600.00
02644              -1.80     8800.00
02645              -1.20     8000.00
02646              -0.80     8000.00
02647              -1.00     8000.00
02648              -1.00     6400.00
02649              -0.60     6400.00
02650              -1.00     5600.00
02651              -0.60     4800.00
02652              -1.00     4000.00
02653              -0.60     3200.00
02654              -0.20     3200.00
02655              -0.60     2400.00
02656              -0.20     1600.00
02657              -0.20     1600.00
02658              -0.60        0.00
02659               0.20        0.00
02660               0.60     -800.00
02661               3.60     -800.00
02662              -0.40    -1600.00
02663              -1.20    -1600.00
02664               1.80    -3200.00
02665               1.80    -3200.00
02666              -0.40    -4000.00
02667               4.60    -4800.00
02668              18.60    -4800.00
02669              21.20    -7200.00
02670             -25.00    -7200.00
02671             -21.00    -8000.00
02672              25.00    -8000.00
02673              -7.80    -8800.00
02674             -25.00    -8000.00
02675              25.00    -9600.00
02676              25.00   -10400.00
02677             -25.00   -10400.00
02678              25.00   -11200.00
02679              16.40   -11200.00
02680             -25.00   -12000.00
02681              25.00   -13600.00
02682             -18.00   -12800.00
02683              20.60   -14400.00
02684              -7.80   -14400.00
02685             -19.80   -15200.00
02686              25.00   -16000.00
02687             -25.00   -16800.00
02688             -13.40   -16800.00
02689              25.00   -16800.00
02690             -10.00   -17600.00
02691             -22.60   -18400.00
02692              25.00   -19200.00
02693               1.80   -19200.00
02694             -22.80   -20000.00
02695              25.00   -20800.00
02696              -4.40   -20800.00
02697              -5.40   -21600.00
02698              15.60   -22400.00
02699              -8.20   -22400.00
02700               5.40   -23200.00
02701               8.40   -24000.00
02702              -2.80   -24000.00
02703               8.40   -24000.00
02704               9.80   -24000.00
02705              -9.20   -24800.00
02706              12.80   -25600.00
02707               6.00   -25600.00
02708              -7.00   -26400.00
02709              14.80   -27200.00
02710               3.40   -26400.00
02711              -0.40   -27200.00
02712              10.20   -27200.00
02713               4.60   -28000.00
02714               1.40   -28800.00
02715               9.40   -28800.00
02716               5.00   -28800.00
02717               2.60   -28800.00
02718              10.00   -29600.00
02719               4.40   -29600.00
02720               4.80   -30400.00
02721              10.60   -30400.00
02722               5.00   -30400.00
02723               5.40   -30400.00
02724              10.00   -31200.00
02725               4.40   -31200.00
02726               7.40   -31200.00
02727               9.00   -32000.00
02728               6.40   -32000.00
02729               9.80   -32800.00
02730               8.20   -32000.00
02731               7.00   -32800.00
02732               9.00   -32800.00
02733               8.40   -32800.00
02734               8.60   -32800.00
02735               9.40   -32800.00
02736               9.80   -32000.00
02737               8.60   -32800.00
02738              10.20   -32800.00
02739               9.80   -32800.00
02740               8.40   -33600.00
02741              11.00   -32800.00
02742               9.40   -32800.00
02743               9.40   -32800.00
02744              10.80   -32800.00
02745               9.20   -32800.00
02746              10.20   -32800.00
02747              10.20   -32800.00
02748               9.00   -32800.00
02749               9.00   -32800.00
02750               9.00   -32000.00
02751               8.40   -32800.00
02752               8.40   -32800.00
02753               9.00   -32000.00
02754               7.80   -32000.00
02755               8.40   -32000.00
02756               8.20   -32000.00
02757               6.60   -31200.00
02758               7.80   -32000.00
02759               7.60   -32000.00
02760               6.40   -30400.00
02761               7.00   -30400.00
02762               6.80   -30400.00
02763               6.40   -30400.00
02764               6.80   -29600.00
02765               6.20   -28800.00
02766               5.80   -28800.00
02767               5.80   -28800.00
02768               5.00   -28800.00
02769               5.00   -28800.00
02770               5.20   -28000.00
02771               5.00   -28000.00
02772               4.40   -27200.00
02773               5.20   -27200.00
02774               4.80   -26400.00
02775               4.20   -26400.00
02776               4.40   -26400.00
02777               3.60   -25600.00
02778               3.80   -24800.00
02779               4.00   -24800.00
02780               3.40   -24000.00
02781               3.80   -24000.00
02782               3.20   -24000.00
02783               3.60   -23200.00
02784               3.40   -23200.00
02785               2.80   -23200.00
02786               2.80   -22400.00
02787               2.80   -21600.00
02788               2.80   -20800.00
02789               2.60   -20000.00
02790               2.00   -20000.00
02791               2.20   -18400.00
02792               2.60   -18400.00
02793               2.00   -18400.00
02794               1.80   -17600.00
02795               2.00   -16800.00
02796               1.40   -16000.00
02797               1.40   -16000.00
02798               2.20   -16000.00
02799               0.40   -14400.00
02800               1.40   -14400.00
02801               2.60   -14400.00
02802              -0.40   -13600.00
02803               1.40   -12800.00
02804               2.00   -12800.00
02805              -0.40   -11200.00
02806               0.40   -11200.00
02807               1.80   -10400.00
02808               0.40   -10400.00
02809              -0.60    -9600.00
02810               1.00    -8800.00
02811               1.40    -8000.00
02812              -0.60    -8000.00
02813              -0.20    -7200.00
02814               1.40    -6400.00
02815              -0.20    -5600.00
02816              -1.20    -4800.00
02817               2.00    -4800.00
02818               0.20    -4000.00
02819              -1.80    -3200.00
02820               1.00    -2400.00
02821               0.40    -1600.00
02822              -1.00     -800.00
02823              -0.40    -1600.00
02824              -0.20        0.00
02825               0.20        0.00
02826              -0.60      800.00
02827               0.60     1600.00
02828               4.60     1600.00
02829              -3.00     2400.00
02830              -2.00     2400.00
02831               2.80     3200.00
02832              -1.20     4000.00
02833              -2.00     4800.00
02834              16.40     5600.00
02835              25.00     7200.00
02836             -25.00     8000.00
02837             -25.00     8000.00
02838              25.00     8800.00
02839              -9.80     8000.00
02840             -25.00     8800.00
02841              25.00    11200.00
02842             -23.40    10400.00
02843             -25.00    11200.00
02844              25.00    12000.00
02845             -25.00    12000.00
02846              21.00    12800.00
02847              12.20    12800.00
02848             -25.00    14400.00
02849              25.00    14400.00
02850             -25.00    15200.00
02851               7.40    16000.00
02852              25.00    16000.00
02853             -25.00    16000.00
02854              25.00    16800.00
02855              25.00    17600.00
02856             -25.00    18400.00
02857              -7.60    18400.00
02858              25.00    19200.00
02859             -25.00    19200.00
02860              -4.20    20800.00
02861              25.00    21600.00
02862             -25.00    21600.00
02863              16.60    21600.00
02864              -8.60    22400.00
02865             -18.00    23200.00
02866              13.20    24000.00
02867             -10.00    24000.00
02868              -9.40    24800.00
02869              11.40    24800.00
02870              -9.80    25600.00
02871             -15.80    25600.00
02872              13.40    25600.00
02873             -17.40    27200.00
02874              -6.00    26400.00
02875               6.80    27200.00
02876             -14.80    27200.00
02877              -3.40    28000.00
02878              -0.80    28000.00
02879             -10.80    28800.00
02880              -5.00    28800.00
02881              -1.20    28800.00
02882             -10.60    29600.00
02883              -5.80    30400.00
02884              -3.80    30400.00
02885             -10.60    30400.00
02886              -5.00    30400.00
02887              -3.80    30400.00
02888             -11.40    31200.00
02889              -3.80    31200.00
02890              -7.80    31200.00
02891             -10.80    32800.00
02892              -3.80    32000.00
02893             -10.40    32800.00
02894              -8.60    32800.00
02895              -4.60    32800.00
02896             -10.20    32000.00
02897              -9.00    33600.00
02898              -8.40    32800.00
02899             -10.20    33600.00
02900              -8.80    32800.00
02901              -8.60    33600.00
02902             -10.20    33600.00
02903             -10.20    34400.00
02904              -8.40    33600.00
02905             -11.60    33600.00
02906             -10.20    33600.00
02907              -9.40    33600.00
02908             -12.60    33600.00
02909              -8.60    33600.00
02910             -10.60    33600.00
02911             -12.40    33600.00
02912              -8.60    33600.00
02913             -11.20    33600.00
02914             -10.20    33600.00
02915              -9.40    33600.00
02916             -10.60    33600.00
02917              -9.40    33600.00
02918              -9.20    33600.00
02919              -9.20    33600.00
02920              -9.60    33600.00
02921              -8.20    32800.00
02922              -9.00    32800.00
02923              -8.40    32800.00
02924              -7.60    32000.00
02925              -9.20    32000.00
02926              -7.60    32000.00
02927              -7.00    32800.00
02928              -7.80    32000.00
02929              -6.80    31200.00
02930              -7.00    31200.00
02931              -7.40    30400.00
02932              -6.40    30400.00
02933              -6.60    30400.00
02934              -6.60    30400.00
02935              -6.20    29600.00
02936              -6.00    28800.00
02937              -6.00    28800.00
02938              -6.00    28800.00
02939              -5.40    28000.00
02940              -5.60    28000.00
02941              -5.20    27200.00
02942              -5.00    27200.00
02943              -5.40    26400.00
02944              -4.40    25600.00
02945              -4.20    25600.00
02946              -4.60    25600.00
02947              -3.80    24800.00
02948              -4.60    24000.00
02949              -4.20    24800.00
02950              -3.80    24000.00
02951              -3.60    23200.00
02952              -3.80    22400.00
02953              -3.80    22400.00
02954              -3.40    21600.00
02955              -3.20    21600.00
02956              -3.60    21600.00
02957              -3.40    20800.00
02958              -2.80    20000.00
02959              -2.00    19200.00
02960              -3.00    18400.00
02961              -2.60    18400.00
02962              -2.20    17600.00
02963              -2.60    16800.00
02964              -2.20    16800.00
02965              -2.20    16000.00
02966              -2.20    15200.00
02967              -2.20    15200.00
02968              -2.20    14400.00
02969              -1.80    14400.00
02970              -2.00    13600.00
02971              -2.20    12800.00
02972              -1.20    12000.00
02973              -1.20    12000.00
02974              -2.00    11200.00
02975              -1.80    11200.00
02976              -1.00     9600.00
02977              -1.20     9600.00
02978              -1.40     8800.00
02979              -0.60     8000.00
02980              -1.60     8000.00
02981              -1.20     8000.00
02982              -1.00     6400.00
02983              -1.00     5600.00
02984              -0.80     5600.00
02985              -0.60     4800.00
02986              -1.00     4000.00
02987              -0.60     3200.00
02988              -0.60     2400.00
02989              -1.00     1600.00
02990              -0.20     1600.00
02991              -0.40        0.00
02992               0.20        0.00
02993               0.40        0.00
02994               2.20    -1600.00
02995               2.00    -1600.00
02996              -1.80    -1600.00
02997               1.00    -2400.00
02998               1.80    -3200.00
02999               0.20    -3200.00
03000               1.40    -4000.00
03001              10.80    -4000.00
03002              25.00    -6400.00
03003             -15.80    -7200.00
03004             -25.00    -8000.00
03005              15.80    -8000.00
03006              18.00    -8800.00
03007             -25.00    -8800.00
03008               3.00    -9600.00
03009              25.00   -10400.00
03010             -25.00   -10400.00
03011              -3.00   -11200.00
03012              25.00   -12000.00
03013             -25.00   -12000.00
03014              14.60   -12800.00
03015               9.00   -12800.00
03016              -4.20   -13600.00
03017              22.20   -15200.00
03018             -25.00   -14400.00
03019              25.00   -16000.00
03020              14.60   -16000.00
03021             -25.00   -16800.00
03022              25.00   -16800.00
03023              17.60   -17600.00
03024             -25.00   -18400.00
03025               9.00   -18400.00
03026              25.00   -20000.00
03027             -25.00   -19200.00
03028              14.60   -20000.00
03029              19.00   -20800.00
03030             -16.80   -20800.00
03031              14.80   -21600.00
03032              -0.20   -22400.00
03033              -3.80   -22400.00
03034              10.80   -23200.00
03035               0.80   -23200.00
03036               1.20   -24000.00
03037              14.80   -24000.00
03038              -4.80   -24800.00
03039               1.40   -24800.00
03040              15.40   -25600.00
03041              -8.20   -26400.00
03042               8.00   -26400.00
03043              11.80   -27200.00
03044              -3.00   -27200.00
03045               6.80   -27200.00
03046               8.60   -27200.00
03047              -0.20   -28000.00
03048               7.20   -28800.00
03049               8.40   -28800.00
03050               1.40   -28800.00
03051               7.40   -29600.00
03052               7.20   -29600.00
03053               3.00   -29600.00
03054               9.00   -30400.00
03055               7.60   -30400.00
03056               4.20   -30400.00
03057               9.80   -31200.00
03058               5.80   -30400.00
03059               5.80   -31200.00
03060               9.40   -32000.00
03061               5.80   -32000.00
03062               8.60   -32000.00
03063              10.00   -32000.00
03064               6.00   -32000.00
03065               8.40   -32000.00
03066               9.20   -32000.00
03067               7.60   -32800.00
03068               9.80   -32000.00
03069               9.80   -32800.00
03070               8.60   -32800.00
03071              10.00   -32800.00
03072              10.20   -32800.00
03073               8.40   -32800.00
03074              10.20   -32800.00
03075              10.00   -32800.00
03076               9.20   -32800.00
03077              11.40   -33600.00
03078               9.40   -32800.00
03079               9.80   -32800.00
03080              10.80   -32800.00
03081               9.00   -32800.00
03082               9.60   -32800.00
03083               9.80   -32800.00
03084               9.20   -32800.00
03085               8.60   -32000.00
03086               8.40   -32800.00
03087               8.20   -32000.00
03088               8.20   -32000.00
03089               8.20   -32000.00
03090               7.40   -31200.00
03091               7.40   -32000.00
03092               7.40   -30400.00
03093               6.80   -31200.00
03094               7.00   -30400.00
03095               6.60   -30400.00
03096               6.20   -30400.00
03097               6.80   -30400.00
03098               6.00   -29600.00
03099               5.60   -29600.00
03100               6.20   -29600.00
03101               5.20   -28800.00
03102               5.20   -28800.00
03103               5.80   -28000.00
03104               5.20   -28000.00
03105               4.40   -27200.00
03106               4.80   -27200.00
03107               4.20   -27200.00
03108               4.60   -26400.00
03109               4.60   -25600.00
03110               3.60   -25600.00
03111               4.00   -25600.00
03112               4.20   -24800.00
03113               3.40   -24000.00
03114               3.60   -24000.00
03115               3.40   -23200.00
03116               3.00   -23200.00
03117               3.60   -23200.00
03118               2.60   -22400.00
03119               2.60   -22400.00
03120               2.80   -22400.00
03121               2.40   -20800.00
03122               2.40   -20800.00
03123               2.20   -20000.00
03124               2.00   -19200.00
03125               2.00   -18400.00
03126               2.00   -18400.00
03127               1.80   -17600.00
03128               1.80   -17600.00
03129               1.80   -16800.00
03130               1.80   -16800.00
03131               1.80   -16000.00
03132               1.40   -16000.00
03133               1.40   -15200.00
03134               1.80   -14400.00
03135               1.00   -13600.00
03136               1.00   -12800.00
03137               1.20   -12800.00
03138               0.40   -11200.00
03139               1.00   -11200.00
03140               1.00   -11200.00
03141               0.20   -10400.00
03142               0.60    -9600.00
03143               0.40    -9600.00
03144               0.40    -8000.00
03145               1.00    -8800.00
03146               0.40    -7200.00
03147               0.40    -7200.00
03148               0.40    -6400.00
03149               0.20    -4800.00
03150               0.40    -4800.00
03151              -0.20    -4800.00
03152              -0.40    -3200.00
03153               0.20    -3200.00
03154              -0.20    -2400.00
03155              -0.20    -1600.00
03156              -0.40    -1600.00
03157              -0.40        0.00
03158               0.20     -800.00
03159               0.00        0.00
03160               0.00     1600.00
03161               3.00     1600.00
03162               1.00     2400.00
03163              -2.80     2400.00
03164               0.40     3200.00
03165               0.60     4000.00
03166              -2.20     4800.00
03167               6.40     5600.00
03168              25.00     7200.00
03169              -6.00     7200.00
03170             -25.00     8000.00
03171               9.80     8000.00
03172              19.60     8800.00
03173             -25.00     8800.00
03174              25.00     9600.00
03175              25.00    11200.00
03176             -25.00    10400.00
03177              25.00    11200.00
03178               2.20    11200.00
03179             -25.00    12800.00
03180              25.00    12800.00
03181             -25.00    13600.00
03182              25.00    14400.00
03183              10.00    14400.00
03184             -25.00    15200.00
03185              25.00    16000.00
03186             -25.00    16000.00
03187             -25.00    17600.00
03188              25.00    17600.00
03189             -20.00    18400.00
03190             -25.00    18400.00
03191              24.40    19200.00
03192               0.40    20000.00
03193             -25.00    20800.00
03194              25.00    21600.00
03195             -16.60    21600.00
03196              -7.80    22400.00
03197              16.20    22400.00
03198             -25.00    23200.00
03199               6.80    24000.00
03200               0.60    24000.00
03201             -15.80    24000.00
03202               4.20    24800.00
03203               5.80    25600.00
03204             -23.00    25600.00
03205               6.80    25600.00
03206              -1.40    25600.00
03207             -20.40    27200.00
03208               9.00    27200.00
03209              -7.40    27200.00
03210             -10.20    28000.00
03211               1.80    28000.00
03212              -7.00    28800.00
03213             -10.00    28800.00
03214              -0.60    28800.00
03215              -7.00    29600.00
03216              -9.20    29600.00
03217              -2.60    30400.00
03218              -7.80    30400.00
03219              -8.60    31200.00
03220              -2.00    30400.00
03221              -9.40    31200.00
03222              -7.20    31200.00
03223              -4.20    32000.00
03224             -12.20    32800.00
03225              -5.20    32000.00
03226              -7.00    32800.00
03227             -11.60    32800.00
03228              -4.40    32000.00
03229              -8.40    32800.00
03230             -10.80    32800.00
03231              -7.00    33600.00
03232             -10.20    32800.00
03233             -10.20    33600.00
03234              -8.20    33600.00
03235              -9.60    33600.00
03236             -11.00    33600.00
03237              -8.60    33600.00
03238              -9.80    33600.00
03239             -11.80    33600.00
03240              -8.60    33600.00
03241             -11.80    33600.00
03242             -10.40    33600.00
03243              -9.00    33600.00
03244             -12.60    33600.00
03245              -9.40    33600.00
03246             -10.20    33600.00
03247             -11.20    33600.00
03248              -9.20    33600.00
03249             -10.80    33600.00
03250             -10.20    33600.00
03251              -9.20    33600.00
03252              -9.40    33600.00
03253              -9.40    32800.00
03254              -8.40    32800.00
03255              -8.40    32800.00
03256              -9.20    32800.00
03257              -7.40    32000.00
03258              -8.40    32000.00
03259              -8.80    32000.00
03260              -7.40    31200.00
03261              -7.80    31200.00
03262              -7.60    31200.00
03263              -6.80    30400.00
03264              -7.00    31200.00
03265              -6.40    30400.00
03266              -6.60    30400.00
03267              -7.00    30400.00
03268              -6.40    29600.00
03269              -6.20    28800.00
03270              -5.60    28800.00
03271              -5.20    28800.00
03272              -6.00    28800.00
03273              -5.80    28000.00
03274              -5.00    27200.00
03275              -4.60    27200.00
03276              -5.40    27200.00
03277              -4.60    26400.00
03278              -4.20    25600.00
03279              -5.00    26400.00
03280              -4.20    25600.00
03281              -3.80    24800.00
03282              -4.60    24800.00
03283              -3.60    24000.00
03284              -2.80    24000.00
03285              -4.40    23200.00
03286              -4.20    22400.00
03287              -2.80    22400.00
03288              -3.40    21600.00
03289              -3.60    21600.00
03290              -2.80    20800.00
03291              -3.60    20000.00
03292              -2.80    19200.00
03293              -2.20    19200.00
03294              -3.40    18400.00
03295              -2.40    18400.00
03296              -2.20    17600.00
03297              -2.40    16800.00
03298              -2.00    16000.00
03299              -2.60    16000.00
03300              -2.00    15200.00
03301              -2.20    14400.00
03302              -2.00    14400.00
03303              -2.00    14400.00
03304              -1.80    13600.00
03305              -1.80    12800.00
03306              -1.40    12000.00
03307              -1.80    12000.00
03308              -1.40    11200.00
03309              -1.80    10400.00
03310              -0.60     9600.00
03311              -1.80     9600.00
03312              -1.40     8800.00
03313              -1.40     8000.00
03314              -1.40     7200.00
03315              -1.00     6400.00
03316              -1.00     5600.00
03317              -1.20     4800.00
03318              -0.60     4800.00
03319              -1.00     3200.00
03320              -0.60     3200.00
03321              -0.60     2400.00
03322              -1.00     2400.00
03323              -0.60     1600.00
03324              -0.20     1600.00
03325               0.00        0.00
03326               0.00        0.00
03327               1.00     -800.00
03328               3.60     -800.00
03329              -1.00    -1600.00
03330              -0.40    -1600.00
03331               2.00    -3200.00
03332               1.00    -3200.00
03333              -0.40    -4000.00
03334               5.80    -4800.00
03335              21.60    -5600.00
03336              14.20    -6400.00
03337             -25.00    -8000.00
03338             -10.20    -8000.00
03339              25.00    -8000.00
03340             -19.00    -8000.00
03341             -25.00    -8000.00
03342              25.00    -9600.00
03343              11.40   -10400.00
03344             -25.00   -10400.00
03345              25.00   -11200.00
03346              -9.20   -11200.00
03347             -25.00   -12800.00
03348              25.00   -13600.00
03349             -20.00   -13600.00
03350              25.00   -13600.00
03351             -21.40   -14400.00
03352              -5.20   -16000.00
03353              25.00   -16000.00
03354             -25.00   -16800.00
03355              -0.20   -16800.00
03356              25.00   -17600.00
03357             -18.40   -17600.00
03358             -15.40   -18400.00
03359              25.00   -19200.00
03360             -10.20   -19200.00
03361             -13.20   -20000.00
03362              25.00   -20800.00
03363             -11.40   -20800.00
03364               1.20   -20800.00
03365              12.40   -22400.00
03366              -8.60   -23200.00
03367               8.20   -23200.00
03368               6.00   -23200.00
03369              -2.80   -24000.00
03370              11.00   -24000.00
03371               5.40   -24800.00
03372              -7.60   -24800.00
03373              15.60   -25600.00
03374               1.20   -25600.00
03375              -3.40   -26400.00
03376              15.80   -26400.00
03377               0.40   -27200.00
03378               1.00   -27200.00
03379              10.80   -27200.00
03380               2.60   -28000.00
03381               2.80   -28800.00
03382               9.80   -28800.00
03383               3.40   -28800.00
03384               3.80   -29600.00
03385               9.00   -29600.00
03386               3.40   -29600.00
03387               6.20   -30400.00
03388               9.80   -30400.00
03389               3.80   -30400.00
03390               7.20   -30400.00
03391               9.00   -30400.00
03392               3.80   -30400.00
03393               8.60   -31200.00
03394               7.80   -32000.00
03395               6.60   -32800.00
03396              10.20   -32000.00
03397               7.20   -32800.00
03398               7.40   -32000.00
03399               9.40   -32000.00
03400               8.20   -32000.00
03401               8.40   -32800.00
03402              10.00   -32000.00
03403               9.00   -32800.00
03404               9.00   -32800.00
03405              10.80   -32800.00
03406               8.80   -32800.00
03407               9.20   -32800.00
03408              11.60   -32800.00
03409               9.00   -32800.00
03410              10.20   -32800.00
03411              10.80   -32800.00
03412               9.00   -32800.00
03413              10.60   -32800.00
03414               9.80   -32800.00
03415               9.00   -32800.00
03416               9.80   -32800.00
03417               9.00   -32800.00
03418               9.00   -32000.00
03419               8.40   -32800.00
03420               8.40   -32000.00
03421               8.20   -32000.00
03422               8.40   -32000.00
03423               7.80   -32000.00
03424               7.40   -32000.00
03425               8.20   -32000.00
03426               6.60   -31200.00
03427               6.80   -30400.00
03428               7.60   -30400.00
03429               6.20   -30400.00
03430               6.80   -29600.00
03431               6.20   -30400.00
03432               5.20   -29600.00
03433               6.00   -28800.00
03434               5.80   -28800.00
03435               4.60   -28800.00
03436               5.60   -28800.00
03437               5.00   -28000.00
03438               4.60   -27200.00
03439               5.00   -27200.00
03440               5.00   -27200.00
03441               4.20   -26400.00
03442               4.20   -26400.00
03443               3.80   -25600.00
03444               3.60   -25600.00
03445               3.80   -25600.00
03446               3.60   -24800.00
03447               3.40   -24000.00
03448               3.60   -24000.00
03449               2.80   -23200.00
03450               3.00   -22400.00
03451               3.00   -23200.00
03452               2.60   -22400.00
03453               3.00   -22400.00
03454               2.60   -20800.00
03455               2.60   -20800.00
03456               2.60   -20000.00
03457               2.00   -20000.00
03458               2.00   -18400.00
03459               2.00   -19200.00
03460               2.00   -18400.00
03461               1.80   -17600.00
03462               1.80   -17600.00
03463               1.80   -16800.00
03464               1.20   -16000.00
03465               1.60   -16000.00
03466               1.80   -15200.00
03467               1.40   -14400.00
03468               1.40   -14400.00
03469               1.00   -14400.00
03470               1.20   -13600.00
03471               1.00   -12800.00
03472               1.00   -12000.00
03473               1.20   -11200.00
03474               0.40   -10400.00
03475               0.40    -9600.00
03476               0.40    -9600.00
03477               0.20    -8800.00
03478               0.60    -8000.00
03479               0.40    -7200.00
03480               0.60    -7200.00
03481               0.40    -6400.00
03482               0.40    -5600.00
03483               0.40    -4800.00
03484               0.20    -4000.00
03485              -0.40    -4000.00
03486               0.20    -3200.00
03487               0.20    -3200.00
03488              -0.20    -2400.00
03489              -0.20    -1600.00
03490              -0.40     -800.00
03491              -0.20     -800.00
03492               0.20        0.00
03493              -0.20      800.00
03494               1.00     1600.00
03495               3.20     1600.00
03496              -2.80     2400.00
03497              -0.60     2400.00
03498               1.00     4000.00
03499              -1.20     4000.00
03500               1.00     4800.00
03501              18.00     5600.00
03502              25.00     7200.00
03503             -25.00     8000.00
03504             -21.60     8800.00
03505              25.00     8800.00
03506             -20.20     8800.00
03507             -23.80     9600.00
03508              25.00    10400.00
03509             -25.00    10400.00
03510              -6.20    12000.00
03511              25.00    12000.00
03512             -25.00    12000.00
03513              25.00    13600.00
03514             -14.20    12800.00
03515             -20.00    14400.00
03516              25.00    14400.00
03517             -25.00    15200.00
03518              25.00    15200.00
03519              25.00    16000.00
03520             -25.00    17600.00
03521              25.00    17600.00
03522              14.60    17600.00
03523             -25.00    18400.00
03524               2.00    18400.00
03525              25.00    19200.00
03526             -25.00    19200.00
03527               8.00    20000.00
03528              18.20    21600.00
03529             -25.00    21600.00
03530              21.40    22400.00
03531             -17.40    22400.00
03532             -11.00    23200.00
03533              11.40    24000.00
03534             -13.40    24000.00
03535              -5.80    24800.00
03536              13.00    24800.00
03537             -15.80    25600.00
03538             -10.20    25600.00
03539              12.60    26400.00
03540             -22.60    26400.00
03541               1.00    27200.00
03542               4.40    27200.00
03543             -16.40    27200.00
03544              -0.20    28000.00
03545              -2.00    28000.00
03546             -12.20    28800.00
03547              -2.80    28800.00
03548              -1.80    28800.00
03549             -11.00    29600.00
03550              -4.20    30400.00
03551              -5.20    30400.00
03552             -10.80    30400.00
03553              -3.60    31200.00
03554              -5.40    31200.00
03555             -10.00    32000.00
03556              -3.20    32000.00
03557              -9.80    31200.00
03558              -9.00    32800.00
03559              -4.60    32800.00
03560             -11.60    32800.00
03561              -6.60    32000.00
03562              -5.80    32800.00
03563             -11.20    32800.00
03564              -8.40    33600.00
03565              -8.40    32800.00
03566             -10.80    33600.00
03567              -8.60    33600.00
03568              -8.20    33600.00
03569             -11.20    33600.00
03570             -10.20    33600.00
03571              -8.40    33600.00
03572             -12.40    33600.00
03573             -10.00    33600.00
03574              -9.40    33600.00
03575             -12.40    33600.00
03576              -8.40    33600.00
03577             -11.40    33600.00
03578             -11.80    33600.00
03579              -9.40    33600.00
03580             -11.00    33600.00
03581             -10.20    33600.00
03582             -10.60    33600.00
03583             -10.40    33600.00
03584              -9.40    33600.00
03585              -9.60    33600.00
03586              -9.40    32800.00
03587              -9.40    33600.00
03588              -8.20    32800.00
03589              -9.20    32800.00
03590              -8.60    32800.00
03591              -7.20    32000.00
03592              -9.00    32000.00
03593              -7.60    32000.00
03594              -6.80    31200.00
03595              -8.40    31200.00
03596              -7.60    31200.00
03597              -6.40    30400.00
03598              -7.00    30400.00
03599              -6.20    30400.00
03600              -6.00    30400.00
03601              -6.80    29600.00
03602              -6.00    28800.00
03603              -5.40    28800.00
03604              -6.00    28800.00
03605              -6.00    28800.00
03606              -5.20    28000.00
03607              -5.60    28000.00
03608              -4.60    27200.00
03609              -4.80    27200.00
03610              -5.80    27200.00
03611              -4.20    26400.00
03612              -4.40    25600.00
03613              -4.40    25600.00
03614              -4.40    25600.00
03615              -4.60    24800.00
03616              -3.80    24000.00
03617              -3.60    24000.00
03618              -3.80    23200.00
03619              -3.60    23200.00
03620              -3.80    22400.00
03621              -3.40    22400.00
03622              -3.60    20800.00
03623              -3.40    20800.00
03624              -2.80    20800.00
03625              -2.20    20000.00
03626              -2.80    19200.00
03627              -3.00    18400.00
03628              -2.80    18400.00
03629              -2.80    17600.00
03630              -2.80    16800.00
03631              -2.00    16800.00
03632              -2.80    16000.00
03633              -2.20    16000.00
03634              -1.80    14400.00
03635              -2.20    14400.00
03636              -1.60    14400.00
03637              -2.20    12800.00
03638              -2.20    12800.00
03639              -1.40    12000.00
03640              -1.40    11200.00
03641              -2.00    11200.00
03642              -1.80    10400.00
03643              -1.00     9600.00
03644              -1.00     8800.00
03645              -1.80     8800.00
03646              -1.20     8000.00
03647              -2.00     8000.00
03648              -1.40     6400.00
03649              -1.00     6400.00
03650              -1.20     5600.00
03651              -0.60     4800.00
03652              -0.60     4800.00
03653              -0.60     4000.00
03654              -0.40     3200.00
03655              -1.00     1600.00
03656              -1.20     2400.00
03657              -0.20     1600.00
03658              -0.40      800.00
03659              -0.40        0.00
03660               0.40     -800.00
03661               3.40     -800.00
03662               1.00    -1600.00
03663              -1.20    -1600.00
03664               1.40    -2400.00
03665               1.40    -3200.00
03666               0.00    -3200.00
03667               2.60    -4000.00
03668              13.00    -4800.00
03669              25.00    -6400.00
03670             -25.00    -7200.00
03671             -25.00    -8000.00
03672              23.00    -8000.00
03673               9.60    -9600.00
03674             -25.00    -8800.00
03675              21.20    -8800.00
03676              25.00   -10400.00
03677             -25.00   -10400.00
03678              24.40   -11200.00
03679              25.00   -12000.00
03680             -25.00   -12000.00
03681              25.00   -12800.00
03682              -3.40   -13600.00
03683               6.20   -14400.00
03684              13.00   -14400.00
03685             -25.00   -15200.00
03686              25.00   -16000.00
03687              -1.80   -16000.00
03688             -25.00   -16800.00
03689              25.00   -17600.00
03690               6.80   -17600.00
03691             -25.00   -18400.00
03692              18.40   -18400.00
03693              18.80   -19200.00
03694             -25.00   -19200.00
03695              23.60   -20800.00
03696              10.60   -20800.00
03697             -14.00   -21600.00
03698              17.00   -22400.00
03699              -3.80   -22400.00
03700              -0.40   -23200.00
03701               9.80   -23200.00
03702              -0.60   -24000.00
03703               4.20   -24000.00
03704              13.20   -24800.00
03705              -7.40   -24800.00
03706               6.20   -25600.00
03707              11.80   -26400.00
03708              -8.60   -26400.00
03709              11.40   -27200.00
03710               8.20   -26400.00
03711              -2.60   -27200.00
03712               9.00   -27200.00
03713               6.80   -28000.00
03714               0.40   -28800.00
03715               8.40   -28800.00
03716               6.80   -28800.00
03717               1.80   -29600.00
03718               8.20   -29600.00
03719               5.80   -29600.00
03720               3.60   -29600.00
03721               9.40   -29600.00
03722               6.60   -30400.00
03723               4.60   -31200.00
03724               9.80   -31200.00
03725               5.40   -31200.00
03726               6.20   -31200.00
03727               8.60   -32000.00
03728               5.80   -32000.00
03729               9.60   -32000.00
03730               8.60   -32000.00
03731               7.00   -32800.00
03732               9.80   -32800.00
03733               8.60   -32000.00
03734               8.20   -32000.00
03735               9.80   -32800.00
03736               9.80   -32800.00
03737               8.60   -32800.00
03738              10.00   -32800.00
03739              10.00   -32800.00
03740               8.60   -32800.00
03741              10.80   -32800.00
03742              10.20   -32800.00
03743               9.40   -32800.00
03744              11.40   -32800.00
03745               9.20   -32800.00
03746               9.80   -32800.00
03747              10.60   -32800.00
03748               9.00   -32800.00
03749               9.80   -32800.00
03750               9.40   -32000.00
03751               8.80   -32000.00
03752               8.60   -32000.00
03753               8.40   -32800.00
03754               7.80   -32000.00
03755               8.20   -32000.00
03756               8.20   -32000.00
03757               7.40   -32000.00
03758               8.20   -30400.00
03759               7.40   -31200.00
03760               6.80   -30400.00
03761               7.60   -30400.00
03762               6.60   -30400.00
03763               6.20   -30400.00
03764               6.80   -30400.00
03765               6.00   -29600.00
03766               5.80   -29600.00
03767               6.20   -29600.00
03768               4.80   -28800.00
03769               5.40   -28800.00
03770               5.80   -28000.00
03771               4.20   -28000.00
03772               4.60   -27200.00
03773               5.20   -27200.00
03774               3.80   -27200.00
03775               4.60   -25600.00
03776               4.20   -26400.00
03777               3.60   -25600.00
03778               3.80   -25600.00
03779               3.60   -25600.00
03780               3.40   -24800.00
03781               3.40   -24000.00
03782               2.60   -24000.00
03783               3.60   -23200.00
03784               3.40   -23200.00
03785               2.40   -22400.00
03786               2.60   -22400.00
03787               3.00   -21600.00
03788               2.20   -20800.00
03789               2.60   -20800.00
03790               2.60   -20000.00
03791               2.00   -19200.00
03792               2.00   -18400.00
03793               2.00   -18400.00
03794               1.80   -17600.00
03795               1.80   -17600.00
03796               1.60   -16800.00
03797               1.80   -16800.00
03798               1.80   -16000.00
03799               1.40   -15200.00
03800               1.20   -14400.00
03801               1.40   -13600.00
03802               1.20   -13600.00
03803               1.00   -13600.00
03804               1.20   -12800.00
03805               1.00   -12000.00
03806               1.00   -11200.00
03807               0.80   -11200.00
03808               1.20   -10400.00
03809               0.60    -9600.00
03810               0.20    -8800.00
03811               0.40    -8000.00
03812               0.60    -8000.00
03813               0.20    -7200.00
03814               0.40    -6400.00
03815               0.60    -6400.00
03816               0.80    -4800.00
03817               0.20    -4800.00
03818              -0.40    -4000.00
03819               0.00    -3200.00
03820              -0.20    -3200.00
03821              -0.20    -1600.00
03822              -0.20    -1600.00
03823              -0.60     -800.00
03824              -0.20     -800.00
03825               0.40        0.00
03826              -0.40      800.00
03827               0.00     1600.00
03828               3.40     1600.00
03829              -0.60     2400.00
03830              -2.20     3200.00
03831               0.60     3200.00
03832              -0.40     3200.00
03833              -1.80     4800.00
03834               8.40     5600.00
03835              25.00     7200.00
03836             -19.60     8000.00
03837             -25.00     8000.00
03838              18.00     8800.00
03839              11.00     8800.00
03840             -25.00     8000.00
03841              25.00     9600.00
03842              25.00     9600.00
03843             -25.00    11200.00
03844              25.00    12000.00
03845             -25.00    11200.00
03846             -22.40    12800.00
03847              25.00    12800.00
03848             -25.00    12800.00
03849              25.00    14400.00
03850             -22.00    14400.00
03851             -25.00    15200.00
03852              25.00    16000.00
03853             -25.00    16800.00
03854              -4.60    17600.00
03855              25.00    17600.00
03856             -25.00    18400.00
03857             -21.00    18400.00
03858              25.00    19200.00
03859             -11.40    20000.00
03860             -25.00    20800.00
03861              25.00    20800.00
03862             -25.00    21600.00
03863               2.60    22400.00
03864               7.60    22400.00
03865             -25.00    22400.00
03866              11.80    23200.00
03867              -3.80    24000.00
03868             -14.60    24000.00
03869               8.20    24800.00
03870               0.60    24800.00
03871             -22.20    25600.00
03872              11.60    25600.00
03873              -7.80    25600.00
03874             -16.20    27200.00
03875              10.00    27200.00
03876             -11.00    28000.00
03877              -7.80    27200.00
03878               1.60    28000.00
03879              -8.60    28800.00
03880              -8.40    28800.00
03881              -0.20    28800.00
03882              -8.60    28800.00
03883              -7.60    30400.00
03884              -2.60    29600.00
03885              -9.20    30400.00
03886              -7.00    30400.00
03887              -2.00    31200.00
03888             -10.60    31200.00
03889              -6.00    31200.00
03890              -5.00    32000.00
03891             -11.80    32000.00
03892              -4.60    32800.00
03893              -8.60    32000.00
03894             -10.00    32800.00
03895              -4.60    32000.00
03896              -9.40    32800.00
03897              -9.80    33600.00
03898              -7.60    32800.00
03899             -10.40    33600.00
03900              -9.40    32800.00
03901              -8.40    33600.00
03902              -9.80    33600.00
03903             -11.00    33600.00
03904              -8.40    33600.00
03905             -10.80    33600.00
03906             -11.00    33600.00
03907              -9.20    33600.00
03908             -12.60    33600.00
03909              -8.80    33600.00
03910             -10.20    33600.00
03911             -12.80    33600.00
03912              -8.40    33600.00
03913             -11.20    33600.00
03914             -11.40    33600.00
03915              -9.00    33600.00
03916             -11.00    33600.00
03917              -9.80    33600.00
03918              -9.00    33600.00
03919              -9.20    33600.00
03920              -9.80    32800.00
03921              -9.20    32000.00
03922              -8.60    32800.00
03923              -8.60    32000.00
03924              -7.80    32000.00
03925              -8.60    32800.00
03926              -8.00    31200.00
03927              -7.00    32000.00
03928              -7.80    31200.00
03929              -6.60    31200.00
03930              -6.60    30400.00
03931              -7.60    30400.00
03932              -6.00    30400.00
03933              -6.60    30400.00
03934              -7.00    29600.00
03935              -5.40    29600.00
03936              -5.80    28800.00
03937              -5.80    28800.00
03938              -5.40    28800.00
03939              -6.20    28000.00
03940              -6.00    28000.00
03941              -4.80    27200.00
03942              -4.40    27200.00
03943              -5.20    26400.00
03944              -4.40    26400.00
03945              -4.40    26400.00
03946              -4.80    25600.00
03947              -4.20    25600.00
03948              -4.40    24000.00
03949              -3.80    24800.00
03950              -3.40    24000.00
03951              -4.20    23200.00
03952              -3.80    23200.00
03953              -3.80    22400.00
03954              -3.00    22400.00
03955              -3.00    21600.00
03956              -3.80    21600.00
03957              -3.60    20800.00
03958              -3.20    20000.00
03959              -3.00    19200.00
03960              -2.80    19200.00
03961              -2.20    18400.00
03962              -2.60    17600.00
03963              -2.80    17600.00
03964              -2.20    16000.00
03965              -2.80    16000.00
03966              -3.00    16000.00
03967              -2.00    15200.00
03968              -2.60    14400.00
03969              -2.20    14400.00
03970              -2.00    14400.00
03971              -2.20    12800.00
03972              -1.80    12800.00
03973              -1.40    12000.00
03974              -2.00    11200.00
03975              -1.80    10400.00
03976              -1.80    11200.00
03977              -1.20     8800.00
03978              -1.60     8000.00
03979              -1.20     8000.00
03980              -1.40     8000.00
03981              -1.20     6400.00
03982              -1.00     6400.00
03983              -1.00     5600.00
03984              -1.00     5600.00
03985              -0.80     4800.00
03986              -1.40     3200.00
03987              -0.40     3200.00
03988              -0.40     2400.00
03989              -1.20     2400.00
03990              -0.40     1600.00
03991               0.20     1600.00
03992              -0.40        0.00
03993               0.20     -800.00
03994               1.60     -800.00
03995               3.80    -1600.00
03996              -2.20    -1600.00
03997              -0.60    -1600.00
03998               3.60    -2400.00
03999               1.00    -3200.00
04000              -2.00    -4000.00
04001               8.20    -4800.00
04002              25.00    -6400.00
04003               2.20    -7200.00
04004             -25.00    -8000.00
04005               2.80    -8000.00
04006              25.00    -8000.00
04007             -25.00    -8800.00
04008             -20.60    -8800.00
04009              25.00   -10400.00
04010             -17.80   -10400.00
04011             -25.00   -11200.00
04012              25.00   -12000.00
04013             -25.00   -11200.00
04014             -15.00   -12800.00
04015              25.00   -13600.00
04016             -17.20   -13600.00
04017              25.00   -14400.00
04018             -25.00   -14400.00
04019              11.40   -16000.00
04020              25.00   -16000.00
04021             -25.00   -16800.00
04022              13.40   -17600.00
04023              25.00   -17600.00
04024             -24.40   -17600.00
04025              -5.80   -17600.00
04026              25.00   -19200.00
04027             -21.20   -19200.00
04028              -2.40   -20000.00
04029              25.00   -20000.00
04030             -16.20   -21600.00
04031               8.20   -21600.00
04032               8.20   -22400.00
04033              -8.20   -22400.00
04034               9.80   -23200.00
04035               4.40   -23200.00
04036              -2.00   -24000.00
04037              13.00   -24000.00
04038               1.00   -24000.00
04039              -5.20   -25600.00
04040              17.00   -25600.00
04041              -3.40   -26400.00
04042               1.00   -26400.00
04043              15.40   -26400.00
04044              -2.00   -27200.00
04045               3.00   -27200.00
04046              10.20   -27200.00
04047               1.00   -28000.00
04048               4.00   -28800.00
04049              10.00   -28800.00
04050               2.60   -28800.00
04051               5.20   -29600.00
04052               9.00   -28800.00
04053               3.00   -29600.00
04054               7.40   -30400.00
04055               9.00   -30400.00
04056               3.60   -30400.00
04057               8.60   -30400.00
04058               7.60   -32000.00
04059               5.00   -31200.00
04060               9.40   -31200.00
04061               7.40   -32000.00
04062               7.40   -32000.00
04063              10.00   -32000.00
04064               6.60   -32800.00
04065               7.80   -32000.00
04066               9.80   -32800.00
04067               7.60   -32800.00
04068               9.20   -32800.00
04069               9.80   -32800.00
04070               9.40   -32800.00
04071               9.40   -32800.00
04072              10.40   -32000.00
04073               8.60   -32800.00
04074               9.80   -32800.00
04075              10.80   -32800.00
04076               8.60   -33600.00
04077              11.00   -32800.00
04078              10.40   -32800.00
04079               9.00   -32800.00
04080              11.00   -32800.00
04081               9.40   -32800.00
04082               9.20   -32800.00
04083               9.80   -32800.00
04084               9.00   -32800.00
04085               8.60   -32000.00
04086               8.60   -32000.00
04087               8.60   -32000.00
04088               8.20   -32000.00
04089               8.40   -32000.00
04090               7.60   -32000.00
04091               7.40   -31200.00
04092               7.60   -31200.00
04093               6.20   -30400.00
04094               6.60   -30400.00
04095               7.40   -30400.00
04096               6.20   -30400.00
04097               6.60   -30400.00
04098               6.00   -29600.00
04099               6.00   -29600.00
04100               6.00   -29600.00
04101               5.00   -29600.00
04102               5.20   -28800.00
04103               5.80   -28800.00
04104               4.20   -28800.00
04105               5.20   -28000.00
04106               5.20   -28000.00
04107               4.20   -27200.00
04108               4.40   -26400.00
04109               4.60   -26400.00
04110               3.40   -26400.00
04111               3.60   -25600.00
04112               4.40   -24800.00
04113               3.60   -25600.00
04114               3.40   -24000.00
04115               3.60   -24000.00
04116               3.00   -23200.00
04117               3.00   -24000.00
04118               2.80   -23200.00
04119               2.80   -22400.00
04120               3.00   -20800.00
04121               2.60   -21600.00
04122               2.60   -20800.00
04123               2.60   -20800.00
04124               2.00   -20000.00
04125               2.20   -18400.00
04126               2.00   -18400.00
04127               2.00   -17600.00
04128               1.80   -17600.00
04129               1.80   -17600.00
04130               1.80   -16800.00
04131               1.40   -16000.00
04132               2.00   -16000.00
04133               1.80   -14400.00
04134               1.20   -14400.00
04135               1.20   -13600.00
04136               1.20   -13600.00
04137               1.00   -12800.00
04138               1.00   -12800.00
04139               1.00   -12000.00
04140               1.00   -11200.00
04141               1.00   -10400.00
04142               1.00   -10400.00
04143               0.40    -9600.00
04144               0.60    -8800.00
04145               0.60    -8000.00
04146               0.40    -8000.00
04147               0.60    -7200.00
04148               0.40    -6400.00
04149               0.20    -6400.00
04150               0.40    -4800.00
04151               0.20    -4800.00
04152              -0.40    -4000.00
04153               0.20    -3200.00
04154               0.00    -3200.00
04155              -0.40    -1600.00
04156              -0.40    -1600.00
04157              -0.40     -800.00
04158              -0.40        0.00
04159              -0.20        0.00
04160               0.00     1600.00
04161               1.40     1600.00
04162               2.60     1600.00
04163              -2.80     2400.00
04164              -0.60     3200.00
04165               0.60     3200.00
04166              -1.20     4000.00
04167               2.00     4800.00
04168              23.40     6400.00
04169              16.40     7200.00
04170             -25.00     8000.00
04171              -9.20     8000.00
04172              25.00     8800.00
04173             -25.00     8800.00
04174              -5.20     9600.00
04175              25.00    10400.00
04176             -25.00     9600.00
04177              24.40    11200.00
04178              25.00    12000.00
04179             -25.00    12800.00
04180              25.00    12800.00
04181             -25.00    12800.00
04182               8.20    14400.00
04183              25.00    15200.00
04184             -25.00    15200.00
04185              25.00    15200.00
04186               9.80    16000.00
04187             -25.00    16800.00
04188              25.00    17600.00
04189               0.40    17600.00
04190             -25.00    18400.00
04191              11.80    19200.00
04192              17.80    19200.00
04193             -25.00    20800.00
04194              20.20    20800.00
04195               5.00    20800.00
04196             -23.00    21600.00
04197              22.80    22400.00
04198             -24.40    23200.00
04199              -3.60    24000.00
04200               8.40    24000.00
04201             -15.60    24800.00
04202              -2.00    24800.00
04203              11.80    24800.00
04204             -19.40    25600.00
04205              -3.40    25600.00
04206               8.20    25600.00
04207             -22.80    26400.00
04208               4.60    27200.00
04209              -0.20    27200.00
04210             -13.40    28000.00
04211               1.00    28000.00
04212              -4.40    28000.00
04213             -10.80    28800.00
04214              -2.00    29600.00
04215              -4.00    30400.00
04216             -10.00    29600.00
04217              -3.00    30400.00
04218              -6.20    30400.00
04219             -10.00    30400.00
04220              -2.40    30400.00
04221              -7.00    31200.00
04222              -9.40    31200.00
04223              -3.00    32000.00
04224             -10.60    32000.00
04225              -8.20    32000.00
04226              -5.20    32800.00
04227             -12.00    32800.00
04228              -6.00    32800.00
04229              -6.80    32800.00
04230             -10.80    32800.00
04231              -8.20    32800.00
04232              -9.40    33600.00
04233             -10.20    32800.00
04234              -9.20    32800.00
04235              -9.20    33600.00
04236             -10.40    33600.00
04237              -9.40    33600.00
04238              -9.00    33600.00
04239             -12.20    33600.00
04240              -9.40    33600.00
04241             -10.80    33600.00
04242             -11.60    33600.00
04243              -8.60    33600.00
04244             -12.20    33600.00
04245             -11.00    33600.00
04246              -9.20    33600.00
04247             -11.00    33600.00
04248             -10.00    33600.00
04249             -10.20    33600.00
04250             -10.20    33600.00
04251              -9.80    32800.00
04252              -9.20    33600.00
04253              -9.00    32800.00
04254              -9.20    32800.00
04255              -8.40    32000.00
04256              -8.60    32800.00
04257              -7.80    32800.00
04258              -7.80    32000.00
04259              -9.00    32000.00
04260              -7.40    32000.00
04261              -7.40    31200.00
04262              -7.80    31200.00
04263              -6.60    31200.00
04264              -7.40    31200.00
04265              -6.60    31200.00
04266              -6.00    30400.00
04267              -6.60    29600.00
04268              -6.60    29600.00
04269              -6.00    29600.00
04270              -6.00    28800.00
04271              -5.40    28800.00
04272              -5.40    28000.00
04273              -5.40    28000.00
04274              -5.20    27200.00
04275              -4.40    27200.00
04276              -5.40    27200.00
04277              -5.00    26400.00
04278              -3.80    26400.00
04279              -4.60    25600.00
04280              -4.20    25600.00
04281              -4.20    24800.00
04282              -4.40    24000.00
04283              -3.40    24000.00
04284              -3.80    24000.00
04285              -3.80    22400.00
04286              -3.60    22400.00
04287              -3.40    22400.00
04288              -3.40    21600.00
04289              -4.00    21600.00
04290              -3.40    20800.00
04291              -3.00    20800.00
04292              -3.40    19200.00
04293              -2.20    18400.00
04294              -2.60    18400.00
04295              -3.80    17600.00
04296              -2.00    17600.00
04297              -2.00    16000.00
04298              -3.60    16000.00
04299              -2.00    16000.00
04300              -2.20    16000.00
04301              -2.20    15200.00
04302              -2.20    14400.00
04303              -3.60    14400.00
04304               0.20    13600.00
04305              -3.60    12000.00
04306              -2.80    12000.00
04307               1.40    11200.00
04308              -3.40    11200.00
04309              -2.80     9600.00
04310               2.20     9600.00
04311              -3.80     9600.00
04312              -3.20     8000.00
04313               2.60     8000.00
04314              -3.00     8000.00
04315              -2.20     6400.00
04316               2.00     6400.00
04317              -3.40     5600.00
04318              -0.60     4800.00
04319               0.40     4800.00
04320              -2.60     3200.00
04321               0.20     3200.00
04322               0.20     2400.00
04323              -2.80     1600.00
04324               0.20     1600.00
04325               0.80      800.00
04326              -1.20        0.00
04327               1.80     -800.00
04328               4.40     -800.00
04329              -2.00    -1600.00
04330              -0.40    -1600.00
04331               2.00    -2400.00
04332               0.40    -3200.00
04333               1.40    -4000.00
04334               3.60    -4800.00
04335              15.80    -5600.00
04336              25.00    -6400.00
04337             -25.00    -7200.00
04338             -25.00    -8000.00
04339              25.00    -8000.00
04340              -0.20    -8000.00
04341             -25.00    -8800.00
04342              25.00    -9600.00
04343              25.00   -10400.00
04344             -25.00   -10400.00
04345              25.00   -11200.00
04346              25.00   -12800.00
04347             -25.00   -12800.00
04348              25.00   -13600.00
04349             -13.40   -13600.00
04350              15.60   -14400.00
04351               0.20   -14400.00
04352             -25.00   -15200.00
04353              25.00   -16000.00
04354             -17.00   -16000.00
04355             -20.40   -17600.00
04356              25.00   -16800.00
04357              -3.60   -17600.00
04358             -25.00   -19200.00
04359              25.00   -19200.00
04360               9.00   -19200.00
04361             -25.00   -20000.00
04362              25.00   -20800.00
04363               1.40   -20800.00
04364              -9.40   -21600.00
04365              16.40   -22400.00
04366              -6.60   -22400.00
04367               2.80   -23200.00
04368               8.80   -23200.00
04369              -1.80   -24000.00
04370               6.20   -24000.00
04371              11.20   -24000.00
04372              -8.60   -24800.00
04373              10.40   -25600.00
04374               8.20   -25600.00
04375              -7.80   -26400.00
04376              13.80   -26400.00
04377               5.20   -27200.00
04378              -1.00   -27200.00
04379              10.00   -27200.00
04380               5.20   -28000.00
04381               1.20   -28800.00
04382               9.60   -28800.00
04383               5.40   -28800.00
04384               2.00   -28800.00
04385               9.20   -29600.00
04386               4.60   -29600.00
04387               4.40   -30400.00
04388              10.00   -30400.00
04389               5.00   -30400.00
04390               5.80   -31200.00
04391              10.20   -30400.00
04392               4.60   -32000.00
04393               7.60   -32000.00
04394               9.20   -32000.00
04395               5.80   -32000.00
04396              10.20   -32000.00
04397               8.20   -32000.00
04398               6.60   -32000.00
04399               9.80   -32800.00
04400               8.40   -32000.00
04401               8.20   -32800.00
04402              10.00   -32800.00
04403               9.80   -32800.00
04404               9.00   -32800.00
04405              10.80   -32800.00
04406               9.40   -32800.00
04407               8.80   -32800.00
04408              11.40   -32800.00
04409               9.40   -32800.00
04410               9.80   -32800.00
04411              11.60   -32800.00
04412               8.40   -32800.00
04413              10.20   -32800.00
04414              10.60   -33600.00
04415               9.00   -32800.00
04416               9.80   -32800.00
04417               9.00   -32800.00
04418               8.40   -32000.00
04419               8.60   -32000.00
04420               8.60   -32800.00
04421               8.00   -32800.00
04422               8.20   -32000.00
04423               8.20   -31200.00
04424               7.00   -32000.00
04425               7.80   -32000.00
04426               7.00   -30400.00
04427               6.20   -30400.00
04428               7.80   -30400.00
04429               6.20   -30400.00
04430               5.60   -29600.00
04431               6.60   -29600.00
04432               5.40   -29600.00
04433               6.40   -29600.00
04434               5.60   -29600.00
04435               4.20   -28800.00
04436               6.20   -28800.00
04437               4.40   -28800.00
04438               4.60   -27200.00
04439               6.00   -27200.00
04440               4.20   -27200.00
04441               3.60   -26400.00
04442               5.80   -26400.00
04443               3.00   -26400.00
04444               2.60   -25600.00
04445               5.80   -25600.00
04446               3.00   -24800.00
04447               2.60   -24000.00
04448               5.00   -24000.00
04449               2.60   -24000.00
04450               3.00   -23200.00
04451               3.60   -23200.00
04452               2.20   -22400.00
04453               3.40   -22400.00
04454               2.60   -20800.00
04455               2.40   -20800.00
04456               3.40   -20000.00
04457               2.20   -20000.00
04458               1.80   -20000.00
04459               2.60   -18400.00
04460               2.00   -18400.00
04461               1.40   -17600.00
04462               2.60   -16800.00
04463               2.20   -16800.00
04464               1.00   -16800.00
04465               2.00   -16000.00
04466               1.80   -16000.00
04467               1.20   -14400.00
04468               1.80   -14400.00
04469               1.40   -13600.00
04470               0.80   -12800.00
04471               1.40   -12000.00
04472               1.00   -11200.00
04473               1.00   -11200.00
04474               1.20   -10400.00
04475               0.40    -9600.00
04476               0.20    -9600.00
04477               0.20    -9600.00
04478               0.40    -8000.00
04479               0.40    -8000.00
04480               0.60    -7200.00
04481               1.20    -6400.00
04482               0.20    -6400.00
04483               0.40    -6400.00
04484               0.20    -4000.00
04485              -0.60    -4000.00
04486              -0.20    -3200.00
04487               0.20    -3200.00
04488              -0.40    -2400.00
04489              -0.40    -1600.00
04490              -0.40    -1600.00
04491              -0.40     -800.00
04492              -0.20        0.00
04493              -0.60      800.00
04494              -0.20     1600.00
04495               3.00     2400.00
04496              -1.80     2400.00
04497              -2.00     3200.00
04498               0.80     3200.00
04499              -0.20     4000.00
04500              -1.20     4000.00
04501              11.40     5600.00
04502              25.00     6400.00
04503             -25.00     8000.00
04504             -25.00     8000.00
04505              24.20     8000.00
04506              -0.60     8000.00
04507             -25.00     8800.00
04508              25.00     9600.00
04509              -3.00     9600.00
04510             -25.00    11200.00
04511              25.00    12000.00
04512             -25.00    12000.00
04513               4.60    13600.00
04514              25.00    12800.00
04515             -25.00    13600.00
04516              25.00    14400.00
04517             -25.00    14400.00
04518             -13.00    16000.00
04519              25.00    16000.00
04520             -25.00    16800.00
04521              15.40    16800.00
04522              25.00    17600.00
04523             -25.00    17600.00
04524             -13.20    19200.00
04525              25.00    19200.00
04526             -25.00    19200.00
04527             -12.60    20800.00
04528              25.00    21600.00
04529             -25.00    21600.00
04530              12.00    22400.00
04531              -2.00    22400.00
04532             -22.00    23200.00
04533              13.40    23200.00
04534              -7.60    24000.00
04535             -11.60    24000.00
04536              10.80    24800.00
04537              -5.60    24800.00
04538             -19.00    25600.00
04539              13.60    25600.00
04540             -14.20    26400.00
04541             -10.20    27200.00
04542               9.40    27200.00
04543             -13.40    28000.00
04544              -5.00    27200.00
04545               0.80    28000.00
04546             -10.00    28000.00
04547              -6.60    28800.00
04548              -0.40    29600.00
04549              -9.80    28800.00
04550              -6.20    29600.00
04551              -3.20    30400.00
04552             -10.40    30400.00
04553              -6.00    30400.00
04554              -3.40    31200.00
04555             -11.40    31200.00
04556              -4.60    31200.00
04557              -6.20    32000.00
04558             -11.40    32000.00
04559              -4.40    32800.00
04560              -9.80    32800.00
04561              -9.20    32800.00
04562              -4.60    32000.00
04563              -9.80    33600.00
04564              -9.20    32800.00
04565              -8.60    32800.00
04566             -10.20    33600.00
04567              -9.20    32800.00
04568              -8.60    33600.00
04569              -9.80    33600.00
04570             -10.60    33600.00
04571              -9.20    33600.00
04572             -11.20    33600.00
04573             -11.00    33600.00
04574              -9.20    33600.00
04575             -12.20    33600.00
04576              -8.80    33600.00
04577             -10.00    33600.00
04578             -12.40    33600.00
04579              -9.00    33600.00
04580             -10.80    33600.00
04581             -10.60    33600.00
04582              -9.60    33600.00
04583             -10.60    33600.00
04584              -9.80    33600.00
04585              -9.20    32800.00
04586              -8.80    33600.00
04587              -9.40    32800.00
04588              -8.60    32000.00
04589              -8.40    33600.00
04590              -8.80    32800.00
04591              -7.60    32800.00
04592              -8.60    32000.00
04593              -7.80    32800.00
04594              -6.60    32800.00
04595              -7.60    31200.00
04596              -6.80    31200.00
04597              -7.00    31200.00
04598              -7.00    31200.00
04599              -6.40    30400.00
04600              -6.60    30400.00
04601              -6.80    30400.00
04602              -6.00    29600.00
04603              -5.80    28800.00
04604              -5.40    28800.00
04605              -5.80    28800.00
04606              -5.40    28000.00
04607              -5.20    28000.00
04608              -4.60    27200.00
04609              -5.20    27200.00
04610              -5.20    26400.00
04611              -4.40    25600.00
04612              -4.40    25600.00
04613              -4.40    25600.00
04614              -4.40    24800.00
04615              -4.60    24000.00
04616              -3.80    24800.00
04617              -4.40    24000.00
04618              -3.60    24000.00
04619              -3.40    22400.00
04620              -3.80    22400.00
04621              -3.00    21600.00
04622              -3.80    21600.00
04623              -3.80    21600.00
04624              -2.80    20800.00
04625              -3.20    20000.00
04626              -3.00    19200.00
04627              -3.00    19200.00
04628              -2.80    18400.00
04629              -2.80    17600.00
04630              -2.40    17600.00
04631              -2.60    17600.00
04632              -2.80    16000.00
04633              -2.40    16000.00
04634              -2.60    15200.00
04635              -2.20    15200.00
04636              -2.00    14400.00
04637              -2.20    12800.00
04638              -2.20    12800.00
04639              -1.20    12800.00
04640              -1.80    12000.00
04641              -1.40    11200.00
04642              -2.00    11200.00
04643              -1.80     9600.00
04644              -1.00     9600.00
04645              -1.80     8800.00
04646              -1.40     8800.00
04647              -1.20     8000.00
04648              -1.20     7200.00
04649              -1.40     6400.00
04650              -1.00     5600.00
04651              -0.40     5600.00
04652              -1.40     4800.00
04653               0.20     4000.00
04654              -0.60     3200.00
04655              -1.00     3200.00
04656              -0.60     2400.00
04657              -0.40     1600.00
04658               0.40        0.00
04659              -0.60      800.00
04660               0.60        0.00
04661               2.60    -1600.00
04662               2.00    -1600.00
04663              -1.80    -1600.00
04664               1.20    -2400.00
04665               1.40    -3200.00
04666               0.60    -3200.00
04667               0.60    -4000.00
04668               9.60    -4000.00
04669              25.00    -6400.00
04670              -8.20    -7200.00
04671             -25.00    -8000.00
04672              11.00    -8000.00
04673              21.80    -8800.00
04674             -25.00    -8800.00
04675              -6.60    -8800.00
04676              25.00    -9600.00
04677             -25.00   -10400.00
04678             -20.40   -11200.00
04679              25.00   -11200.00
04680             -25.00   -11200.00
04681               3.80   -12800.00
04682              17.40   -12800.00
04683              -9.40   -13600.00
04684              24.40   -14400.00
04685             -25.00   -14400.00
04686              25.00   -15200.00
04687              22.00   -16000.00
04688             -25.00   -16800.00
04689              23.60   -16800.00
04690              21.20   -16800.00
04691             -25.00   -17600.00
04692               3.20   -19200.00
04693              25.00   -18400.00
04694             -25.00   -19200.00
04695               9.20   -20000.00
04696              22.60   -20800.00
04697             -16.60   -20800.00
04698              13.00   -21600.00
04699               2.00   -22400.00
04700              -5.60   -23200.00
04701              11.40   -22400.00
04702               1.20   -24000.00
04703              -0.20   -24000.00
04704              15.00   -24000.00
04705              -3.60   -25600.00
04706              -1.40   -25600.00
04707              16.60   -25600.00
04708              -6.40   -25600.00
04709               4.60   -25600.00
04710              13.80   -26400.00
04711              -2.60   -27200.00
04712               5.20   -27200.00
04713               9.40   -27200.00
04714               1.00   -28000.00
04715               6.60   -28000.00
04716               9.00   -28800.00
04717               2.00   -28800.00
04718               6.80   -29600.00
04719               7.60   -29600.00
04720               3.40   -29600.00
04721               9.00   -30400.00
04722               7.80   -30400.00
04723               3.80   -30400.00
04724               9.80   -30400.00
04725               6.60   -30400.00
04726               5.20   -32000.00
04727              10.00   -32000.00
04728               6.20   -32000.00
04729               8.60   -32000.00
04730              10.00   -32000.00
04731               6.60   -32000.00
04732               9.00   -32000.00
04733               9.60   -32800.00
04734               7.60   -32800.00
04735               9.40   -32800.00
04736               9.80   -32800.00
04737               9.00   -32800.00
04738              10.00   -32800.00
04739              10.20   -32800.00
04740               8.40   -32800.00
04741              10.80   -32800.00
04742              10.60   -32800.00
04743               8.60   -32800.00
04744              11.60   -33600.00
04745               9.80   -32800.00
04746               8.60   -32800.00
04747              10.80   -32800.00
04748               9.40   -32800.00
04749               9.40   -32800.00
04750               9.80   -32800.00
04751               9.00   -32800.00
04752               8.40   -32000.00
04753               8.60   -32000.00
04754               8.20   -32800.00
04755               7.60   -32000.00
04756               8.40   -32000.00
04757               7.80   -32000.00
04758               7.40   -32000.00
04759               7.20   -31200.00
04760               6.60   -30400.00
04761               6.80   -30400.00
04762               6.80   -30400.00
04763               6.40   -29600.00
04764               6.80   -29600.00
04765               6.00   -29600.00
04766               5.80   -29600.00
04767               5.80   -29600.00
04768               5.20   -28800.00
04769               5.20   -28800.00
04770               5.20   -28000.00
04771               5.00   -28000.00
04772               4.40   -27200.00
04773               4.60   -27200.00
04774               4.60   -27200.00
04775               4.60   -27200.00
04776               4.20   -26400.00
04777               4.00   -25600.00
04778               4.00   -25600.00
04779               3.80   -25600.00
04780               3.40   -24000.00
04781               3.40   -24000.00
04782               3.60   -24000.00
04783               3.40   -23200.00
04784               3.00   -23200.00
04785               2.80   -23200.00
04786               2.80   -22400.00
04787               2.60   -21600.00
04788               2.60   -20800.00
04789               2.60   -20800.00
04790               2.60   -20000.00
04791               2.20   -19200.00
04792               2.60   -18400.00
04793               2.00   -18400.00
04794               2.40   -17600.00
04795               2.00   -17600.00
04796               1.40   -17600.00
04797               1.80   -16800.00
04798               2.00   -16000.00
04799               1.40   -15200.00
04800               1.80   -15200.00
04801               1.80   -14400.00
04802               1.20   -13600.00
04803               1.20   -12800.00
04804               1.20   -12800.00
04805               0.80   -12000.00
04806               1.00   -12000.00
04807               1.20   -11200.00
04808               0.60   -10400.00
04809               1.00    -9600.00
04810               0.20    -9600.00
04811               0.40    -8000.00
04812               1.00    -8000.00
04813              -0.40    -8000.00
04814               0.20    -6400.00
04815               0.40    -6400.00
04816              -0.20    -5600.00
04817               0.00    -4800.00
04818              -0.20    -4000.00
04819              -0.40    -4000.00
04820               0.20    -3200.00
04821              -0.20    -3200.00
04822              -0.60    -2400.00
04823              -0.60     -800.00
04824              -0.20     -800.00
04825              -0.40        0.00
04826              -0.20        0.00
04827               0.20     1600.00
04828               2.20     1600.00
04829               1.40     2400.00
04830              -3.00     2400.00
04831              -0.40     3200.00
04832               0.60     3200.00
04833              -2.00     4800.00
04834               4.40     4800.00
04835              25.00     7200.00
04836               3.00     7200.00
04837             -25.00     8000.00
04838               3.20     8000.00
04839              23.60     8000.00
04840             -25.00     8800.00
04841              16.40     9600.00
04842              25.00     9600.00
04843             -25.00    10400.00
04844              25.00    11200.00
04845              19.60    12000.00
04846             -25.00    12000.00
04847              25.00    13600.00
04848             -25.00    12800.00
04849              25.00    14400.00
04850              25.00    14400.00
04851             -25.00    15200.00
04852              25.00    16000.00
04853             -20.00    16000.00
04854             -25.00    17600.00
04855              25.00    16800.00
04856             -13.00    17600.00
04857             -25.00    18400.00
04858              20.60    19200.00
04859               7.60    19200.00
04860             -25.00    20800.00
04861              25.00    20800.00
04862              -8.60    21600.00
04863             -13.80    22400.00
04864              20.20    21600.00
04865             -25.00    22400.00
04866               3.40    23200.00
04867               3.60    24000.00
04868             -16.20    24000.00
04869               2.60    24800.00
04870               8.60    24800.00
04871             -22.20    24800.00
04872               3.00    25600.00
04873               2.60    26400.00
04874             -22.00    26400.00
04875               8.20    27200.00
04876              -5.00    27200.00
04877             -12.20    28000.00
04878               1.80    28000.00
04879              -6.20    28800.00
04880             -10.20    28000.00
04881              -1.20    28800.00
04882              -6.00    28800.00
04883              -9.40    29600.00
04884              -2.80    30400.00
04885              -7.40    30400.00
04886              -9.00    30400.00
04887              -2.00    31200.00
04888              -9.00    31200.00
04889              -8.40    31200.00
04890              -3.40    32800.00
04891             -11.60    32000.00
04892              -7.00    31200.00
04893              -6.60    32800.00
04894             -11.60    32000.00
04895              -5.40    32800.00
04896              -7.80    32800.00
04897             -10.60    32800.00
04898              -7.80    32800.00
04899              -9.20    32800.00
04900             -10.00    32800.00
04901              -8.60    33600.00
04902              -9.20    33600.00
04903             -10.80    33600.00
04904              -9.00    33600.00
04905              -9.20    33600.00
04906             -12.20    33600.00
04907              -8.80    33600.00
04908             -11.20    33600.00
04909             -11.20    33600.00
04910              -8.40    33600.00
04911             -12.40    33600.00
04912             -10.20    33600.00
04913              -9.40    33600.00
04914             -11.00    33600.00
04915              -9.80    33600.00
04916             -10.00    33600.00
04917              -9.80    32800.00
04918              -9.60    33600.00
04919              -8.60    33600.00
04920              -9.20    32800.00
04921              -9.20    32800.00
04922              -7.80    32000.00
04923              -8.60    32800.00
04924              -8.20    32000.00
04925              -8.00    32800.00
04926              -8.60    32000.00
04927              -6.60    32000.00
04928              -7.40    31200.00
04929              -7.60    31200.00
04930              -6.60    31200.00
04931              -6.80    31200.00
04932              -6.60    30400.00
04933              -6.20    30400.00
04934              -6.40    30400.00
04935              -6.20    29600.00
04936              -6.00    29600.00
04937              -5.40    28800.00
04938              -5.80    28800.00
04939              -5.80    28000.00
04940              -5.20    28000.00
04941              -5.20    28000.00
04942              -5.00    28000.00
04943              -5.40    27200.00
04944              -5.00    25600.00
04945              -4.40    26400.00
04946              -4.60    25600.00
04947              -4.20    24800.00
04948              -4.60    24800.00
04949              -4.00    24800.00
04950              -3.80    24000.00
04951              -4.40    24000.00
04952              -3.40    23200.00
04953              -3.60    23200.00
04954              -4.20    22400.00
04955              -3.00    21600.00
04956              -3.80    21600.00
04957              -3.60    20800.00
04958              -3.00    20000.00
04959              -3.40    19200.00
04960              -2.80    19200.00
04961              -3.00    18400.00
04962              -2.80    18400.00
04963              -2.60    17600.00
04964              -2.80    16800.00
04965              -2.20    17600.00
04966              -2.20    16000.00
04967              -2.60    15200.00
04968              -2.80    14400.00
04969              -1.40    14400.00
04970              -2.20    14400.00
04971              -2.40    12800.00
04972              -1.80    12800.00
04973              -1.80    12000.00
04974              -1.20    11200.00
04975              -1.40    11200.00
04976              -2.00    10400.00
04977              -0.60     9600.00
04978              -1.40     9600.00
04979              -1.40     8000.00
04980              -0.60     8000.00
04981              -1.20     7200.00
04982              -1.00     7200.00
04983              -0.60     6400.00
04984              -1.40     4800.00
04985              -0.60     4800.00
04986              -0.80     4000.00
04987              -0.40     3200.00
04988              -0.40     2400.00
04989              -0.80     2400.00
04990              -0.80     1600.00
04991               0.20      800.00
04992              -0.20      800.00
04993               0.20        0.00
04994               1.40     -800.00
04995               4.20     -800.00
04996              -1.20    -1600.00
04997              -0.40    -1600.00
04998               1.80    -2400.00
04999               1.20    -3200.00
05000              -0.20    -4000.00
