Unit:(mV)
                     CH1         CH2
Frequency              ? 300.222 kHz
00001              -1.20    -4000.00
00002               6.20    -4000.00
00003              16.40    -5600.00
00004              21.80    -7200.00
00005             -25.00    -8000.00
00006             -22.20    -8000.00
00007              25.00    -9600.00
00008              -4.20    -9600.00
00009             -25.00    -9600.00
00010              25.00    -9600.00
00011              25.00   -10400.00
00012             -25.00   -11200.00
00013              25.00   -11200.00
00014              25.00   -12800.00
00015             -25.00   -12800.00
00016              25.00   -13600.00
00017              -1.40   -13600.00
00018              -5.00   -14400.00
00019              16.20   -14400.00
00020             -25.00   -16000.00
00021              25.00   -16800.00
00022               1.40   -16800.00
00023             -24.60   -17600.00
00024              22.60   -17600.00
00025              11.80   -18400.00
00026             -25.00   -19200.00
00027               8.20   -19200.00
00028              23.40   -20000.00
00029             -25.00   -20000.00
00030              18.60   -20800.00
00031              11.40   -22400.00
00032             -17.80   -22400.00
00033              14.00   -22400.00
00034              -0.20   -23200.00
00035              -9.20   -23200.00
00036               9.80   -23200.00
00037               4.20   -24000.00
00038              -8.00   -24800.00
00039              14.20   -25600.00
00040              -3.00   -25600.00
00041              -4.60   -25600.00
00042              11.80   -26400.00
00043              -5.40   -26400.00
00044               1.20   -27200.00
00045               7.40   -27200.00
00046              -1.20   -27200.00
00047              -0.20   -28800.00
00048               6.20   -28800.00
00049              -1.20   -28800.00
00050               1.00   -28800.00
00051               5.40   -29600.00
00052              -1.40   -29600.00
00053               1.80   -30400.00
00054               4.60   -30400.00
00055              -1.00   -30400.00
00056               3.00   -31200.00
00057               4.20   -31200.00
00058              -1.20   -32000.00
00059               3.40   -32000.00
00060               2.20   -32000.00
00061               0.40   -32000.00
00062               2.60   -32800.00
00063               2.20   -32000.00
00064               2.60   -32800.00
00065               2.00   -32800.00
00066               1.60   -32800.00
00067               1.80   -33600.00
00068               2.20   -33600.00
00069               1.80   -32800.00
00070               1.80   -33600.00
00071               3.60   -32800.00
00072               2.00   -32800.00
00073               1.80   -33600.00
00074               2.80   -33600.00
00075               1.20   -33600.00
00076               2.00   -33600.00
00077               2.60   -33600.00
00078               1.80   -33600.00
00079               2.80   -33600.00
00080               1.40   -33600.00
00081               2.00   -33600.00
00082               2.60   -33600.00
00083               1.40   -32800.00
00084               2.00   -33600.00
00085               1.80   -33600.00
00086               2.00   -32800.00
00087               1.40   -32800.00
00088               1.80   -32800.00
00089               2.20   -32800.00
00090               1.60   -32800.00
00091               2.60   -32000.00
00092               1.40   -32000.00
00093               1.40   -32000.00
00094               1.60   -32000.00
00095               1.60   -32000.00
00096               2.20   -32000.00
00097               1.80   -30400.00
00098               1.60   -30400.00
00099               1.80   -30400.00
00100               1.80   -29600.00
00101               1.20   -29600.00
00102               1.80   -29600.00
00103               1.80   -29600.00
00104               1.20   -28800.00
00105               1.60   -28800.00
00106               1.80   -28000.00
00107               1.00   -27200.00
00108               1.80   -27200.00
00109               2.00   -27200.00
00110               1.00   -27200.00
00111               1.60   -26400.00
00112               1.00   -25600.00
00113               1.00   -25600.00
00114               1.80   -25600.00
00115               1.40   -24800.00
00116               1.00   -24800.00
00117               1.20   -24000.00
00118               1.40   -24000.00
00119               1.20   -23200.00
00120               1.00   -22400.00
00121               1.20   -22400.00
00122               1.40   -22400.00
00123               1.20   -20800.00
00124               1.40   -20800.00
00125               0.60   -20000.00
00126               0.60   -20000.00
00127               0.60   -19200.00
00128               1.00   -19200.00
00129               1.00   -18400.00
00130               0.40   -17600.00
00131               1.20   -16800.00
00132               1.20   -16800.00
00133               0.40   -16000.00
00134               1.00   -16000.00
00135               1.00   -14400.00
00136               0.40   -14400.00
00137               0.40   -14400.00
00138               0.60   -13600.00
00139               0.20   -12800.00
00140               0.20   -12800.00
00141               0.80   -11200.00
00142               0.20   -11200.00
00143               0.20   -10400.00
00144               0.20   -10400.00
00145               0.20    -9600.00
00146               0.20    -8000.00
00147               0.40    -8000.00
00148               0.20    -7200.00
00149               0.40    -6400.00
00150               0.00    -6400.00
00151              -0.20    -5600.00
00152              -0.20    -4800.00
00153              -0.40    -4000.00
00154               0.00    -3200.00
00155              -0.40    -3200.00
00156              -1.00    -1600.00
00157               0.00    -1600.00
00158              -0.60     -800.00
00159              -0.60        0.00
00160               0.20        0.00
00161              -0.20      800.00
00162               1.20     1600.00
00163               3.40     2400.00
00164              -3.00     2400.00
00165              -0.60     3200.00
00166               1.00     4800.00
00167              -1.40     4000.00
00168               2.00     5600.00
00169              16.40     6400.00
00170              25.00     7200.00
00171             -25.00     8000.00
00172             -22.60     8000.00
00173              25.00     8800.00
00174             -14.60     8800.00
00175             -25.00     9600.00
00176              25.00    10400.00
00177              -9.80    10400.00
00178             -25.00    11200.00
00179              25.00    12000.00
00180             -25.00    12000.00
00181               6.20    12800.00
00182              25.00    12800.00
00183             -25.00    14400.00
00184              25.00    14400.00
00185             -25.00    15200.00
00186              -6.20    16000.00
00187              25.00    16000.00
00188             -25.00    17600.00
00189               6.80    17600.00
00190              25.00    18400.00
00191             -19.40    19200.00
00192             -24.60    19200.00
00193              25.00    19200.00
00194             -20.40    20000.00
00195             -15.80    21600.00
00196              25.00    21600.00
00197             -25.00    22400.00
00198               6.40    22400.00
00199               4.60    23200.00
00200             -17.40    24000.00
00201               3.40    24000.00
00202               6.60    24800.00
00203             -11.80    24800.00
00204               5.20    25600.00
00205               5.80    25600.00
00206             -19.40    25600.00
00207               9.80    27200.00
00208              -4.40    27200.00
00209              -9.00    27200.00
00210               6.20    28000.00
00211              -2.60    28000.00
00212              -5.60    28800.00
00213               0.80    28800.00
00214              -1.40    28800.00
00215              -6.60    28800.00
00216               2.20    30400.00
00217              -2.80    30400.00
00218              -6.40    30400.00
00219               1.00    30400.00
00220              -3.80    31200.00
00221              -4.60    31200.00
00222               2.80    31200.00
00223              -5.20    31200.00
00224              -3.00    32800.00
00225              -0.40    32000.00
00226              -5.20    32800.00
00227              -1.60    32000.00
00228              -2.20    32800.00
00229              -2.80    33600.00
00230              -1.40    33600.00
00231              -2.20    33600.00
00232              -3.00    33600.00
00233              -3.00    33600.00
00234              -2.20    33600.00
00235              -3.40    33600.00
00236              -3.00    33600.00
00237              -2.00    34400.00
00238              -3.60    33600.00
00239              -1.20    34400.00
00240              -2.80    34400.00
00241              -3.60    34400.00
00242              -1.80    34400.00
00243              -3.40    33600.00
00244              -1.80    34400.00
00245              -2.20    34400.00
00246              -3.60    33600.00
00247              -2.00    34400.00
00248              -2.80    33600.00
00249              -2.80    33600.00
00250              -3.00    33600.00
00251              -3.00    33600.00
00252              -2.00    33600.00
00253              -2.20    33600.00
00254              -2.20    33600.00
00255              -2.80    33600.00
00256              -1.80    33600.00
00257              -2.20    33600.00
00258              -3.60    32800.00
00259              -1.80    32800.00
00260              -2.40    32800.00
00261              -2.60    32000.00
00262              -2.00    32000.00
00263              -2.40    31200.00
00264              -2.00    32000.00
00265              -2.80    31200.00
00266              -2.40    31200.00
00267              -2.00    30400.00
00268              -2.60    30400.00
00269              -2.20    30400.00
00270              -2.20    28800.00
00271              -2.00    29600.00
00272              -1.80    28800.00
00273              -2.20    28800.00
00274              -2.20    28000.00
00275              -2.20    28000.00
00276              -2.20    27200.00
00277              -2.20    27200.00
00278              -2.20    27200.00
00279              -1.60    26400.00
00280              -2.00    25600.00
00281              -2.00    25600.00
00282              -2.00    25600.00
00283              -2.60    24800.00
00284              -2.00    24000.00
00285              -2.00    24000.00
00286              -2.00    24000.00
00287              -2.20    23200.00
00288              -2.20    22400.00
00289              -1.00    22400.00
00290              -1.80    20800.00
00291              -2.20    21600.00
00292              -1.80    20800.00
00293              -1.80    20800.00
00294              -1.40    19200.00
00295              -2.00    19200.00
00296              -1.40    18400.00
00297              -1.20    17600.00
00298              -1.80    16800.00
00299              -1.40    16800.00
00300              -1.80    16000.00
00301              -1.40    15200.00
00302              -1.20    15200.00
00303              -1.80    14400.00
00304              -1.20    14400.00
00305              -1.80    13600.00
00306              -0.60    12800.00
00307              -1.00    12800.00
00308              -1.40    12000.00
00309              -1.00    11200.00
00310              -1.00    10400.00
00311              -1.20     9600.00
00312              -0.20     8800.00
00313              -1.80     8000.00
00314              -1.00     8000.00
00315              -0.60     8000.00
00316              -0.80     6400.00
00317              -0.40     7200.00
00318              -0.60     5600.00
00319              -1.00     4800.00
00320              -0.20     4800.00
00321              -0.60     3200.00
00322               0.00     3200.00
00323              -0.40     2400.00
00324              -0.60     2400.00
00325              -0.40      800.00
00326               0.00        0.00
00327              -0.20     -800.00
00328               1.00     -800.00
00329               4.20     -800.00
00330              -0.60    -1600.00
00331              -1.00    -2400.00
00332               2.40    -3200.00
00333               1.00    -3200.00
00334              -0.60    -4000.00
00335               4.40    -4000.00
00336              15.00    -4800.00
00337              25.00    -6400.00
00338             -25.00    -8000.00
00339             -25.00    -8000.00
00340              25.00    -8000.00
00341               0.60    -8800.00
00342             -25.00    -9600.00
00343              19.60    -9600.00
00344              25.00   -10400.00
00345             -25.00   -11200.00
00346              13.00   -12000.00
00347              25.00   -12800.00
00348             -25.00   -12000.00
00349              24.80   -13600.00
00350               6.40   -13600.00
00351             -11.40   -14400.00
00352              20.40   -15200.00
00353             -25.00   -16000.00
00354              25.00   -16000.00
00355               8.20   -16800.00
00356             -25.00   -16800.00
00357              18.60   -17600.00
00358              15.80   -18400.00
00359             -25.00   -19200.00
00360               2.80   -19200.00
00361              25.00   -20000.00
00362             -25.00   -20000.00
00363              13.20   -20800.00
00364              11.60   -21600.00
00365             -11.60   -22400.00
00366               4.00   -23200.00
00367               3.40   -23200.00
00368              -8.20   -23200.00
00369              10.00   -23200.00
00370              10.20   -24000.00
00371             -13.40   -24000.00
00372              19.00   -24800.00
00373              -4.60   -25600.00
00374              -9.20   -26400.00
00375              11.80   -26400.00
00376              -6.00   -26400.00
00377               2.20   -27200.00
00378               6.00   -27200.00
00379               4.20   -28000.00
00380              -1.40   -28800.00
00381               6.80   -28800.00
00382               3.00   -28800.00
00383              -5.60   -29600.00
00384               5.20   -29600.00
00385              -0.20   -29600.00
00386               0.20   -30400.00
00387               2.80   -30400.00
00388               1.80   -30400.00
00389               8.20   -31200.00
00390               2.00   -31200.00
00391               0.40   -30400.00
00392               2.00   -32000.00
00393               1.00   -32000.00
00394              -0.60   -32000.00
00395              -0.20   -32800.00
00396               3.60   -32000.00
00397               3.60   -32000.00
00398               4.60   -32800.00
00399               2.80   -33600.00
00400               1.80   -33600.00
00401               2.00   -32800.00
00402               0.60   -33600.00
00403               0.40   -32800.00
00404               1.80   -33600.00
00405               2.20   -33600.00
00406               2.00   -33600.00
00407               4.40   -33600.00
00408               1.80   -33600.00
00409               2.00   -32800.00
00410               3.00   -33600.00
00411               0.40   -33600.00
00412               1.40   -33600.00
00413               0.80   -33600.00
00414               2.00   -33600.00
00415               2.40   -32800.00
00416               2.20   -33600.00
00417               3.40   -33600.00
00418               2.00   -32800.00
00419               2.20   -32800.00
00420               1.20   -32800.00
00421               0.60   -32800.00
00422               1.20   -32800.00
00423               1.20   -32800.00
00424               2.00   -32000.00
00425               1.80   -32000.00
00426               2.40   -32000.00
00427               2.60   -32000.00
00428               1.80   -30400.00
00429               2.00   -32000.00
00430               2.00   -31200.00
00431               1.40   -30400.00
00432               1.20   -30400.00
00433               1.40   -30400.00
00434               1.40   -30400.00
00435               1.40   -29600.00
00436               2.40   -29600.00
00437               1.80   -28800.00
00438               1.40   -28800.00
00439               1.60   -28000.00
00440               1.00   -28800.00
00441               1.00   -27200.00
00442               1.40   -27200.00
00443               1.20   -27200.00
00444               1.80   -26400.00
00445               1.80   -26400.00
00446               1.80   -26400.00
00447               2.00   -25600.00
00448               1.20   -24000.00
00449               1.40   -25600.00
00450               1.00   -24000.00
00451               0.40   -24000.00
00452               1.40   -23200.00
00453               0.60   -22400.00
00454               1.20   -23200.00
00455               2.00   -22400.00
00456               1.60   -20800.00
00457               1.00   -20800.00
00458               1.00   -20000.00
00459               0.80   -19200.00
00460               0.40   -19200.00
00461               0.60   -18400.00
00462               0.40   -17600.00
00463               1.00   -17600.00
00464               1.20   -16800.00
00465               1.00   -16800.00
00466               1.20   -16000.00
00467               0.60   -16000.00
00468               0.20   -15200.00
00469               1.00   -14400.00
00470               0.40   -14400.00
00471              -0.20   -13600.00
00472               0.80   -12800.00
00473               0.20   -12000.00
00474               0.80   -11200.00
00475               1.00   -11200.00
00476              -0.60    -9600.00
00477               0.20    -9600.00
00478               0.40    -8800.00
00479              -1.20    -8000.00
00480              -0.20    -8000.00
00481               1.00    -7200.00
00482              -0.40    -6400.00
00483              -0.40    -6400.00
00484               1.00    -5600.00
00485              -0.60    -4800.00
00486              -1.00    -4000.00
00487               0.20    -3200.00
00488              -0.20    -3200.00
00489              -1.20    -2400.00
00490              -0.60    -1600.00
00491               0.20     -800.00
00492              -1.00     -800.00
00493              -0.40        0.00
00494               1.40      800.00
00495               0.60     1600.00
00496               2.00     1600.00
00497              -2.80     2400.00
00498              -0.60     3200.00
00499              -0.20     3200.00
00500              -1.00     4000.00
00501               1.40     4800.00
00502              15.00     7200.00
00503              25.00     7200.00
00504             -25.00     8000.00
00505             -25.00     8000.00
00506              25.00     8800.00
00507              -9.60     8800.00
00508             -25.00     8800.00
00509              25.00     9600.00
00510               6.20    11200.00
00511             -25.00    11200.00
00512              25.00    11200.00
00513             -25.00    12000.00
00514              -8.40    13600.00
00515              25.00    12800.00
00516             -25.00    13600.00
00517              25.00    15200.00
00518             -25.00    15200.00
00519             -21.20    16000.00
00520              25.00    16000.00
00521             -25.00    16800.00
00522               0.60    17600.00
00523              25.00    18400.00
00524             -16.60    18400.00
00525             -25.00    19200.00
00526              25.00    19200.00
00527             -13.20    20000.00
00528             -23.00    21600.00
00529              25.00    22400.00
00530             -24.60    22400.00
00531               2.00    22400.00
00532               8.20    23200.00
00533             -18.00    24000.00
00534               2.00    24000.00
00535               7.40    24000.00
00536             -11.20    24000.00
00537               2.20    25600.00
00538               9.00    25600.00
00539             -19.40    25600.00
00540               8.20    26400.00
00541              -1.80    27200.00
00542             -10.60    27200.00
00543               5.20    27200.00
00544              -1.80    28000.00
00545              -7.00    28000.00
00546               0.60    28800.00
00547               0.40    28800.00
00548              -7.60    29600.00
00549               2.00    30400.00
00550              -2.20    29600.00
00551              -7.00    30400.00
00552               1.80    30400.00
00553              -3.80    31200.00
00554              -5.20    31200.00
00555               3.40    31200.00
00556              -5.40    32000.00
00557              -3.40    32800.00
00558               0.40    32800.00
00559              -6.20    32800.00
00560              -1.20    32000.00
00561              -1.40    32800.00
00562              -4.20    32800.00
00563              -0.40    32800.00
00564              -2.00    33600.00
00565              -4.40    33600.00
00566              -2.40    33600.00
00567              -2.20    33600.00
00568              -3.00    33600.00
00569              -2.20    34400.00
00570              -2.00    33600.00
00571              -3.80    33600.00
00572              -1.00    33600.00
00573              -2.80    33600.00
00574              -4.00    33600.00
00575              -1.20    33600.00
00576              -3.80    34400.00
00577              -2.00    34400.00
00578              -1.80    33600.00
00579              -3.60    33600.00
00580              -1.80    34400.00
00581              -2.60    33600.00
00582              -2.80    33600.00
00583              -2.60    33600.00
00584              -3.40    33600.00
00585              -2.20    33600.00
00586              -2.20    33600.00
00587              -2.20    33600.00
00588              -3.00    33600.00
00589              -1.60    33600.00
00590              -1.40    32800.00
00591              -3.80    32800.00
00592              -2.20    32800.00
00593              -2.20    32000.00
00594              -2.60    32000.00
00595              -2.00    32800.00
00596              -2.60    31200.00
00597              -1.80    32000.00
00598              -2.20    31200.00
00599              -2.60    30400.00
00600              -2.20    31200.00
00601              -2.60    30400.00
00602              -2.60    30400.00
00603              -2.60    30400.00
00604              -2.00    29600.00
00605              -2.00    28800.00
00606              -2.60    28000.00
00607              -2.20    28000.00
00608              -2.20    27200.00
00609              -2.40    28000.00
00610              -2.20    27200.00
00611              -2.80    27200.00
00612              -1.80    26400.00
00613              -1.40    26400.00
00614              -2.00    25600.00
00615              -2.00    25600.00
00616              -2.00    24800.00
00617              -2.20    24800.00
00618              -2.20    24000.00
00619              -1.60    24000.00
00620              -2.20    23200.00
00621              -2.20    22400.00
00622              -1.20    21600.00
00623              -1.80    21600.00
00624              -2.20    20800.00
00625              -1.80    20800.00
00626              -2.00    20000.00
00627              -1.60    19200.00
00628              -1.80    19200.00
00629              -1.80    18400.00
00630              -1.20    17600.00
00631              -1.40    17600.00
00632              -1.20    16800.00
00633              -1.40    16000.00
00634              -1.80    16000.00
00635              -1.20    15200.00
00636              -1.80    14400.00
00637              -1.40    14400.00
00638              -1.20    12800.00
00639              -0.80    12800.00
00640              -1.20    12000.00
00641              -1.00    12000.00
00642              -0.60    11200.00
00643              -1.20     9600.00
00644              -1.00     9600.00
00645              -0.20     9600.00
00646              -1.60     8800.00
00647              -0.60     8000.00
00648              -0.60     8000.00
00649              -1.20     6400.00
00650              -0.40     6400.00
00651              -0.60     5600.00
00652              -1.00     5600.00
00653               0.20     4000.00
00654              -0.60     3200.00
00655              -0.40     3200.00
00656              -0.40     2400.00
00657              -0.80     1600.00
00658              -0.40     1600.00
00659               0.20        0.00
00660              -0.40        0.00
00661               1.00     -800.00
00662               4.00     -800.00
00663              -0.60    -1600.00
00664              -1.00    -2400.00
00665               2.20    -2400.00
00666               1.00    -3200.00
00667              -0.60    -4000.00
00668               3.80    -4000.00
00669              13.20    -4800.00
00670              25.00    -7200.00
00671             -25.00    -7200.00
00672             -25.00    -8000.00
00673              25.00    -8000.00
00674               5.60    -8800.00
00675             -25.00    -8800.00
00676              11.00    -9600.00
00677              25.00   -10400.00
00678             -25.00   -11200.00
00679              -1.80   -11200.00
00680              25.00   -12800.00
00681             -25.00   -12800.00
00682              16.40   -13600.00
00683              13.80   -13600.00
00684             -16.20   -14400.00
00685              23.00   -14400.00
00686             -25.00   -16000.00
00687              21.80   -16800.00
00688              13.40   -16000.00
00689             -25.00   -17600.00
00690              15.20   -17600.00
00691              19.00   -18400.00
00692             -23.80   -19200.00
00693              -2.20   -19200.00
00694              25.00   -20000.00
00695             -25.00   -20000.00
00696               9.00   -20800.00
00697              19.80   -22400.00
00698             -19.40   -22400.00
00699              10.00   -22400.00
00700               5.20   -23200.00
00701             -10.80   -23200.00
00702               7.00   -24000.00
00703               8.20   -24000.00
00704              -9.20   -24000.00
00705              11.60   -25600.00
00706               1.80   -25600.00
00707              -8.40   -25600.00
00708              11.80   -26400.00
00709              -2.80   -27200.00
00710              -1.80   -27200.00
00711               8.80   -27200.00
00712              -0.20   -28800.00
00713              -2.00   -28800.00
00714               6.60   -28800.00
00715               0.20   -28800.00
00716              -0.60   -29600.00
00717               6.00   -28800.00
00718              -0.40   -29600.00
00719               0.20   -30400.00
00720               5.40   -30400.00
00721               0.20   -30400.00
00722               2.00   -30400.00
00723               5.20   -32000.00
00724              -0.60   -31200.00
00725               2.40   -32000.00
00726               2.80   -32000.00
00727               0.20   -32000.00
00728               2.60   -32000.00
00729               2.40   -32800.00
00730               2.20   -32800.00
00731               2.40   -32800.00
00732               1.80   -32800.00
00733               1.40   -32800.00
00734               2.60   -33600.00
00735               2.00   -33600.00
00736               1.20   -33600.00
00737               2.80   -33600.00
00738               2.20   -32800.00
00739               1.00   -33600.00
00740               2.80   -32800.00
00741               1.40   -33600.00
00742               1.60   -33600.00
00743               2.80   -33600.00
00744               1.20   -33600.00
00745               2.20   -33600.00
00746               2.00   -33600.00
00747               2.00   -33600.00
00748               2.60   -33600.00
00749               1.80   -32800.00
00750               2.00   -33600.00
00751               1.80   -32800.00
00752               2.20   -33600.00
00753               1.40   -32800.00
00754               1.80   -32800.00
00755               2.20   -32000.00
00756               1.20   -32800.00
00757               2.00   -32800.00
00758               1.80   -32800.00
00759               1.20   -32000.00
00760               1.80   -32000.00
00761               1.80   -32000.00
00762               2.20   -31200.00
00763               2.20   -30400.00
00764               2.00   -30400.00
00765               1.80   -30400.00
00766               1.80   -30400.00
00767               2.00   -29600.00
00768               1.40   -29600.00
00769               1.60   -29600.00
00770               1.60   -28800.00
00771               1.20   -28800.00
00772               1.40   -28000.00
00773               1.40   -28800.00
00774               1.80   -27200.00
00775               2.00   -27200.00
00776               1.20   -26400.00
00777               1.80   -27200.00
00778               1.40   -26400.00
00779               1.20   -25600.00
00780               1.80   -25600.00
00781               1.40   -24800.00
00782               1.20   -24800.00
00783               1.40   -24000.00
00784               1.00   -24000.00
00785               1.00   -23200.00
00786               1.40   -23200.00
00787               1.20   -22400.00
00788               1.00   -22400.00
00789               1.40   -20800.00
00790               1.40   -20800.00
00791               0.20   -20000.00
00792               0.60   -20000.00
00793               1.80   -19200.00
00794               1.20   -18400.00
00795              -0.20   -18400.00
00796               1.40   -16800.00
00797               2.00   -17600.00
00798              -0.60   -16800.00
00799               0.40   -16000.00
00800               2.20   -15200.00
00801              -0.20   -15200.00
00802              -0.60   -13600.00
00803               2.20   -14400.00
00804               0.40   -13600.00
00805              -1.20   -12800.00
00806               2.00   -12000.00
00807               1.00   -11200.00
00808              -2.00   -11200.00
00809               0.20   -10400.00
00810               1.40    -9600.00
00811              -1.20    -9600.00
00812              -0.40    -8800.00
00813               2.00    -8000.00
00814               0.40    -7200.00
00815              -1.20    -6400.00
00816               0.40    -6400.00
00817               0.40    -4800.00
00818              -1.40    -4800.00
00819              -1.00    -4000.00
00820               1.00    -3200.00
00821              -0.40    -3200.00
00822              -1.20    -2400.00
00823               0.60    -1600.00
00824              -1.20    -1600.00
00825              -1.20        0.00
00826               1.00      800.00
00827              -0.20        0.00
00828               0.00     1600.00
00829               3.80     1600.00
00830              -2.20     2400.00
00831              -1.20     3200.00
00832               1.80     4000.00
00833              -1.20     4000.00
00834              -0.20     4800.00
00835              13.20     5600.00
00836              25.00     7200.00
00837             -25.00     8000.00
00838             -25.00     8000.00
00839              25.00     8800.00
00840              -3.80     8800.00
00841             -25.00     9600.00
00842              25.00    10400.00
00843              22.00    10400.00
00844             -25.00    11200.00
00845              25.00    12800.00
00846             -25.00    12000.00
00847             -22.80    12800.00
00848              25.00    12800.00
00849             -25.00    13600.00
00850              25.00    15200.00
00851             -25.00    15200.00
00852             -25.00    16000.00
00853              25.00    16000.00
00854             -25.00    17600.00
00855              -6.80    17600.00
00856              25.00    18400.00
00857             -13.60    18400.00
00858             -25.00    19200.00
00859              25.00    20000.00
00860              -5.20    20000.00
00861             -25.00    20800.00
00862              25.00    21600.00
00863             -21.00    21600.00
00864              -3.60    22400.00
00865              10.60    22400.00
00866             -16.60    23200.00
00867              -0.20    23200.00
00868               6.20    24800.00
00869              -7.20    24800.00
00870              -2.00    25600.00
00871               8.60    25600.00
00872             -15.80    25600.00
00873               5.00    27200.00
00874              -2.00    27200.00
00875              -8.40    27200.00
00876               4.20    28000.00
00877              -3.60    28000.00
00878              -3.40    28000.00
00879              -1.40    28000.00
00880              -1.20    28800.00
00881              -4.80    28800.00
00882              -0.60    29600.00
00883              -1.80    30400.00
00884              -5.40    30400.00
00885              -1.20    30400.00
00886              -1.40    30400.00
00887              -4.40    31200.00
00888               1.00    31200.00
00889              -3.00    32000.00
00890              -4.00    32800.00
00891              -1.40    32000.00
00892              -3.80    32800.00
00893              -1.40    32800.00
00894              -2.60    32800.00
00895              -2.60    32800.00
00896              -1.20    32800.00
00897              -2.80    33600.00
00898              -2.80    33600.00
00899              -2.80    33600.00
00900              -3.00    33600.00
00901              -2.60    33600.00
00902              -2.00    33600.00
00903              -1.40    34400.00
00904              -3.80    34400.00
00905              -1.20    33600.00
00906              -2.20    34400.00
00907              -4.00    33600.00
00908              -1.00    33600.00
00909              -3.60    34400.00
00910              -2.20    34400.00
00911              -2.00    34400.00
00912              -3.60    34400.00
00913              -1.80    33600.00
00914              -2.20    34400.00
00915              -3.00    33600.00
00916              -2.00    33600.00
00917              -3.40    34400.00
00918              -2.80    33600.00
00919              -1.40    33600.00
00920              -2.00    32800.00
00921              -3.40    33600.00
00922              -1.80    33600.00
00923              -1.20    33600.00
00924              -3.60    32800.00
00925              -2.20    32800.00
00926              -2.20    32000.00
00927              -2.40    32800.00
00928              -2.20    32000.00
00929              -2.80    32000.00
00930              -2.00    31200.00
00931              -2.60    31200.00
00932              -2.80    30400.00
00933              -2.00    31200.00
00934              -2.20    30400.00
00935              -2.80    29600.00
00936              -2.20    29600.00
00937              -2.00    29600.00
00938              -2.40    28800.00
00939              -2.60    28800.00
00940              -2.00    28800.00
00941              -2.60    28000.00
00942              -2.60    28000.00
00943              -2.00    27200.00
00944              -2.80    27200.00
00945              -2.00    26400.00
00946              -1.40    25600.00
00947              -2.20    25600.00
00948              -2.00    25600.00
00949              -2.20    24800.00
00950              -2.20    24800.00
00951              -2.20    24000.00
00952              -1.60    24000.00
00953              -2.20    23200.00
00954              -2.40    22400.00
00955              -1.40    22400.00
00956              -2.20    21600.00
00957              -2.20    21600.00
00958              -1.80    20000.00
00959              -2.00    20000.00
00960              -1.40    19200.00
00961              -1.80    18400.00
00962              -1.40    18400.00
00963              -1.80    18400.00
00964              -1.40    17600.00
00965              -1.20    16000.00
00966              -1.40    16000.00
00967              -1.40    15200.00
00968              -1.20    15200.00
00969              -1.20    14400.00
00970              -1.20    14400.00
00971              -1.40    13600.00
00972              -1.20    12800.00
00973              -1.00    12800.00
00974              -0.60    11200.00
00975              -1.00    11200.00
00976              -1.40    11200.00
00977              -0.60     9600.00
00978              -0.20     9600.00
00979              -1.20     8000.00
00980              -0.60     8800.00
00981              -0.80     7200.00
00982              -1.00     6400.00
00983              -0.60     6400.00
00984              -1.00     5600.00
00985              -0.60     4800.00
00986              -0.40     4000.00
00987              -1.00     4000.00
00988              -0.40     3200.00
00989              -0.60     2400.00
00990              -1.00     1600.00
00991              -0.20     1600.00
00992               0.40        0.00
00993              -0.40        0.00
00994               0.40     -800.00
00995               3.80    -1600.00
00996              -0.40    -1600.00
00997              -1.40    -2400.00
00998               1.80    -3200.00
00999               1.20    -3200.00
01000              -0.60    -4000.00
01001               2.60    -4800.00
01002              11.80    -5600.00
01003              25.00    -6400.00
01004             -25.00    -7200.00
01005             -25.00    -8000.00
01006              22.20    -8000.00
01007              10.00    -8800.00
01008             -25.00    -9600.00
01009               3.00    -9600.00
01010              25.00   -11200.00
01011             -25.00   -10400.00
01012             -16.60   -11200.00
01013              25.00   -12000.00
01014             -25.00   -12800.00
01015               6.60   -13600.00
01016              21.20   -13600.00
01017             -20.20   -14400.00
01018              24.60   -14400.00
01019             -25.00   -15200.00
01020              15.80   -16000.00
01021              18.80   -16000.00
01022             -25.00   -16800.00
01023              10.80   -17600.00
01024              22.00   -17600.00
01025             -21.20   -18400.00
01026              -7.00   -19200.00
01027              25.00   -20000.00
01028             -24.60   -20000.00
01029               3.40   -20800.00
01030              23.60   -20800.00
01031             -18.60   -21600.00
01032               7.00   -23200.00
01033               7.40   -23200.00
01034             -11.00   -23200.00
01035               5.20   -24000.00
01036               9.80   -24000.00
01037              -9.00   -24000.00
01038               9.80   -25600.00
01039               4.20   -25600.00
01040              -9.80   -26400.00
01041              11.00   -27200.00
01042              -0.60   -26400.00
01043              -3.00   -27200.00
01044               8.60   -27200.00
01045               0.60   -28000.00
01046              -2.20   -28800.00
01047               6.60   -28800.00
01048               0.80   -28800.00
01049              -1.20   -29600.00
01050               6.00   -29600.00
01051              -0.20   -29600.00
01052              -0.40   -30400.00
01053               5.80   -30400.00
01054              -0.20   -30400.00
01055               1.40   -30400.00
01056               6.00   -30400.00
01057              -0.60   -32000.00
01058               2.00   -31200.00
01059               3.60   -32000.00
01060              -0.40   -32000.00
01061               2.20   -32800.00
01062               2.60   -32800.00
01063               2.00   -32000.00
01064               2.20   -33600.00
01065               1.60   -32800.00
01066               1.40   -33600.00
01067               2.00   -33600.00
01068               2.00   -33600.00
01069               1.40   -33600.00
01070               2.80   -33600.00
01071               2.40   -33600.00
01072               1.40   -33600.00
01073               2.80   -33600.00
01074               1.00   -33600.00
01075               1.80   -32800.00
01076               2.80   -33600.00
01077               1.00   -33600.00
01078               2.60   -33600.00
01079               2.00   -33600.00
01080               1.40   -33600.00
01081               2.60   -32800.00
01082               2.00   -33600.00
01083               1.80   -33600.00
01084               2.00   -32800.00
01085               2.00   -32800.00
01086               1.80   -32000.00
01087               2.00   -32800.00
01088               2.00   -32800.00
01089               1.80   -32000.00
01090               2.20   -32800.00
01091               1.40   -32800.00
01092               1.80   -32000.00
01093               2.00   -32000.00
01094               1.40   -32000.00
01095               2.00   -32000.00
01096               2.60   -31200.00
01097               1.20   -30400.00
01098               2.00   -30400.00
01099               2.00   -30400.00
01100               1.40   -29600.00
01101               1.40   -29600.00
01102               2.20   -29600.00
01103               1.40   -29600.00
01104               1.20   -28800.00
01105               1.80   -28800.00
01106               1.20   -27200.00
01107               1.80   -27200.00
01108               2.20   -27200.00
01109               1.20   -27200.00
01110               1.40   -26400.00
01111               1.20   -26400.00
01112               1.00   -25600.00
01113               2.00   -25600.00
01114               1.40   -25600.00
01115               1.00   -24000.00
01116               1.80   -24000.00
01117               1.00   -24000.00
01118               1.00   -23200.00
01119               1.80   -22400.00
01120               1.00   -22400.00
01121               1.20   -22400.00
01122               1.80   -21600.00
01123               0.60   -20800.00
01124               0.60   -20000.00
01125               1.20   -19200.00
01126               0.40   -20000.00
01127               0.80   -19200.00
01128               1.00   -17600.00
01129               0.20   -17600.00
01130               1.00   -17600.00
01131               1.00   -16800.00
01132               0.00   -16000.00
01133               0.60   -16000.00
01134               1.00   -15200.00
01135               0.40   -14400.00
01136               0.40   -14400.00
01137               0.00   -13600.00
01138               0.40   -12800.00
01139               0.40   -12800.00
01140               0.20   -11200.00
01141               0.00   -11200.00
01142               0.00   -10400.00
01143              -0.20    -9600.00
01144              -0.20    -8800.00
01145               0.20    -8800.00
01146               0.20    -8000.00
01147               0.20    -8000.00
01148               0.20    -6400.00
01149               0.20    -6400.00
01150              -0.20    -6400.00
01151              -0.20    -4800.00
01152              -0.40    -4000.00
01153              -0.20    -3200.00
01154              -0.20    -3200.00
01155              -0.40    -2400.00
01156              -0.40    -1600.00
01157              -0.60     -800.00
01158              -0.60     -800.00
01159              -0.40        0.00
01160               0.20      800.00
01161               0.40     1600.00
01162               3.40     2400.00
01163              -2.00     2400.00
01164              -1.20     3200.00
01165               1.20     3200.00
01166              -0.40     4000.00
01167              -0.60     4800.00
01168              11.40     5600.00
01169              25.00     7200.00
01170             -25.00     8000.00
01171             -25.00     8000.00
01172              25.00     8000.00
01173               2.00     8800.00
01174             -25.00     8800.00
01175              25.00    10400.00
01176              25.00    11200.00
01177             -25.00    11200.00
01178              25.00    12000.00
01179             -11.60    12000.00
01180             -25.00    12800.00
01181              25.00    13600.00
01182             -25.00    13600.00
01183              25.00    14400.00
01184              -8.60    15200.00
01185             -25.00    16000.00
01186              25.00    16000.00
01187             -25.00    16800.00
01188             -16.20    17600.00
01189              25.00    17600.00
01190              -7.60    19200.00
01191             -25.00    18400.00
01192              25.00    19200.00
01193               3.40    20000.00
01194             -25.00    21600.00
01195              25.00    21600.00
01196             -16.20    22400.00
01197              -8.40    22400.00
01198              14.20    22400.00
01199             -18.20    23200.00
01200              -1.40    23200.00
01201               8.40    24000.00
01202              -9.20    24800.00
01203              -3.60    25600.00
01204              13.00    25600.00
01205             -18.40    25600.00
01206               3.00    26400.00
01207               3.00    26400.00
01208             -13.20    27200.00
01209               4.40    28000.00
01210               0.20    28000.00
01211              -6.60    28000.00
01212              -0.40    28800.00
01213               1.20    28800.00
01214              -7.60    30400.00
01215               0.40    29600.00
01216              -0.20    30400.00
01217              -7.60    30400.00
01218              -0.40    31200.00
01219              -0.60    31200.00
01220              -6.80    31200.00
01221               2.20    31200.00
01222              -2.20    31200.00
01223              -5.00    32800.00
01224               0.40    32000.00
01225              -4.40    32800.00
01226              -2.80    32800.00
01227              -1.20    33600.00
01228              -3.40    32800.00
01229              -1.20    33600.00
01230              -1.20    32800.00
01231              -3.40    33600.00
01232              -3.60    33600.00
01233              -2.00    33600.00
01234              -2.80    33600.00
01235              -3.20    33600.00
01236              -1.00    33600.00
01237              -3.80    34400.00
01238              -2.00    34400.00
01239              -1.80    33600.00
01240              -4.20    34400.00
01241              -1.40    33600.00
01242              -3.00    34400.00
01243              -2.20    34400.00
01244              -1.80    34400.00
01245              -3.60    34400.00
01246              -2.00    33600.00
01247              -2.20    34400.00
01248              -3.40    34400.00
01249              -1.80    34400.00
01250              -3.40    33600.00
01251              -3.00    33600.00
01252              -1.80    33600.00
01253              -2.20    33600.00
01254              -3.00    33600.00
01255              -2.20    33600.00
01256              -1.00    32800.00
01257              -3.60    32800.00
01258              -2.80    32800.00
01259              -2.20    32000.00
01260              -2.60    32000.00
01261              -2.20    32000.00
01262              -2.80    32000.00
01263              -2.20    32000.00
01264              -2.20    31200.00
01265              -3.00    31200.00
01266              -2.20    31200.00
01267              -2.20    30400.00
01268              -3.00    30400.00
01269              -2.20    29600.00
01270              -2.00    28800.00
01271              -2.00    28800.00
01272              -2.40    28800.00
01273              -2.20    28800.00
01274              -2.20    28000.00
01275              -2.20    27200.00
01276              -2.00    27200.00
01277              -2.80    27200.00
01278              -2.00    27200.00
01279              -1.80    25600.00
01280              -2.20    25600.00
01281              -1.80    25600.00
01282              -2.40    24800.00
01283              -1.40    24800.00
01284              -2.20    24000.00
01285              -2.00    24000.00
01286              -1.20    24000.00
01287              -2.20    22400.00
01288              -1.40    22400.00
01289              -1.80    22400.00
01290              -2.20    20800.00
01291              -2.00    20800.00
01292              -1.80    20000.00
01293              -1.20    19200.00
01294              -1.20    19200.00
01295              -2.20    18400.00
01296              -1.40    17600.00
01297              -1.20    17600.00
01298              -1.60    16800.00
01299              -1.20    16000.00
01300              -1.20    16000.00
01301              -1.40    15200.00
01302              -1.40    14400.00
01303              -0.80    14400.00
01304              -1.60    13600.00
01305              -1.00    12800.00
01306              -0.80    12000.00
01307              -1.00    12000.00
01308              -1.20    11200.00
01309              -1.00    10400.00
01310              -1.00     9600.00
01311              -0.20     9600.00
01312              -1.80     8800.00
01313              -0.60     8800.00
01314              -0.60     8000.00
01315              -1.20     7200.00
01316              -0.40     6400.00
01317              -0.40     5600.00
01318              -1.00     5600.00
01319              -0.20     4800.00
01320              -0.60     3200.00
01321              -0.40     3200.00
01322              -0.60     2400.00
01323              -0.60     2400.00
01324              -0.60     1600.00
01325               0.20        0.00
01326              -0.20        0.00
01327               0.20     -800.00
01328               3.40     -800.00
01329               0.40    -1600.00
01330              -1.40    -2400.00
01331               1.80    -3200.00
01332               1.20    -3200.00
01333              -0.60    -4000.00
01334               2.60    -4000.00
01335              10.60    -4800.00
01336              25.00    -6400.00
01337             -19.00    -8000.00
01338             -25.00    -8000.00
01339              18.80    -8000.00
01340              14.40    -8800.00
01341             -25.00    -9600.00
01342              -4.40    -9600.00
01343              25.00   -10400.00
01344             -25.00   -10400.00
01345             -25.00   -11200.00
01346              25.00   -12800.00
01347             -25.00   -12800.00
01348              -3.60   -13600.00
01349              25.00   -13600.00
01350             -23.60   -14400.00
01351              25.00   -14400.00
01352             -25.00   -16000.00
01353              10.60   -16000.00
01354              23.60   -16800.00
01355             -25.00   -16800.00
01356               7.00   -17600.00
01357              24.40   -17600.00
01358             -18.60   -18400.00
01359             -12.20   -19200.00
01360              25.00   -20000.00
01361             -20.20   -20000.00
01362              -2.60   -20800.00
01363              25.00   -20800.00
01364             -17.20   -21600.00
01365               4.20   -22400.00
01366              10.20   -23200.00
01367             -11.40   -23200.00
01368               3.40   -24000.00
01369              10.80   -24000.00
01370              -8.60   -24000.00
01371               7.40   -24800.00
01372               6.60   -25600.00
01373             -10.40   -26400.00
01374              10.00   -25600.00
01375               0.80   -26400.00
01376              -4.20   -27200.00
01377               8.60   -27200.00
01378               1.40   -28000.00
01379              -2.80   -28000.00
01380               6.20   -28800.00
01381               1.80   -29600.00
01382              -2.00   -28800.00
01383               5.80   -29600.00
01384               0.60   -29600.00
01385              -1.20   -30400.00
01386               5.80   -30400.00
01387              -0.20   -30400.00
01388               0.40   -31200.00
01389               5.80   -32000.00
01390              -0.40   -32000.00
01391               1.80   -32000.00
01392               4.20   -32000.00
01393              -0.20   -32000.00
01394               1.80   -32000.00
01395               2.60   -32000.00
01396               1.80   -32800.00
01397               2.20   -32000.00
01398               1.80   -32800.00
01399               1.40   -33600.00
01400               2.20   -32800.00
01401               2.00   -33600.00
01402               1.60   -32800.00
01403               2.00   -33600.00
01404               2.60   -33600.00
01405               1.20   -33600.00
01406               2.60   -33600.00
01407               1.00   -33600.00
01408               1.40   -33600.00
01409               3.40   -33600.00
01410               1.20   -32800.00
01411               3.00   -33600.00
01412               2.20   -33600.00
01413               1.40   -33600.00
01414               2.80   -32800.00
01415               1.80   -33600.00
01416               1.40   -33600.00
01417               2.60   -32800.00
01418               2.20   -33600.00
01419               1.60   -33600.00
01420               1.80   -32800.00
01421               2.60   -32800.00
01422               1.80   -32800.00
01423               2.00   -32800.00
01424               1.80   -32000.00
01425               1.80   -32000.00
01426               2.00   -32000.00
01427               2.00   -32000.00
01428               2.00   -31200.00
01429               2.80   -30400.00
01430               2.00   -30400.00
01431               1.20   -31200.00
01432               2.20   -29600.00
01433               1.40   -29600.00
01434               1.00   -29600.00
01435               2.60   -29600.00
01436               1.20   -28800.00
01437               1.20   -28800.00
01438               2.60   -28800.00
01439               1.40   -28000.00
01440               1.00   -28000.00
01441               2.60   -27200.00
01442               1.20   -27200.00
01443               1.40   -27200.00
01444               1.80   -26400.00
01445               1.00   -25600.00
01446               2.00   -25600.00
01447               2.00   -24800.00
01448               0.80   -24000.00
01449               1.80   -24000.00
01450               1.00   -24000.00
01451               0.60   -23200.00
01452               1.40   -23200.00
01453               1.20   -22400.00
01454               1.00   -22400.00
01455               1.80   -20800.00
01456               1.00   -20800.00
01457               0.20   -20000.00
01458               1.20   -20000.00
01459               0.60   -18400.00
01460               0.60   -18400.00
01461               1.40   -18400.00
01462               0.20   -17600.00
01463               0.20   -17600.00
01464               0.60   -16800.00
01465              -0.20   -16000.00
01466               0.60   -16000.00
01467               1.00   -14400.00
01468               0.40   -14400.00
01469               1.00   -13600.00
01470               0.40   -13600.00
01471               0.00   -12800.00
01472               0.20   -12000.00
01473               0.40   -11200.00
01474               0.40   -11200.00
01475              -0.20   -10400.00
01476              -0.40   -10400.00
01477              -0.40    -9600.00
01478               0.00    -8000.00
01479               0.40    -8000.00
01480               0.20    -7200.00
01481               0.20    -6400.00
01482               0.20    -6400.00
01483              -0.40    -5600.00
01484              -0.20    -4800.00
01485              -0.20    -4800.00
01486              -0.40    -3200.00
01487               0.20    -3200.00
01488              -0.20    -2400.00
01489              -0.60    -1600.00
01490              -0.60     -800.00
01491              -0.60     -800.00
01492              -0.40        0.00
01493               0.40      800.00
01494               0.40     1600.00
01495               3.40     1600.00
01496              -1.40     2400.00
01497              -1.40     2400.00
01498               1.20     3200.00
01499              -0.20     4000.00
01500              -1.00     4800.00
01501              10.00     5600.00
01502              25.00     8000.00
01503             -25.00     8000.00
01504             -25.00     8000.00
01505              22.80     8800.00
01506               7.60     8800.00
01507             -25.00     8800.00
01508              25.00     9600.00
01509              25.00    11200.00
01510             -25.00    11200.00
01511              25.00    12000.00
01512               5.40    12000.00
01513             -25.00    12800.00
01514              25.00    14400.00
01515             -25.00    14400.00
01516              25.00    15200.00
01517               6.20    15200.00
01518             -25.00    16000.00
01519              25.00    16000.00
01520             -25.00    16800.00
01521             -23.80    17600.00
01522              25.00    17600.00
01523              -3.20    18400.00
01524             -25.00    19200.00
01525              21.60    19200.00
01526              11.00    20000.00
01527             -25.00    20800.00
01528              25.00    21600.00
01529              -9.40    21600.00
01530             -12.80    22400.00
01531              16.40    22400.00
01532             -17.00    23200.00
01533              -3.80    24000.00
01534               7.80    24000.00
01535              -7.00    24800.00
01536              -5.80    25600.00
01537              14.00    25600.00
01538             -17.00    25600.00
01539               0.80    27200.00
01540               5.20    27200.00
01541             -13.80    27200.00
01542               3.00    28000.00
01543               0.20    28000.00
01544              -6.00    28800.00
01545              -1.00    28800.00
01546               1.40    28800.00
01547              -6.80    28800.00
01548              -0.60    30400.00
01549               0.00    30400.00
01550              -6.80    30400.00
01551              -0.80    30400.00
01552              -0.20    31200.00
01553              -6.00    31200.00
01554               1.80    31200.00
01555              -2.00    32800.00
01556              -5.20    32000.00
01557               0.60    32000.00
01558              -4.40    33600.00
01559              -3.00    32800.00
01560              -1.20    33600.00
01561              -3.00    33600.00
01562              -1.40    32800.00
01563              -1.80    33600.00
01564              -2.80    33600.00
01565              -3.00    33600.00
01566              -2.60    33600.00
01567              -2.20    33600.00
01568              -3.00    33600.00
01569              -1.40    33600.00
01570              -3.40    33600.00
01571              -2.20    34400.00
01572              -1.80    34400.00
01573              -3.80    33600.00
01574              -1.40    34400.00
01575              -3.00    34400.00
01576              -2.80    33600.00
01577              -1.20    34400.00
01578              -3.60    34400.00
01579              -2.00    34400.00
01580              -2.20    33600.00
01581              -3.00    34400.00
01582              -2.00    33600.00
01583              -3.00    33600.00
01584              -3.00    33600.00
01585              -2.20    33600.00
01586              -2.20    33600.00
01587              -3.00    33600.00
01588              -3.00    32800.00
01589              -0.60    32800.00
01590              -3.40    33600.00
01591              -2.80    33600.00
01592              -1.80    32000.00
01593              -2.80    32800.00
01594              -2.00    31200.00
01595              -2.60    32000.00
01596              -3.00    31200.00
01597              -2.20    31200.00
01598              -2.20    31200.00
01599              -2.80    31200.00
01600              -2.60    30400.00
01601              -2.20    30400.00
01602              -2.80    29600.00
01603              -2.00    29600.00
01604              -2.00    28800.00
01605              -2.60    28800.00
01606              -2.00    28000.00
01607              -2.20    28000.00
01608              -2.20    28000.00
01609              -1.80    27200.00
01610              -2.80    27200.00
01611              -2.20    27200.00
01612              -1.40    25600.00
01613              -1.80    25600.00
01614              -2.20    25600.00
01615              -2.20    25600.00
01616              -2.00    24800.00
01617              -2.20    24000.00
01618              -2.00    24000.00
01619              -1.40    24000.00
01620              -1.80    23200.00
01621              -1.40    22400.00
01622              -1.40    21600.00
01623              -2.20    21600.00
01624              -2.00    20800.00
01625              -1.60    20000.00
01626              -1.20    19200.00
01627              -1.20    19200.00
01628              -2.00    18400.00
01629              -1.00    18400.00
01630              -1.40    17600.00
01631              -1.40    17600.00
01632              -1.20    16000.00
01633              -1.40    15200.00
01634              -1.20    15200.00
01635              -1.40    15200.00
01636              -1.20    14400.00
01637              -1.40    14400.00
01638              -0.60    12800.00
01639              -1.00    12800.00
01640              -1.00    12000.00
01641              -0.60    11200.00
01642              -0.80    11200.00
01643              -1.20     9600.00
01644              -0.40     9600.00
01645              -1.40     8800.00
01646              -1.00     8000.00
01647              -0.60     8000.00
01648              -1.20     7200.00
01649              -0.60     6400.00
01650              -0.60     5600.00
01651              -1.20     4800.00
01652              -0.20     4800.00
01653              -1.00     3200.00
01654              -0.60     3200.00
01655              -0.20     2400.00
01656              -1.20     1600.00
01657              -0.60     1600.00
01658               0.20      800.00
01659              -0.20        0.00
01660               0.20        0.00
01661               2.80     -800.00
01662               1.00    -1600.00
01663              -2.00    -1600.00
01664               1.40    -2400.00
01665               1.20    -3200.00
01666              -0.20    -4000.00
01667               1.80    -4000.00
01668               9.80    -4800.00
01669              25.00    -6400.00
01670             -13.40    -7200.00
01671             -25.00    -8000.00
01672              15.20    -8000.00
01673              18.00    -9600.00
01674             -25.00    -9600.00
01675             -11.60    -9600.00
01676              25.00   -10400.00
01677             -20.40   -10400.00
01678             -25.00   -11200.00
01679              25.00   -12800.00
01680             -25.00   -12000.00
01681             -14.60   -13600.00
01682              25.00   -14400.00
01683             -25.00   -14400.00
01684              24.20   -14400.00
01685             -21.20   -14400.00
01686               4.60   -16000.00
01687              25.00   -16800.00
01688             -25.00   -16800.00
01689               2.60   -17600.00
01690              25.00   -17600.00
01691             -15.60   -18400.00
01692             -16.00   -19200.00
01693              25.00   -20000.00
01694             -15.40   -20000.00
01695              -7.60   -20000.00
01696              25.00   -20800.00
01697             -15.00   -21600.00
01698               0.60   -22400.00
01699              11.40   -23200.00
01700             -10.20   -23200.00
01701               1.80   -24000.00
01702              11.80   -24000.00
01703              -7.40   -24000.00
01704               4.80   -25600.00
01705               8.00   -25600.00
01706             -11.00   -25600.00
01707               9.00   -25600.00
01708               3.40   -26400.00
01709              -4.60   -26400.00
01710               7.60   -27200.00
01711               2.00   -28000.00
01712              -3.00   -27200.00
01713               4.60   -28800.00
01714               3.00   -28800.00
01715              -1.80   -29600.00
01716               4.80   -29600.00
01717               1.40   -29600.00
01718              -1.40   -29600.00
01719               5.00   -30400.00
01720               1.20   -30400.00
01721               0.60   -30400.00
01722               5.40   -32000.00
01723              -0.20   -31200.00
01724               0.40   -31200.00
01725               3.60   -32000.00
01726               0.20   -32000.00
01727               2.00   -32000.00
01728               3.40   -32800.00
01729               1.80   -32000.00
01730               2.20   -32800.00
01731               1.20   -32800.00
01732               1.00   -33600.00
01733               2.00   -33600.00
01734               2.00   -32800.00
01735               1.40   -33600.00
01736               2.60   -33600.00
01737               2.80   -33600.00
01738               0.60   -32800.00
01739               2.80   -33600.00
01740               1.40   -33600.00
01741               1.00   -33600.00
01742               3.40   -33600.00
01743               1.20   -33600.00
01744               2.20   -33600.00
01745               2.20   -33600.00
01746               1.80   -33600.00
01747               2.80   -33600.00
01748               2.00   -33600.00
01749               1.80   -33600.00
01750               2.00   -32800.00
01751               2.20   -33600.00
01752               1.40   -32800.00
01753               1.80   -32800.00
01754               2.60   -32800.00
01755               1.60   -32000.00
01756               2.00   -32800.00
01757               2.20   -32000.00
01758               1.20   -32000.00
01759               2.00   -32000.00
01760               1.40   -32000.00
01761               2.20   -30400.00
01762               2.20   -31200.00
01763               2.00   -30400.00
01764               2.00   -30400.00
01765               1.80   -30400.00
01766               2.60   -29600.00
01767               1.20   -29600.00
01768               2.00   -29600.00
01769               2.00   -28800.00
01770               1.40   -28800.00
01771               1.00   -28800.00
01772               1.80   -28000.00
01773               2.00   -27200.00
01774               1.20   -27200.00
01775               2.20   -27200.00
01776               1.80   -27200.00
01777               0.40   -26400.00
01778               1.40   -25600.00
01779               1.80   -25600.00
01780               0.60   -25600.00
01781               1.40   -24800.00
01782               1.40   -24000.00
01783               1.00   -24000.00
01784               1.20   -24000.00
01785               0.80   -22400.00
01786               1.00   -22400.00
01787               1.20   -22400.00
01788               1.00   -20800.00
01789               1.40   -20800.00
01790               1.00   -20800.00
01791               0.60   -20000.00
01792               1.00   -20000.00
01793               0.80   -19200.00
01794               0.80   -18400.00
01795               0.60   -17600.00
01796               0.60   -16800.00
01797               0.80   -17600.00
01798               0.40   -16800.00
01799               1.00   -16000.00
01800               0.40   -15200.00
01801               0.40   -14400.00
01802               0.60   -13600.00
01803               0.40   -13600.00
01804               0.20   -12800.00
01805               1.00   -12800.00
01806               0.40   -12000.00
01807               0.20   -11200.00
01808               0.40   -10400.00
01809               0.20    -9600.00
01810               0.20    -9600.00
01811               0.20    -8800.00
01812              -0.20    -8000.00
01813               0.20    -8000.00
01814               0.20    -6400.00
01815              -0.20    -6400.00
01816               0.20    -4800.00
01817               0.20    -5600.00
01818              -0.60    -4800.00
01819              -0.20    -3200.00
01820              -0.20    -3200.00
01821              -0.40    -3200.00
01822              -0.60    -1600.00
01823              -0.40    -1600.00
01824              -0.20     -800.00
01825              -0.40        0.00
01826               0.40        0.00
01827               0.40     1600.00
01828               3.00     1600.00
01829              -0.60     2400.00
01830              -1.40     3200.00
01831               0.60     3200.00
01832               0.20     4000.00
01833              -1.60     4800.00
01834               9.00     5600.00
01835              25.00     7200.00
01836             -18.00     8000.00
01837             -25.00     8800.00
01838              19.40     8800.00
01839              12.20     8800.00
01840             -25.00     8800.00
01841              25.00     9600.00
01842              25.00    11200.00
01843             -25.00    10400.00
01844              25.00    12000.00
01845              21.00    12000.00
01846             -25.00    12800.00
01847              25.00    12800.00
01848             -25.00    13600.00
01849              25.00    14400.00
01850              21.60    15200.00
01851             -25.00    15200.00
01852              25.00    16000.00
01853             -17.40    16800.00
01854             -25.00    17600.00
01855              25.00    17600.00
01856               1.20    18400.00
01857             -25.00    19200.00
01858              16.40    19200.00
01859              18.00    20000.00
01860             -25.00    20800.00
01861              25.00    21600.00
01862              -3.40    21600.00
01863             -17.40    22400.00
01864              18.40    22400.00
01865             -16.20    23200.00
01866              -5.80    23200.00
01867               8.40    24800.00
01868              -5.40    24000.00
01869              -8.20    24800.00
01870              15.00    25600.00
01871             -14.80    25600.00
01872              -2.00    27200.00
01873               7.00    27200.00
01874             -13.80    27200.00
01875               2.20    28000.00
01876               1.80    28000.00
01877              -6.60    28800.00
01878              -1.80    28000.00
01879               1.80    28800.00
01880              -7.00    28800.00
01881              -1.20    29600.00
01882               1.20    30400.00
01883              -7.00    30400.00
01884              -1.40    30400.00
01885               0.60    31200.00
01886              -6.60    31200.00
01887               1.00    31200.00
01888              -0.80    32000.00
01889              -5.80    32800.00
01890               0.60    32000.00
01891              -3.80    32800.00
01892              -3.80    32800.00
01893              -0.60    33600.00
01894              -3.40    32800.00
01895              -2.00    33600.00
01896              -1.00    33600.00
01897              -3.00    33600.00
01898              -3.80    33600.00
01899              -2.00    34400.00
01900              -2.20    33600.00
01901              -4.20    34400.00
01902              -0.60    33600.00
01903              -2.80    34400.00
01904              -2.80    34400.00
01905              -1.40    33600.00
01906              -4.20    34400.00
01907              -1.60    33600.00
01908              -2.80    34400.00
01909              -3.40    34400.00
01910              -0.80    33600.00
01911              -3.60    34400.00
01912              -3.00    34400.00
01913              -1.20    33600.00
01914              -3.60    34400.00
01915              -2.80    34400.00
01916              -2.00    33600.00
01917              -3.00    33600.00
01918              -3.60    33600.00
01919              -1.20    33600.00
01920              -3.00    33600.00
01921              -4.40    32800.00
01922               0.40    33600.00
01923              -2.80    32800.00
01924              -4.40    33600.00
01925              -1.20    32000.00
01926              -2.60    32800.00
01927              -3.80    32000.00
01928              -1.80    32000.00
01929              -1.40    32000.00
01930              -3.00    31200.00
01931              -2.80    32000.00
01932              -1.80    31200.00
01933              -2.80    30400.00
01934              -2.20    30400.00
01935              -2.00    30400.00
01936              -2.20    28800.00
01937              -2.20    28800.00
01938              -2.20    28800.00
01939              -2.20    28800.00
01940              -2.40    28000.00
01941              -2.40    28000.00
01942              -1.40    27200.00
01943              -2.80    27200.00
01944              -2.60    27200.00
01945              -1.20    25600.00
01946              -2.00    25600.00
01947              -2.00    25600.00
01948              -1.80    25600.00
01949              -1.40    24800.00
01950              -2.00    24000.00
01951              -2.20    24000.00
01952              -1.40    24000.00
01953              -2.20    22400.00
01954              -1.60    22400.00
01955              -1.40    21600.00
01956              -2.20    21600.00
01957              -1.80    20800.00
01958              -1.40    20800.00
01959              -1.80    19200.00
01960              -1.20    19200.00
01961              -1.40    18400.00
01962              -1.40    18400.00
01963              -1.20    17600.00
01964              -1.00    17600.00
01965              -1.20    16000.00
01966              -1.40    16000.00
01967              -1.00    15200.00
01968              -1.40    15200.00
01969              -1.20    14400.00
01970              -1.40    14400.00
01971              -1.20    12800.00
01972              -1.00    12800.00
01973              -1.00    12000.00
01974              -0.80    12000.00
01975              -0.80    10400.00
01976              -1.20    10400.00
01977              -0.60     8800.00
01978              -1.40     8000.00
01979              -1.20     8800.00
01980              -0.60     8000.00
01981              -1.20     6400.00
01982              -1.00     6400.00
01983              -1.00     5600.00
01984              -0.60     5600.00
01985              -0.60     4800.00
01986              -0.60     4000.00
01987              -0.40     3200.00
01988              -0.60     2400.00
01989              -1.00     2400.00
01990              -0.60     1600.00
01991              -0.20      800.00
01992               0.20        0.00
01993               0.20     -800.00
01994               3.40     -800.00
01995               2.00    -1600.00
01996              -2.60    -1600.00
01997               2.20    -3200.00
01998               1.40    -3200.00
01999              -1.80    -3200.00
02000               2.20    -4000.00
02001               9.20    -4800.00
02002              25.00    -6400.00
02003              -5.60    -7200.00
02004             -25.00    -8000.00
02005              10.00    -8000.00
02006              21.80    -8800.00
02007             -25.00    -9600.00
02008             -17.20    -9600.00
02009              25.00   -10400.00
02010              -7.60   -10400.00
02011             -25.00   -11200.00
02012              25.00   -12800.00
02013             -25.00   -12800.00
02014             -23.80   -13600.00
02015              25.00   -13600.00
02016             -25.00   -13600.00
02017              22.20   -15200.00
02018             -15.60   -14400.00
02019              -2.20   -16000.00
02020              25.00   -16800.00
02021             -24.60   -16800.00
02022              -2.20   -17600.00
02023              25.00   -17600.00
02024             -11.80   -19200.00
02025             -19.60   -19200.00
02026              25.00   -20000.00
02027              -9.80   -20000.00
02028             -13.20   -20800.00
02029              25.00   -20800.00
02030             -12.40   -21600.00
02031              -2.60   -22400.00
02032              13.20   -23200.00
02033             -10.20   -23200.00
02034              -0.20   -23200.00
02035              12.20   -24000.00
02036              -6.40   -24000.00
02037               3.00   -24800.00
02038              10.80   -25600.00
02039             -11.00   -25600.00
02040               6.80   -25600.00
02041               4.60   -26400.00
02042              -6.20   -27200.00
02043               7.00   -27200.00
02044               3.40   -28000.00
02045              -3.00   -28000.00
02046               3.80   -28000.00
02047               3.60   -28800.00
02048              -2.20   -28800.00
02049               4.40   -29600.00
02050               2.20   -29600.00
02051              -2.20   -29600.00
02052               5.00   -29600.00
02053               1.80   -31200.00
02054              -0.60   -30400.00
02055               5.80   -31200.00
02056               1.00   -32000.00
02057               0.20   -32000.00
02058               3.80   -32000.00
02059               0.40   -32000.00
02060               1.00   -32000.00
02061               3.00   -32800.00
02062               1.80   -32000.00
02063               2.20   -32800.00
02064               2.00   -32800.00
02065               1.20   -32800.00
02066               1.80   -32800.00
02067               2.60   -32800.00
02068               1.40   -32800.00
02069               1.80   -32800.00
02070               3.00   -32800.00
02071               1.20   -33600.00
02072               2.60   -33600.00
02073               2.00   -33600.00
02074               1.40   -33600.00
02075               2.80   -33600.00
02076               1.20   -33600.00
02077               2.40   -33600.00
02078               2.40   -33600.00
02079               1.20   -33600.00
02080               3.00   -33600.00
02081               1.80   -33600.00
02082               1.40   -32800.00
02083               2.60   -33600.00
02084               1.80   -33600.00
02085               2.00   -33600.00
02086               2.00   -32800.00
02087               2.00   -32800.00
02088               1.80   -32800.00
02089               2.60   -32000.00
02090               2.00   -32000.00
02091               1.20   -32000.00
02092               2.20   -32000.00
02093               1.40   -32000.00
02094               2.00   -32000.00
02095               2.60   -32000.00
02096               1.80   -30400.00
02097               1.80   -30400.00
02098               2.20   -30400.00
02099               1.80   -29600.00
02100               1.40   -30400.00
02101               2.20   -29600.00
02102               1.40   -28800.00
02103               1.40   -28800.00
02104               1.60   -28800.00
02105               1.60   -28000.00
02106               1.60   -27200.00
02107               2.00   -27200.00
02108               1.20   -27200.00
02109               1.20   -26400.00
02110               1.60   -26400.00
02111               1.20   -26400.00
02112               2.00   -25600.00
02113               1.20   -24800.00
02114               0.60   -25600.00
02115               1.40   -24000.00
02116               1.40   -24000.00
02117               1.20   -23200.00
02118               1.00   -23200.00
02119               0.80   -22400.00
02120               0.80   -22400.00
02121               1.00   -20800.00
02122               1.00   -20800.00
02123               0.60   -20000.00
02124               1.00   -20800.00
02125               1.20   -18400.00
02126               0.40   -19200.00
02127               1.00   -17600.00
02128               1.00   -17600.00
02129               0.40   -17600.00
02130               0.60   -16800.00
02131               0.60   -16000.00
02132               1.00   -16000.00
02133               1.00   -15200.00
02134               0.40   -14400.00
02135               0.60   -13600.00
02136               0.40   -13600.00
02137               0.40   -12800.00
02138               0.20   -12800.00
02139               0.40   -11200.00
02140               0.40   -11200.00
02141               0.20   -10400.00
02142               0.00    -9600.00
02143               0.20    -8800.00
02144               0.20    -8800.00
02145               0.20    -8000.00
02146               0.20    -8000.00
02147               0.20    -6400.00
02148               0.20    -5600.00
02149               0.20    -6400.00
02150               0.20    -4800.00
02151              -0.20    -4000.00
02152              -0.20    -4000.00
02153               0.20    -3200.00
02154              -0.40    -2400.00
02155              -0.60    -1600.00
02156              -0.40    -1600.00
02157              -0.40        0.00
02158              -0.40        0.00
02159               0.00      800.00
02160               0.60      800.00
02161               3.40     1600.00
02162              -0.40     2400.00
02163              -1.80     3200.00
02164               1.00     3200.00
02165               0.40     3200.00
02166              -2.00     4800.00
02167               7.40     5600.00
02168              25.00     7200.00
02169             -10.40     8000.00
02170             -25.00     8000.00
02171              14.60     8000.00
02172              17.00     8800.00
02173             -25.00     9600.00
02174              17.20    10400.00
02175              25.00    11200.00
02176             -25.00    10400.00
02177              25.00    11200.00
02178              25.00    12000.00
02179             -25.00    12800.00
02180              25.00    13600.00
02181             -25.00    14400.00
02182              22.40    14400.00
02183              25.00    15200.00
02184             -25.00    16000.00
02185              25.00    16000.00
02186              -5.80    16000.00
02187             -25.00    17600.00
02188              25.00    17600.00
02189               6.60    18400.00
02190             -25.00    18400.00
02191              10.60    20000.00
02192              23.80    20800.00
02193             -25.00    20800.00
02194              25.00    22400.00
02195               3.80    21600.00
02196             -21.40    22400.00
02197              19.40    23200.00
02198             -13.80    24000.00
02199              -7.80    24000.00
02200               7.80    24800.00
02201              -3.40    24800.00
02202             -10.20    25600.00
02203              15.00    25600.00
02204             -12.20    25600.00
02205              -5.20    26400.00
02206               8.80    27200.00
02207             -13.40    27200.00
02208               1.00    28000.00
02209               3.00    28000.00
02210              -6.20    28000.00
02211              -2.60    28800.00
02212               2.60    28800.00
02213              -6.60    28800.00
02214              -2.60    29600.00
02215               2.00    30400.00
02216              -6.80    30400.00
02217              -2.20    31200.00
02218               1.20    31200.00
02219              -6.40    31200.00
02220               0.20    31200.00
02221              -0.20    32800.00
02222              -5.80    32000.00
02223              -0.20    32000.00
02224              -3.00    32800.00
02225              -3.80    32800.00
02226              -1.00    33600.00
02227              -3.00    32800.00
02228              -1.80    33600.00
02229              -1.40    33600.00
02230              -2.80    33600.00
02231              -3.60    33600.00
02232              -2.60    33600.00
02233              -2.20    34400.00
02234              -3.80    33600.00
02235              -1.40    33600.00
02236              -2.80    33600.00
02237              -3.40    33600.00
02238              -1.20    34400.00
02239              -4.20    34400.00
02240              -2.20    34400.00
02241              -2.20    34400.00
02242              -3.40    34400.00
02243              -1.20    34400.00
02244              -3.00    33600.00
02245              -3.00    34400.00
02246              -2.00    34400.00
02247              -2.80    34400.00
02248              -2.60    33600.00
02249              -3.00    34400.00
02250              -2.80    33600.00
02251              -2.60    33600.00
02252              -2.20    33600.00
02253              -2.60    33600.00
02254              -3.60    32800.00
02255              -1.00    33600.00
02256              -2.80    32800.00
02257              -3.00    32800.00
02258              -2.20    32800.00
02259              -3.00    32000.00
02260              -2.00    32000.00
02261              -2.80    31200.00
02262              -2.60    32000.00
02263              -2.20    32000.00
02264              -2.60    31200.00
02265              -2.60    31200.00
02266              -2.00    31200.00
02267              -2.80    30400.00
02268              -2.80    29600.00
02269              -1.80    30400.00
02270              -2.00    28800.00
02271              -2.60    28800.00
02272              -2.00    28800.00
02273              -2.00    28000.00
02274              -2.20    28000.00
02275              -1.40    27200.00
02276              -2.60    27200.00
02277              -2.20    27200.00
02278              -1.20    27200.00
02279              -2.20    25600.00
02280              -2.00    25600.00
02281              -1.80    25600.00
02282              -2.00    24800.00
02283              -1.80    24800.00
02284              -1.80    24000.00
02285              -1.40    23200.00
02286              -2.00    23200.00
02287              -1.80    22400.00
02288              -1.40    21600.00
02289              -1.80    21600.00
02290              -2.00    20800.00
02291              -1.80    20800.00
02292              -1.20    19200.00
02293              -1.40    19200.00
02294              -2.00    18400.00
02295              -1.20    18400.00
02296              -1.00    17600.00
02297              -1.60    17600.00
02298              -1.20    16000.00
02299              -1.40    16000.00
02300              -1.40    15200.00
02301              -1.60    15200.00
02302              -0.60    14400.00
02303              -1.40    13600.00
02304              -1.40    12800.00
02305              -1.00    12000.00
02306              -1.40    12800.00
02307              -1.00    11200.00
02308              -1.00    11200.00
02309              -1.80     9600.00
02310              -0.40     9600.00
02311              -1.20     8800.00
02312              -1.20     8800.00
02313              -0.60     7200.00
02314              -1.20     6400.00
02315              -0.60     7200.00
02316              -0.40     5600.00
02317              -1.00     4800.00
02318              -0.40     4800.00
02319              -0.60     3200.00
02320              -0.40     3200.00
02321               0.00     2400.00
02322              -1.00     1600.00
02323              -0.60      800.00
02324               0.40      800.00
02325               0.20        0.00
02326               0.20     -800.00
02327               2.80    -1600.00
02328               2.60     -800.00
02329              -2.00    -1600.00
02330               1.20    -2400.00
02331               1.60    -3200.00
02332              -0.20    -4000.00
02333               1.00    -4800.00
02334               7.60    -4800.00
02335              25.00    -6400.00
02336               0.20    -7200.00
02337             -25.00    -8000.00
02338               5.40    -8800.00
02339              24.20    -8800.00
02340             -25.00    -9600.00
02341             -22.80    -8800.00
02342              25.00   -10400.00
02343               6.80   -10400.00
02344             -25.00   -10400.00
02345              25.00   -12000.00
02346             -13.00   -12800.00
02347             -25.00   -12800.00
02348              25.00   -14400.00
02349             -25.00   -14400.00
02350              19.80   -16000.00
02351             -10.80   -14400.00
02352              -8.40   -16000.00
02353              25.00   -16800.00
02354             -22.60   -16800.00
02355              -6.20   -17600.00
02356              25.00   -17600.00
02357              -8.60   -19200.00
02358             -22.20   -18400.00
02359              25.00   -19200.00
02360              -4.20   -20000.00
02361             -17.80   -20800.00
02362              25.00   -20800.00
02363              -9.40   -21600.00
02364              -5.40   -22400.00
02365              14.60   -23200.00
02366              -9.40   -23200.00
02367              -1.40   -23200.00
02368              12.20   -24000.00
02369              -5.20   -24000.00
02370               1.00   -24800.00
02371              11.40   -25600.00
02372             -10.80   -25600.00
02373               6.20   -26400.00
02374               6.60   -26400.00
02375              -7.80   -26400.00
02376               7.00   -27200.00
02377               4.40   -27200.00
02378              -3.60   -28800.00
02379               3.40   -28800.00
02380               5.00   -28800.00
02381              -2.20   -28800.00
02382               3.40   -29600.00
02383               3.00   -29600.00
02384              -2.00   -29600.00
02385               3.80   -30400.00
02386               1.80   -30400.00
02387               0.80   -30400.00
02388               4.20   -31200.00
02389               0.60   -31200.00
02390               1.20   -32000.00
02391               3.60   -32000.00
02392              -0.20   -32000.00
02393               2.20   -32000.00
02394               3.40   -32000.00
02395               1.20   -32800.00
02396               2.60   -32800.00
02397               1.80   -32000.00
02398               1.20   -32800.00
02399               1.80   -32800.00
02400               2.20   -33600.00
02401               1.80   -33600.00
02402               1.80   -33600.00
02403               3.20   -33600.00
02404               1.60   -32800.00
02405               2.20   -32800.00
02406               2.00   -33600.00
02407               1.40   -32800.00
02408               2.60   -33600.00
02409               1.80   -32800.00
02410               2.20   -33600.00
02411               2.00   -32800.00
02412               1.40   -33600.00
02413               3.00   -32800.00
02414               1.80   -32800.00
02415               1.40   -33600.00
02416               2.60   -33600.00
02417               2.00   -32800.00
02418               1.80   -32800.00
02419               2.00   -32800.00
02420               2.20   -32800.00
02421               1.80   -32800.00
02422               2.20   -32000.00
02423               2.00   -32000.00
02424               1.80   -32000.00
02425               2.00   -32000.00
02426               1.80   -32000.00
02427               2.00   -31200.00
02428               2.00   -30400.00
02429               1.60   -30400.00
02430               1.60   -30400.00
02431               1.80   -30400.00
02432               1.80   -29600.00
02433               1.40   -29600.00
02434               1.40   -29600.00
02435               0.80   -29600.00
02436               1.40   -28800.00
02437               2.00   -28800.00
02438               1.60   -28000.00
02439               1.20   -28000.00
02440               2.20   -27200.00
02441               1.00   -27200.00
02442               1.20   -27200.00
02443               2.00   -26400.00
02444               0.60   -25600.00
02445               1.40   -25600.00
02446               1.40   -25600.00
02447               0.60   -24800.00
02448               2.00   -24000.00
02449               0.20   -24000.00
02450               1.40   -23200.00
02451               1.80   -23200.00
02452               0.20   -22400.00
02453               1.40   -22400.00
02454               1.40   -21600.00
02455               0.60   -20800.00
02456               1.40   -20000.00
02457               1.80   -20000.00
02458               0.40   -18400.00
02459               1.00   -19200.00
02460               1.00   -18400.00
02461              -0.20   -17600.00
02462               0.60   -17600.00
02463               0.60   -16800.00
02464               0.40   -16000.00
02465               1.00   -16000.00
02466               0.60   -16000.00
02467               0.80   -14400.00
02468               1.00   -14400.00
02469               0.60   -13600.00
02470               0.40   -13600.00
02471               0.40   -12800.00
02472               0.20   -11200.00
02473               0.40   -11200.00
02474               0.40   -11200.00
02475               0.40   -10400.00
02476               0.00    -9600.00
02477               0.20    -8800.00
02478               0.20    -8000.00
02479               0.20    -7200.00
02480               0.20    -7200.00
02481               0.20    -6400.00
02482               0.00    -4800.00
02483               0.20    -4800.00
02484               0.20    -4800.00
02485              -0.40    -4000.00
02486               0.00    -3200.00
02487               0.00    -2400.00
02488              -0.60    -1600.00
02489              -0.40     -800.00
02490              -0.20     -800.00
02491              -0.40     -800.00
02492               0.20        0.00
02493               0.20      800.00
02494               3.40     1600.00
02495               0.20     2400.00
02496              -2.20     2400.00
02497               0.20     3200.00
02498               0.40     4000.00
02499              -2.20     3200.00
02500               6.60     5600.00
02501              25.00     6400.00
02502              -3.00     8000.00
02503             -25.00     8000.00
02504               9.80     8800.00
02505              21.00     8800.00
02506             -25.00     8800.00
02507               6.60     9600.00
02508              25.00    11200.00
02509             -25.00    10400.00
02510              25.00    12000.00
02511              25.00    12000.00
02512             -25.00    12800.00
02513              25.00    13600.00
02514             -25.00    13600.00
02515               9.00    14400.00
02516              25.00    15200.00
02517             -25.00    16000.00
02518              25.00    16000.00
02519               6.60    16800.00
02520             -25.00    17600.00
02521              25.00    17600.00
02522              11.40    18400.00
02523             -25.00    19200.00
02524               4.20    19200.00
02525              25.00    20000.00
02526             -25.00    20800.00
02527              20.20    21600.00
02528              10.20    21600.00
02529             -24.60    22400.00
02530              19.60    23200.00
02531             -11.80    22400.00
02532             -10.20    24000.00
02533               7.60    24800.00
02534              -1.40    24800.00
02535             -11.40    24800.00
02536              15.40    25600.00
02537              -9.40    25600.00
02538              -9.00    25600.00
02539              10.20    27200.00
02540             -13.20    27200.00
02541              -0.60    27200.00
02542               4.20    28000.00
02543              -5.80    28000.00
02544              -3.40    28800.00
02545               2.20    28800.00
02546              -5.80    29600.00
02547              -3.00    29600.00
02548               2.60    30400.00
02549              -6.00    30400.00
02550              -2.80    31200.00
02551               1.40    31200.00
02552              -6.60    31200.00
02553              -0.60    31200.00
02554               0.40    32800.00
02555              -6.40    32000.00
02556               0.20    32800.00
02557              -2.60    32800.00
02558              -4.60    32800.00
02559              -1.00    32800.00
02560              -3.00    32800.00
02561              -2.00    32800.00
02562              -1.40    33600.00
02563              -3.00    33600.00
02564              -3.40    33600.00
02565              -2.80    33600.00
02566              -2.20    33600.00
02567              -3.60    34400.00
02568              -1.80    34400.00
02569              -2.80    34400.00
02570              -3.00    34400.00
02571              -1.00    34400.00
02572              -4.40    34400.00
02573              -2.40    34400.00
02574              -2.20    33600.00
02575              -3.40    34400.00
02576              -1.40    34400.00
02577              -3.00    34400.00
02578              -2.80    33600.00
02579              -2.00    34400.00
02580              -2.80    34400.00
02581              -2.60    33600.00
02582              -3.60    33600.00
02583              -2.80    33600.00
02584              -2.20    33600.00
02585              -2.60    34400.00
02586              -2.80    33600.00
02587              -2.80    33600.00
02588              -1.20    32800.00
02589              -2.80    33600.00
02590              -3.00    32800.00
02591              -2.00    32000.00
02592              -2.80    32000.00
02593              -2.20    32000.00
02594              -2.60    32000.00
02595              -2.20    32000.00
02596              -2.20    31200.00
02597              -2.80    31200.00
02598              -2.20    31200.00
02599              -2.20    30400.00
02600              -2.40    30400.00
02601              -2.20    30400.00
02602              -2.20    29600.00
02603              -2.20    29600.00
02604              -2.00    28800.00
02605              -2.20    28000.00
02606              -2.20    28000.00
02607              -2.00    28000.00
02608              -2.00    27200.00
02609              -2.60    27200.00
02610              -2.00    27200.00
02611              -1.80    26400.00
02612              -1.80    25600.00
02613              -1.80    24800.00
02614              -2.60    24800.00
02615              -2.00    24800.00
02616              -1.80    24800.00
02617              -2.00    24000.00
02618              -1.20    24000.00
02619              -2.20    23200.00
02620              -1.80    22400.00
02621              -0.60    22400.00
02622              -2.20    21600.00
02623              -1.80    20800.00
02624              -1.40    20000.00
02625              -2.00    20000.00
02626              -1.20    19200.00
02627              -1.60    18400.00
02628              -1.80    18400.00
02629              -1.40    17600.00
02630              -1.20    16800.00
02631              -1.80    16000.00
02632              -1.80    16000.00
02633              -1.00    15200.00
02634              -1.80    15200.00
02635              -1.40    14400.00
02636              -1.40    13600.00
02637              -1.40    12800.00
02638              -1.20    12800.00
02639              -1.20    12000.00
02640              -0.80    12000.00
02641              -1.00    11200.00
02642              -1.40    10400.00
02643              -0.40     9600.00
02644              -1.20     8800.00
02645              -1.20     8000.00
02646              -0.60     8000.00
02647              -1.40     7200.00
02648              -1.00     6400.00
02649              -0.40     5600.00
02650              -1.20     4800.00
02651              -0.40     4800.00
02652              -0.60     4000.00
02653              -0.40     3200.00
02654              -0.20     2400.00
02655              -0.60     1600.00
02656              -0.60     1600.00
02657               0.20      800.00
02658               0.00        0.00
02659              -0.20     -800.00
02660               2.20     -800.00
02661               3.00    -1600.00
02662              -2.20    -1600.00
02663               1.00    -2400.00
02664               1.80    -3200.00
02665               0.20    -3200.00
02666               1.20    -4000.00
02667               7.00    -4800.00
02668              23.60    -6400.00
02669               6.00    -7200.00
02670             -25.00    -8000.00
02671               0.20    -8000.00
02672              25.00    -8800.00
02673             -25.00    -9600.00
02674             -25.00    -9600.00
02675              25.00   -10400.00
02676              20.20   -11200.00
02677             -25.00   -10400.00
02678              25.00   -12000.00
02679               0.60   -12000.00
02680             -25.00   -13600.00
02681              25.00   -13600.00
02682             -23.00   -13600.00
02683              15.40   -14400.00
02684              -5.00   -16000.00
02685             -13.40   -16000.00
02686              25.00   -16000.00
02687             -19.40   -16800.00
02688              -9.20   -17600.00
02689              25.00   -17600.00
02690              -5.40   -18400.00
02691             -23.40   -19200.00
02692              25.00   -18400.00
02693               0.60   -20000.00
02694             -21.40   -20000.00
02695              25.00   -20800.00
02696              -6.80   -22400.00
02697              -9.60   -22400.00
02698              17.00   -22400.00
02699              -7.60   -23200.00
02700              -5.40   -24000.00
02701              13.20   -24000.00
02702              -1.20   -24000.00
02703              -4.20   -25600.00
02704              13.80   -25600.00
02705              -7.20   -25600.00
02706               0.20   -25600.00
02707               7.20   -26400.00
02708              -4.60   -27200.00
02709               3.60   -27200.00
02710               4.20   -27200.00
02711               0.00   -28800.00
02712               2.00   -28800.00
02713               3.40   -28800.00
02714              -1.20   -28800.00
02715               3.40   -29600.00
02716               3.00   -29600.00
02717              -1.80   -29600.00
02718               4.20   -30400.00
02719               2.20   -30400.00
02720              -0.60   -30400.00
02721               5.20   -30400.00
02722               2.00   -31200.00
02723              -0.60   -32000.00
02724               4.20   -32000.00
02725               0.60   -32000.00
02726               0.20   -32000.00
02727               3.00   -32800.00
02728               3.00   -32000.00
02729               2.60   -32800.00
02730               1.80   -32800.00
02731               2.00   -32800.00
02732               1.00   -32800.00
02733               2.00   -32800.00
02734               2.20   -33600.00
02735               1.60   -33600.00
02736               3.40   -32800.00
02737               1.80   -33600.00
02738               2.00   -33600.00
02739               2.00   -32800.00
02740               1.40   -33600.00
02741               2.80   -33600.00
02742               1.80   -33600.00
02743               2.00   -33600.00
02744               2.20   -33600.00
02745               1.40   -32800.00
02746               3.00   -32800.00
02747               2.80   -33600.00
02748               1.40   -32800.00
02749               2.60   -33600.00
02750               2.00   -33600.00
02751               1.00   -32800.00
02752               2.00   -32800.00
02753               2.60   -32800.00
02754               1.20   -32800.00
02755               2.20   -32800.00
02756               1.80   -32000.00
02757               1.40   -32000.00
02758               2.20   -32000.00
02759               0.40   -32000.00
02760               2.60   -31200.00
02761               3.40   -32000.00
02762              -1.00   -31200.00
02763               3.80   -30400.00
02764               2.80   -30400.00
02765              -1.60   -29600.00
02766               3.00   -29600.00
02767               2.60   -29600.00
02768              -2.00   -29600.00
02769               4.40   -28800.00
02770               2.60   -28800.00
02771              -2.20   -28000.00
02772               3.40   -28000.00
02773               2.20   -27200.00
02774              -1.40   -26400.00
02775               4.20   -27200.00
02776               1.60   -26400.00
02777              -0.60   -26400.00
02778               3.40   -25600.00
02779               0.80   -25600.00
02780              -0.40   -24800.00
02781               3.40   -24000.00
02782               0.40   -24000.00
02783               0.20   -23200.00
02784               2.20   -23200.00
02785               0.00   -22400.00
02786               1.00   -22400.00
02787               3.00   -22400.00
02788               0.60   -20800.00
02789               0.40   -20000.00
02790               1.80   -20000.00
02791               0.20   -20000.00
02792               0.60   -18400.00
02793               1.60   -18400.00
02794               0.40   -17600.00
02795               0.60   -17600.00
02796               2.00   -16800.00
02797               0.20   -16000.00
02798               0.20   -16000.00
02799               1.00   -16000.00
02800               0.20   -14400.00
02801               0.60   -14400.00
02802               0.60   -13600.00
02803               0.60   -12800.00
02804               0.40   -12800.00
02805               0.60   -11200.00
02806               0.60   -11200.00
02807               0.20   -10400.00
02808               0.20    -9600.00
02809               0.40    -9600.00
02810              -0.20    -8000.00
02811               0.20    -8000.00
02812               0.40    -8000.00
02813               0.20    -7200.00
02814               0.40    -6400.00
02815              -0.20    -4800.00
02816              -0.20    -4800.00
02817               0.20    -4800.00
02818              -0.60    -4000.00
02819              -0.40    -3200.00
02820               0.40    -3200.00
02821              -0.60    -1600.00
02822              -0.60    -1600.00
02823               0.20     -800.00
02824              -0.60        0.00
02825              -0.40        0.00
02826               0.40     1600.00
02827               2.60     1600.00
02828               0.60     1600.00
02829              -2.20     2400.00
02830               0.20     3200.00
02831               0.60     3200.00
02832              -2.20     4000.00
02833               5.20     5600.00
02834              25.00     6400.00
02835               4.20     8000.00
02836             -25.00     8000.00
02837               4.40     8800.00
02838              24.80     9600.00
02839             -25.00     8800.00
02840              -4.60     9600.00
02841              25.00    11200.00
02842             -25.00    11200.00
02843              13.20    12000.00
02844              25.00    12000.00
02845             -25.00    12800.00
02846              25.00    13600.00
02847             -25.00    13600.00
02848              -4.20    14400.00
02849              25.00    15200.00
02850             -25.00    15200.00
02851              25.00    16000.00
02852              18.20    16800.00
02853             -25.00    17600.00
02854              25.00    17600.00
02855              16.00    18400.00
02856             -25.00    19200.00
02857              -2.20    19200.00
02858              25.00    20800.00
02859             -25.00    20800.00
02860              13.80    21600.00
02861              17.00    21600.00
02862             -25.00    22400.00
02863              18.60    22400.00
02864              -9.00    23200.00
02865             -12.40    24000.00
02866               7.40    24000.00
02867               0.60    24800.00
02868             -12.20    24800.00
02869              14.20    25600.00
02870              -6.40    25600.00
02871             -11.60    25600.00
02872              11.00    26400.00
02873             -11.80    27200.00
02874              -2.20    27200.00
02875               4.60    27200.00
02876              -5.20    28000.00
02877              -4.00    28000.00
02878               2.20    28800.00
02879              -5.00    28800.00
02880              -4.20    28800.00
02881               2.80    29600.00
02882              -5.40    30400.00
02883              -3.80    30400.00
02884               1.80    30400.00
02885              -6.00    31200.00
02886              -1.40    31200.00
02887               1.00    31200.00
02888              -6.20    32800.00
02889              -0.60    32000.00
02890              -2.40    32800.00
02891              -5.00    32800.00
02892              -1.20    32800.00
02893              -3.00    32800.00
02894              -2.20    32800.00
02895              -1.60    32800.00
02896              -2.80    33600.00
02897              -3.40    33600.00
02898              -3.00    33600.00
02899              -2.00    33600.00
02900              -3.60    33600.00
02901              -2.00    34400.00
02902              -2.20    34400.00
02903              -3.20    33600.00
02904              -1.20    34400.00
02905              -3.80    33600.00
02906              -3.00    33600.00
02907              -2.20    33600.00
02908              -3.40    33600.00
02909              -1.20    34400.00
02910              -3.40    33600.00
02911              -3.00    33600.00
02912              -2.00    34400.00
02913              -2.60    34400.00
02914              -2.60    34400.00
02915              -3.00    33600.00
02916              -2.80    33600.00
02917              -2.40    33600.00
02918              -2.20    33600.00
02919              -2.60    33600.00
02920              -2.80    33600.00
02921              -1.40    32800.00
02922              -2.80    33600.00
02923              -3.00    32800.00
02924              -1.40    32800.00
02925              -3.00    32000.00
02926              -2.60    32000.00
02927              -2.00    32000.00
02928              -2.40    32800.00
02929              -2.20    31200.00
02930              -2.60    31200.00
02931              -2.00    31200.00
02932              -2.20    30400.00
02933              -2.20    30400.00
02934              -2.20    30400.00
02935              -2.60    30400.00
02936              -1.80    29600.00
02937              -2.20    28800.00
02938              -2.20    28800.00
02939              -2.00    28800.00
02940              -2.20    28000.00
02941              -2.00    27200.00
02942              -2.20    27200.00
02943              -2.20    26400.00
02944              -1.80    26400.00
02945              -1.80    26400.00
02946              -1.80    25600.00
02947              -2.20    25600.00
02948              -2.60    24000.00
02949              -1.40    24800.00
02950              -2.20    24000.00
02951              -2.00    24000.00
02952              -2.00    23200.00
02953              -2.00    22400.00
02954              -1.80    21600.00
02955              -2.20    21600.00
02956              -2.00    20800.00
02957              -1.80    20000.00
02958              -1.80    19200.00
02959              -1.40    19200.00
02960              -1.60    18400.00
02961              -1.40    18400.00
02962              -1.40    17600.00
02963              -1.20    17600.00
02964              -1.20    16000.00
02965              -2.00    16000.00
02966              -1.40    15200.00
02967              -1.40    14400.00
02968              -1.40    14400.00
02969              -1.20    13600.00
02970              -1.40    12800.00
02971              -1.20    12800.00
02972              -1.20    12000.00
02973              -1.00    11200.00
02974              -1.00    11200.00
02975              -1.20    10400.00
02976              -0.40     9600.00
02977              -0.60     8800.00
02978              -1.20     8000.00
02979              -0.20     8000.00
02980              -1.20     7200.00
02981              -1.00     6400.00
02982              -0.60     5600.00
02983              -1.20     5600.00
02984              -0.60     4800.00
02985              -0.40     4000.00
02986              -0.60     3200.00
02987               0.20     2400.00
02988              -0.60     1600.00
02989              -0.60     1600.00
02990               0.40     1600.00
02991               0.20        0.00
02992               0.20        0.00
02993               2.00     -800.00
02994               3.40    -1600.00
02995              -1.80    -1600.00
02996               0.60    -3200.00
02997               1.80    -3200.00
02998               0.40    -3200.00
02999               0.40    -4000.00
03000               6.60    -4800.00
03001              22.00    -6400.00
03002              11.40    -7200.00
03003             -25.00    -8000.00
03004              -5.00    -8000.00
03005              25.00    -8800.00
03006             -21.00    -8800.00
03007             -25.00    -8800.00
03008              25.00    -9600.00
03009              25.00   -11200.00
03010             -25.00   -10400.00
03011              25.00   -12000.00
03012              13.80   -12000.00
03013             -25.00   -12800.00
03014              25.00   -13600.00
03015             -19.60   -13600.00
03016              11.40   -15200.00
03017               0.40   -15200.00
03018             -19.60   -16000.00
03019              25.00   -16000.00
03020             -14.20   -16800.00
03021             -14.20   -17600.00
03022              25.00   -17600.00
03023              -1.00   -19200.00
03024             -25.00   -19200.00
03025              21.40   -20000.00
03026               7.60   -20000.00
03027             -25.00   -20800.00
03028              25.00   -20800.00
03029              -2.00   -22400.00
03030             -11.80   -22400.00
03031              15.80   -22400.00
03032              -6.20   -23200.00
03033              -5.20   -24000.00
03034              11.80   -24000.00
03035              -1.00   -24000.00
03036              -3.80   -24800.00
03037              13.80   -25600.00
03038              -8.20   -26400.00
03039               1.80   -26400.00
03040               9.00   -26400.00
03041              -7.40   -27200.00
03042               4.80   -27200.00
03043               5.40   -27200.00
03044              -2.60   -28000.00
03045               2.20   -28800.00
03046               5.40   -28800.00
03047              -2.60   -28800.00
03048               3.40   -29600.00
03049               4.00   -29600.00
03050              -2.60   -29600.00
03051               4.20   -30400.00
03052               2.80   -30400.00
03053              -1.00   -30400.00
03054               5.20   -32000.00
03055               2.60   -30400.00
03056              -0.80   -31200.00
03057               4.40   -32000.00
03058               1.20   -32000.00
03059               0.40   -32800.00
03060               3.00   -32800.00
03061               2.00   -32800.00
03062               2.60   -32800.00
03063               2.00   -32800.00
03064               1.80   -32800.00
03065               1.60   -32800.00
03066               2.60   -33600.00
03067               2.00   -33600.00
03068               1.40   -32800.00
03069               3.40   -33600.00
03070               1.80   -32800.00
03071               2.20   -33600.00
03072               2.40   -33600.00
03073               1.00   -33600.00
03074               2.60   -32800.00
03075               2.00   -33600.00
03076               1.80   -33600.00
03077               2.40   -33600.00
03078               1.00   -33600.00
03079               2.60   -32800.00
03080               2.00   -33600.00
03081               1.20   -33600.00
03082               2.40   -32800.00
03083               2.00   -32800.00
03084               1.80   -32800.00
03085               1.40   -33600.00
03086               2.20   -32000.00
03087               1.80   -32800.00
03088               1.80   -32000.00
03089               2.20   -32000.00
03090               1.20   -32000.00
03091               2.00   -32000.00
03092               1.80   -31200.00
03093               1.00   -31200.00
03094               2.00   -31200.00
03095               1.80   -31200.00
03096               1.40   -30400.00
03097               2.00   -30400.00
03098               2.00   -30400.00
03099               1.00   -29600.00
03100               1.80   -29600.00
03101               1.40   -28800.00
03102               1.20   -28800.00
03103               1.80   -28800.00
03104               1.40   -28000.00
03105               1.00   -28000.00
03106               1.80   -27200.00
03107               1.20   -27200.00
03108               1.40   -26400.00
03109               1.80   -26400.00
03110               0.60   -25600.00
03111               1.40   -25600.00
03112               1.80   -24800.00
03113               1.00   -25600.00
03114               1.40   -24000.00
03115               1.20   -23200.00
03116               1.40   -24000.00
03117               1.00   -22400.00
03118               1.20   -23200.00
03119               1.00   -21600.00
03120               1.20   -20800.00
03121               1.40   -20800.00
03122               0.60   -20800.00
03123               1.00   -20000.00
03124               1.20   -19200.00
03125               0.60   -19200.00
03126               0.60   -18400.00
03127               1.00   -17600.00
03128               0.80   -17600.00
03129               1.00   -16800.00
03130               0.60   -16800.00
03131               1.00   -16000.00
03132               0.40   -14400.00
03133               0.40   -14400.00
03134               1.00   -13600.00
03135               1.20   -13600.00
03136               0.20   -12800.00
03137               0.20   -12800.00
03138               0.60   -11200.00
03139               0.20   -11200.00
03140               0.60   -10400.00
03141               1.20   -10400.00
03142              -0.60    -9600.00
03143              -0.20    -8800.00
03144               1.40    -8000.00
03145              -0.60    -8000.00
03146              -0.40    -7200.00
03147               1.20    -6400.00
03148              -0.60    -5600.00
03149              -0.60    -5600.00
03150               1.20    -4800.00
03151              -1.20    -4000.00
03152              -1.40    -3200.00
03153               0.80    -2400.00
03154              -0.40    -1600.00
03155              -0.40    -1600.00
03156              -0.20     -800.00
03157              -1.20        0.00
03158              -0.40        0.00
03159               1.00      800.00
03160               2.20     1600.00
03161               1.20     2400.00
03162              -2.20     2400.00
03163               0.20     3200.00
03164               0.60     3200.00
03165              -2.00     4000.00
03166               4.40     5600.00
03167              25.00     6400.00
03168              11.40     7200.00
03169             -25.00     8000.00
03170              -2.00     8000.00
03171              25.00     8800.00
03172             -25.00     8800.00
03173             -15.00     9600.00
03174              25.00    10400.00
03175             -25.00    11200.00
03176              -3.00    11200.00
03177              25.00    12000.00
03178             -25.00    12000.00
03179              25.00    12800.00
03180             -13.20    14400.00
03181             -17.80    14400.00
03182              25.00    15200.00
03183             -25.00    15200.00
03184              25.00    16000.00
03185              25.00    16000.00
03186             -25.00    17600.00
03187              23.80    17600.00
03188              20.40    18400.00
03189             -25.00    18400.00
03190              -8.20    19200.00
03191              25.00    20000.00
03192             -25.00    20000.00
03193               6.80    21600.00
03194              23.40    21600.00
03195             -25.00    22400.00
03196              16.60    22400.00
03197              -5.80    22400.00
03198             -14.20    23200.00
03199               6.60    24000.00
03200               2.60    24000.00
03201             -13.00    24800.00
03202              12.40    24800.00
03203              -3.00    25600.00
03204             -14.00    26400.00
03205              11.40    26400.00
03206             -10.00    27200.00
03207              -3.80    27200.00
03208               5.80    27200.00
03209              -5.20    28000.00
03210              -5.00    28800.00
03211               2.60    28800.00
03212              -4.40    28800.00
03213              -5.40    28800.00
03214               3.00    30400.00
03215              -5.00    30400.00
03216              -5.00    30400.00
03217               2.20    30400.00
03218              -5.00    31200.00
03219              -3.00    31200.00
03220               2.00    32000.00
03221              -5.60    32000.00
03222              -1.80    32800.00
03223              -1.20    32000.00
03224              -5.20    32000.00
03225              -1.40    32800.00
03226              -3.00    32800.00
03227              -2.60    33600.00
03228              -1.00    32800.00
03229              -2.80    33600.00
03230              -3.60    33600.00
03231              -3.00    33600.00
03232              -2.00    33600.00
03233              -3.60    33600.00
03234              -1.80    33600.00
03235              -1.80    33600.00
03236              -4.20    34400.00
03237              -0.60    34400.00
03238              -3.20    34400.00
03239              -3.40    33600.00
03240              -1.40    33600.00
03241              -2.80    34400.00
03242              -2.00    33600.00
03243              -3.40    34400.00
03244              -2.60    33600.00
03245              -2.00    34400.00
03246              -2.80    33600.00
03247              -2.20    34400.00
03248              -3.00    33600.00
03249              -2.80    34400.00
03250              -2.20    33600.00
03251              -2.60    33600.00
03252              -2.60    32800.00
03253              -2.60    33600.00
03254              -1.20    32800.00
03255              -2.80    33600.00
03256              -2.80    32800.00
03257              -1.80    32000.00
03258              -3.20    32800.00
03259              -2.20    32800.00
03260              -1.80    32000.00
03261              -2.60    32800.00
03262              -2.20    32000.00
03263              -2.60    31200.00
03264              -2.20    31200.00
03265              -2.20    31200.00
03266              -2.20    30400.00
03267              -2.60    30400.00
03268              -2.40    29600.00
03269              -1.40    28800.00
03270              -2.20    28800.00
03271              -2.40    28800.00
03272              -2.00    28800.00
03273              -2.40    28000.00
03274              -2.00    27200.00
03275              -2.60    27200.00
03276              -2.20    27200.00
03277              -1.60    27200.00
03278              -2.80    25600.00
03279              -1.80    25600.00
03280              -2.00    24800.00
03281              -2.80    24800.00
03282              -1.20    24800.00
03283              -2.00    24000.00
03284              -2.20    24000.00
03285              -1.60    22400.00
03286              -2.00    22400.00
03287              -2.00    21600.00
03288              -2.20    21600.00
03289              -2.20    20800.00
03290              -2.00    20000.00
03291              -1.80    19200.00
03292              -1.80    19200.00
03293              -2.00    18400.00
03294              -1.20    17600.00
03295              -1.40    17600.00
03296              -1.60    17600.00
03297              -1.00    16800.00
03298              -2.00    16000.00
03299              -1.80    15200.00
03300              -1.20    14400.00
03301              -1.00    14400.00
03302              -1.20    13600.00
03303              -1.80    12800.00
03304              -0.60    12800.00
03305              -1.40    12000.00
03306              -1.40    12000.00
03307              -1.00    11200.00
03308              -1.40    10400.00
03309              -0.60     9600.00
03310              -0.20     8800.00
03311              -1.00     8000.00
03312              -0.40     8000.00
03313              -1.80     7200.00
03314              -1.00     7200.00
03315              -0.60     5600.00
03316              -1.20     4800.00
03317              -0.60     4800.00
03318              -0.40     4800.00
03319              -1.00     3200.00
03320               0.40     2400.00
03321               0.60     1600.00
03322               0.20     1600.00
03323               0.20      800.00
03324               0.20        0.00
03325              -0.60     -800.00
03326               1.00     -800.00
03327               3.60    -1600.00
03328              -2.20    -1600.00
03329               1.00    -2400.00
03330               2.20    -3200.00
03331               1.00    -4000.00
03332               1.20    -4000.00
03333               6.20    -4800.00
03334              20.60    -5600.00
03335              15.00    -7200.00
03336             -25.00    -7200.00
03337             -10.20    -8000.00
03338              25.00    -8000.00
03339             -17.00    -9600.00
03340             -25.00    -8800.00
03341              25.00    -9600.00
03342              25.00   -11200.00
03343             -25.00   -10400.00
03344              25.00   -12000.00
03345              25.00   -12000.00
03346             -25.00   -12800.00
03347              25.00   -13600.00
03348             -15.40   -13600.00
03349               7.20   -14400.00
03350               5.80   -14400.00
03351             -23.60   -16000.00
03352              25.00   -16800.00
03353             -10.20   -16800.00
03354             -19.00   -17600.00
03355              25.00   -17600.00
03356               2.20   -18400.00
03357             -25.00   -18400.00
03358              18.20   -19200.00
03359              12.80   -20000.00
03360             -25.00   -20000.00
03361              25.00   -20800.00
03362               2.60   -21600.00
03363             -14.00   -22400.00
03364              15.80   -22400.00
03365              -4.60   -22400.00
03366              -7.00   -24000.00
03367              11.00   -24000.00
03368               0.60   -24800.00
03369              -5.00   -24800.00
03370              14.80   -25600.00
03371              -6.80   -25600.00
03372               0.40   -25600.00
03373              10.20   -26400.00
03374              -7.60   -26400.00
03375               3.40   -27200.00
03376               6.00   -27200.00
03377              -2.60   -28000.00
03378               1.40   -28800.00
03379               6.80   -28800.00
03380              -1.80   -28800.00
03381               2.60   -29600.00
03382               5.40   -30400.00
03383              -2.20   -29600.00
03384               2.60   -29600.00
03385               3.60   -29600.00
03386              -1.80   -30400.00
03387               4.00   -31200.00
03388               3.40   -32000.00
03389              -0.40   -32000.00
03390               5.00   -32000.00
03391               2.00   -32000.00
03392               0.40   -32000.00
03393               3.40   -32800.00
03394               2.00   -32800.00
03395               1.80   -32800.00
03396               1.80   -32800.00
03397               2.00   -32800.00
03398               1.20   -32800.00
03399               2.60   -32800.00
03400               2.80   -32800.00
03401               1.80   -32800.00
03402               3.00   -33600.00
03403               2.00   -33600.00
03404               1.60   -33600.00
03405               1.80   -33600.00
03406               1.20   -33600.00
03407               2.60   -33600.00
03408               2.20   -32800.00
03409               2.00   -33600.00
03410               3.00   -33600.00
03411               1.20   -33600.00
03412               2.20   -32800.00
03413               2.00   -33600.00
03414               1.00   -32800.00
03415               1.80   -33600.00
03416               1.80   -32800.00
03417               2.00   -32800.00
03418               1.80   -32800.00
03419               2.20   -32800.00
03420               2.00   -32800.00
03421               2.00   -32000.00
03422               2.20   -32000.00
03423               0.80   -32000.00
03424               1.40   -31200.00
03425               1.80   -32000.00
03426               1.20   -31200.00
03427               2.20   -31200.00
03428               2.00   -30400.00
03429               2.00   -30400.00
03430               1.80   -30400.00
03431               1.40   -29600.00
03432               1.20   -29600.00
03433               1.40   -29600.00
03434               1.80   -29600.00
03435               2.00   -28800.00
03436               2.00   -28800.00
03437               1.40   -28000.00
03438               1.40   -28000.00
03439               1.80   -27200.00
03440               1.20   -27200.00
03441               1.80   -26400.00
03442               1.40   -26400.00
03443               1.00   -26400.00
03444               1.20   -25600.00
03445               1.80   -25600.00
03446               1.00   -25600.00
03447               1.80   -24000.00
03448               1.20   -24000.00
03449               1.20   -24000.00
03450               1.00   -23200.00
03451               0.60   -22400.00
03452               1.40   -22400.00
03453               1.20   -21600.00
03454               1.20   -20800.00
03455               1.20   -20800.00
03456               1.00   -20000.00
03457               1.20   -20000.00
03458               0.80   -18400.00
03459               1.00   -18400.00
03460               0.60   -18400.00
03461               0.80   -17600.00
03462               1.00   -16800.00
03463               0.40   -16000.00
03464               0.40   -16000.00
03465               1.00   -15200.00
03466               0.60   -14400.00
03467               0.60   -13600.00
03468               0.40   -13600.00
03469               0.40   -12800.00
03470               0.20   -12000.00
03471               0.40   -11200.00
03472               0.40   -12000.00
03473               0.20   -11200.00
03474               0.20   -10400.00
03475               0.20    -9600.00
03476               0.00    -8000.00
03477               0.00    -8000.00
03478              -0.20    -8000.00
03479              -0.20    -7200.00
03480              -0.20    -6400.00
03481              -0.20    -5600.00
03482               0.20    -4800.00
03483              -0.20    -4000.00
03484              -0.40    -4000.00
03485               0.20    -3200.00
03486              -0.40    -2400.00
03487              -0.60    -1600.00
03488              -0.40    -1600.00
03489              -0.40     -800.00
03490              -0.60        0.00
03491              -0.60        0.00
03492               0.20     1600.00
03493               2.00     1600.00
03494               1.60     2400.00
03495              -2.80     2400.00
03496               0.20     3200.00
03497               1.00     4000.00
03498              -2.00     4000.00
03499               3.80     4800.00
03500              22.60     7200.00
03501              17.20     8000.00
03502             -25.00     8000.00
03503              -8.00     8000.00
03504              25.00     8800.00
03505             -25.00     8800.00
03506             -24.20     9600.00
03507              25.00    11200.00
03508             -25.00    10400.00
03509             -19.80    12000.00
03510              25.00    12000.00
03511             -25.00    12000.00
03512              25.00    12800.00
03513               0.60    12800.00
03514             -25.00    14400.00
03515              25.00    14400.00
03516             -25.00    15200.00
03517              23.00    16000.00
03518              25.00    16000.00
03519             -25.00    16800.00
03520              19.60    17600.00
03521              24.00    18400.00
03522             -25.00    18400.00
03523             -13.80    19200.00
03524              25.00    20000.00
03525             -25.00    20800.00
03526              -0.40    21600.00
03527              25.00    21600.00
03528             -25.00    22400.00
03529              14.60    22400.00
03530              -2.80    24000.00
03531             -15.80    24000.00
03532               5.40    24000.00
03533               3.60    24000.00
03534             -13.00    24800.00
03535              10.60    25600.00
03536               0.00    25600.00
03537             -16.40    25600.00
03538              11.60    26400.00
03539              -9.00    27200.00
03540              -6.00    28000.00
03541               6.00    28000.00
03542              -4.60    28800.00
03543              -5.20    28000.00
03544               2.20    28800.00
03545              -3.60    28800.00
03546              -6.00    30400.00
03547               3.40    29600.00
03548              -4.60    31200.00
03549              -5.60    30400.00
03550               2.00    31200.00
03551              -5.00    31200.00
03552              -3.00    31200.00
03553               2.60    32000.00
03554              -6.00    31200.00
03555              -1.60    32800.00
03556              -1.20    32000.00
03557              -5.40    32800.00
03558              -1.40    32800.00
03559              -2.60    32000.00
03560              -2.60    33600.00
03561              -1.40    33600.00
03562              -2.60    33600.00
03563              -3.20    33600.00
03564              -3.00    33600.00
03565              -2.00    34400.00
03566              -3.40    33600.00
03567              -2.20    33600.00
03568              -2.00    33600.00
03569              -3.80    34400.00
03570              -1.20    34400.00
03571              -3.20    34400.00
03572              -3.00    34400.00
03573              -1.40    34400.00
03574              -3.40    33600.00
03575              -1.60    34400.00
03576              -2.20    33600.00
03577              -3.00    34400.00
03578              -2.00    34400.00
03579              -2.20    34400.00
03580              -2.40    34400.00
03581              -3.00    33600.00
03582              -2.80    34400.00
03583              -2.20    33600.00
03584              -2.80    33600.00
03585              -2.20    33600.00
03586              -2.40    33600.00
03587              -2.00    33600.00
03588              -2.20    33600.00
03589              -3.00    33600.00
03590              -2.00    32800.00
03591              -3.00    32000.00
03592              -2.20    32800.00
03593              -1.80    32000.00
03594              -2.60    32800.00
03595              -2.40    31200.00
03596              -2.60    32000.00
03597              -2.00    30400.00
03598              -2.40    31200.00
03599              -2.80    31200.00
03600              -2.20    30400.00
03601              -2.20    29600.00
03602              -2.00    29600.00
03603              -2.20    28800.00
03604              -2.60    28800.00
03605              -1.80    28000.00
03606              -2.40    28000.00
03607              -2.20    28000.00
03608              -1.40    27200.00
03609              -2.80    27200.00
03610              -2.00    26400.00
03611              -1.40    25600.00
03612              -2.60    25600.00
03613              -2.20    25600.00
03614              -2.00    24800.00
03615              -2.00    24800.00
03616              -2.00    24000.00
03617              -1.80    24000.00
03618              -2.60    23200.00
03619              -1.20    22400.00
03620              -2.00    21600.00
03621              -2.60    21600.00
03622              -1.20    20800.00
03623              -2.80    20800.00
03624              -2.20    20000.00
03625              -0.40    18400.00
03626              -2.00    19200.00
03627              -2.00    18400.00
03628              -1.20    17600.00
03629              -2.00    17600.00
03630              -1.40    17600.00
03631              -1.20    16000.00
03632              -1.20    16000.00
03633              -1.20    15200.00
03634              -1.20    14400.00
03635              -1.40    13600.00
03636              -1.40    12800.00
03637              -1.20    12800.00
03638              -1.00    12000.00
03639              -0.60    11200.00
03640              -1.40    11200.00
03641              -1.40     9600.00
03642              -0.20     9600.00
03643              -0.60     8800.00
03644              -1.20     8000.00
03645               0.20     8000.00
03646              -1.40     8000.00
03647              -1.80     6400.00
03648              -0.20     6400.00
03649              -0.80     5600.00
03650              -0.40     4800.00
03651               0.60     4800.00
03652              -0.60     4000.00
03653              -0.60     3200.00
03654              -0.60     2400.00
03655              -0.80     1600.00
03656               0.20     1600.00
03657               0.60        0.00
03658               0.20     -800.00
03659               1.60     -800.00
03660               4.20    -1600.00
03661              -1.80    -1600.00
03662               0.40    -2400.00
03663               2.40    -3200.00
03664               0.40    -3200.00
03665              -0.40    -4000.00
03666               5.00    -4000.00
03667              17.80    -6400.00
03668              20.20    -7200.00
03669             -25.00    -8000.00
03670             -16.40    -8000.00
03671              25.00    -9600.00
03672             -10.80    -9600.00
03673             -25.00    -8800.00
03674              25.00    -9600.00
03675              25.00   -11200.00
03676             -25.00   -10400.00
03677              25.00   -12000.00
03678              25.00   -12000.00
03679             -25.00   -12800.00
03680              25.00   -13600.00
03681              -8.60   -13600.00
03682               0.20   -14400.00
03683              12.00   -14400.00
03684             -25.00   -16000.00
03685              25.00   -16800.00
03686              -3.80   -16800.00
03687             -21.40   -17600.00
03688              25.00   -17600.00
03689               7.60   -18400.00
03690             -25.00   -19200.00
03691              12.60   -19200.00
03692              18.40   -19200.00
03693             -25.00   -20000.00
03694              22.80   -20800.00
03695               7.00   -20800.00
03696             -15.80   -22400.00
03697              15.40   -22400.00
03698              -2.20   -23200.00
03699              -7.60   -24000.00
03700              10.60   -24000.00
03701               2.60   -24000.00
03702              -6.80   -24000.00
03703              14.60   -25600.00
03704              -5.20   -25600.00
03705              -2.60   -25600.00
03706              10.80   -26400.00
03707              -6.20   -26400.00
03708               2.60   -27200.00
03709               6.80   -27200.00
03710              -1.40   -28000.00
03711               0.80   -28800.00
03712               6.20   -28800.00
03713              -1.20   -28800.00
03714               1.80   -29600.00
03715               5.20   -29600.00
03716              -2.00   -29600.00
03717               2.60   -30400.00
03718               4.20   -30400.00
03719              -1.00   -30400.00
03720               3.60   -31200.00
03721               3.80   -31200.00
03722              -1.20   -32000.00
03723               3.60   -32000.00
03724               2.00   -32000.00
03725               0.40   -32000.00
03726               3.40   -32000.00
03727               2.20   -32800.00
03728               2.20   -32800.00
03729               2.00   -32800.00
03730               2.00   -32800.00
03731               1.40   -32800.00
03732               2.20   -33600.00
03733               1.80   -32800.00
03734               1.80   -33600.00
03735               3.00   -33600.00
03736               1.40   -33600.00
03737               1.80   -33600.00
03738               2.60   -33600.00
03739               1.00   -33600.00
03740               2.40   -33600.00
03741               2.20   -33600.00
03742               1.20   -33600.00
03743               2.60   -33600.00
03744               1.40   -32800.00
03745               2.00   -33600.00
03746               2.40   -33600.00
03747               1.20   -33600.00
03748               2.00   -33600.00
03749               2.00   -33600.00
03750               1.80   -33600.00
03751               1.80   -32800.00
03752               2.00   -32800.00
03753               1.60   -32000.00
03754               1.80   -32800.00
03755               2.60   -32000.00
03756               1.00   -32000.00
03757               2.00   -32000.00
03758               2.00   -31200.00
03759               1.00   -32000.00
03760               2.60   -30400.00
03761               2.00   -30400.00
03762               1.20   -30400.00
03763               2.40   -30400.00
03764               1.40   -30400.00
03765               1.00   -29600.00
03766               2.00   -29600.00
03767               2.00   -29600.00
03768               1.40   -28800.00
03769               2.00   -28800.00
03770               1.20   -28000.00
03771               0.60   -28800.00
03772               2.00   -27200.00
03773               1.60   -27200.00
03774               1.40   -26400.00
03775               1.80   -26400.00
03776               1.20   -25600.00
03777               1.80   -25600.00
03778               1.60   -25600.00
03779               1.00   -24000.00
03780               1.80   -24800.00
03781               1.00   -24000.00
03782               1.00   -23200.00
03783               1.60   -23200.00
03784               0.80   -22400.00
03785               1.20   -22400.00
03786               1.20   -21600.00
03787               1.20   -20800.00
03788               1.00   -20800.00
03789               1.20   -20000.00
03790               1.20   -19200.00
03791               0.60   -19200.00
03792               1.40   -18400.00
03793               1.00   -17600.00
03794               0.40   -17600.00
03795               1.00   -16800.00
03796               0.40   -16800.00
03797              -0.20   -16000.00
03798               0.20   -15200.00
03799               0.60   -15200.00
03800               0.20   -14400.00
03801               0.40   -13600.00
03802               0.40   -13600.00
03803              -0.40   -12800.00
03804               0.40   -12000.00
03805               1.00   -11200.00
03806               0.20   -10400.00
03807               0.20   -10400.00
03808              -0.20    -9600.00
03809               0.40    -8800.00
03810              -0.20    -8000.00
03811              -0.60    -8000.00
03812               0.80    -7200.00
03813              -0.20    -7200.00
03814              -1.80    -5600.00
03815               1.20    -4800.00
03816               0.40    -4800.00
03817              -2.00    -4000.00
03818               1.00    -3200.00
03819               0.60    -3200.00
03820              -2.20    -1600.00
03821               0.20    -1600.00
03822               0.60     -800.00
03823              -1.80     -800.00
03824              -0.40        0.00
03825               1.00      800.00
03826               1.00     1600.00
03827               2.60     2400.00
03828              -2.60     2400.00
03829              -0.40     3200.00
03830               1.80     4000.00
03831              -3.00     4800.00
03832               2.60     4800.00
03833              21.00     7200.00
03834              22.20     7200.00
03835             -25.00     8000.00
03836             -13.20     8000.00
03837              25.00     8800.00
03838             -21.80     9600.00
03839             -25.00     9600.00
03840              25.00    10400.00
03841             -25.00    10400.00
03842             -25.00    12000.00
03843              25.00    12000.00
03844             -25.00    12800.00
03845              21.20    13600.00
03846              13.20    12800.00
03847             -25.00    14400.00
03848              25.00    14400.00
03849             -25.00    15200.00
03850               7.60    16000.00
03851              25.00    16000.00
03852             -25.00    16800.00
03853              13.40    17600.00
03854              25.00    18400.00
03855             -23.40    19200.00
03856             -19.80    20000.00
03857              25.00    19200.00
03858             -25.00    20800.00
03859              -8.40    21600.00
03860              25.00    21600.00
03861             -25.00    22400.00
03862              10.20    22400.00
03863               1.00    22400.00
03864             -16.80    23200.00
03865               4.40    24000.00
03866               5.20    24000.00
03867             -12.60    24800.00
03868               7.60    25600.00
03869               3.00    25600.00
03870             -18.20    25600.00
03871              10.80    26400.00
03872              -6.20    27200.00
03873              -7.40    27200.00
03874               6.00    28000.00
03875              -3.80    28000.00
03876              -5.60    28800.00
03877               1.20    28800.00
03878              -2.80    28800.00
03879              -6.00    29600.00
03880               2.60    28800.00
03881              -3.80    30400.00
03882              -5.40    30400.00
03883               1.40    31200.00
03884              -4.40    31200.00
03885              -3.80    31200.00
03886               2.80    31200.00
03887              -5.40    32000.00
03888              -2.00    32000.00
03889              -0.60    32800.00
03890              -5.80    32800.00
03891              -1.80    32800.00
03892              -2.20    32800.00
03893              -2.60    33600.00
03894              -1.20    33600.00
03895              -2.40    33600.00
03896              -3.00    33600.00
03897              -2.80    32800.00
03898              -2.00    33600.00
03899              -3.00    33600.00
03900              -2.20    33600.00
03901              -1.40    33600.00
03902              -3.60    33600.00
03903              -1.40    33600.00
03904              -3.00    33600.00
03905              -3.40    34400.00
03906              -1.80    34400.00
03907              -3.60    33600.00
03908              -1.80    34400.00
03909              -2.20    34400.00
03910              -3.40    34400.00
03911              -2.00    34400.00
03912              -2.20    33600.00
03913              -2.20    34400.00
03914              -2.80    34400.00
03915              -2.80    33600.00
03916              -2.20    33600.00
03917              -2.80    33600.00
03918              -2.40    33600.00
03919              -2.60    32800.00
03920              -2.20    32800.00
03921              -2.20    32800.00
03922              -2.80    32800.00
03923              -1.40    32800.00
03924              -2.80    32800.00
03925              -2.40    32000.00
03926              -1.80    32000.00
03927              -2.80    32000.00
03928              -2.60    32000.00
03929              -2.20    31200.00
03930              -2.00    30400.00
03931              -2.20    31200.00
03932              -2.60    30400.00
03933              -2.60    29600.00
03934              -2.80    30400.00
03935              -2.20    28800.00
03936              -2.40    28800.00
03937              -2.60    28800.00
03938              -2.00    28000.00
03939              -2.20    28000.00
03940              -2.00    28000.00
03941              -2.20    27200.00
03942              -2.80    27200.00
03943              -1.80    26400.00
03944              -2.00    25600.00
03945              -2.20    25600.00
03946              -2.00    25600.00
03947              -2.20    24800.00
03948              -2.00    24000.00
03949              -2.00    24000.00
03950              -1.40    24000.00
03951              -2.20    22400.00
03952              -2.00    22400.00
03953              -1.40    22400.00
03954              -2.60    21600.00
03955              -2.00    21600.00
03956              -1.80    20800.00
03957              -2.00    20800.00
03958              -1.20    19200.00
03959              -1.60    19200.00
03960              -1.60    18400.00
03961              -1.40    17600.00
03962              -1.40    17600.00
03963              -1.20    16800.00
03964              -1.20    16000.00
03965              -1.40    15200.00
03966              -1.20    15200.00
03967              -1.20    14400.00
03968              -1.20    14400.00
03969              -1.40    13600.00
03970              -0.80    12800.00
03971              -1.20    12000.00
03972              -1.00    11200.00
03973              -1.00    11200.00
03974              -1.20    11200.00
03975              -0.80     9600.00
03976              -0.20     8800.00
03977              -1.40     8800.00
03978              -0.60     8000.00
03979              -0.60     7200.00
03980              -0.80     6400.00
03981              -0.40     6400.00
03982              -0.80     5600.00
03983              -1.00     4800.00
03984              -0.40     4800.00
03985              -1.00     3200.00
03986              -0.20     3200.00
03987              -0.40     2400.00
03988              -0.60     1600.00
03989               0.00      800.00
03990               0.20        0.00
03991               0.00     -800.00
03992               1.20     -800.00
03993               4.40    -1600.00
03994              -1.20    -1600.00
03995              -0.60    -2400.00
03996               2.00    -2400.00
03997               0.60    -3200.00
03998              -0.60    -4000.00
03999               4.80    -4800.00
04000              16.40    -4800.00
04001              22.80    -7200.00
04002             -25.00    -8000.00
04003             -22.60    -8000.00
04004              25.00    -8000.00
04005              -4.60    -9600.00
04006             -25.00    -8800.00
04007              25.00    -9600.00
04008              25.00   -10400.00
04009             -25.00   -10400.00
04010              25.00   -12000.00
04011              25.00   -12800.00
04012             -25.00   -12800.00
04013              25.00   -13600.00
04014              -1.20   -13600.00
04015              -5.60   -14400.00
04016              16.60   -15200.00
04017             -25.00   -16000.00
04018              25.00   -16000.00
04019               2.00   -16800.00
04020             -24.20   -17600.00
04021              22.80   -17600.00
04022              11.80   -18400.00
04023             -25.00   -19200.00
04024               8.20   -19200.00
04025              23.40   -20000.00
04026             -25.00   -20000.00
04027              18.80   -20800.00
04028              11.80   -20800.00
04029             -18.00   -22400.00
04030              14.20   -22400.00
04031               0.60   -23200.00
04032              -9.00   -23200.00
04033               9.40   -24000.00
04034               5.00   -24000.00
04035              -7.80   -24800.00
04036              13.60   -25600.00
04037              -2.80   -25600.00
04038              -4.40   -26400.00
04039              11.60   -26400.00
04040              -5.40   -26400.00
04041               1.40   -27200.00
04042               7.60   -27200.00
04043              -1.20   -28800.00
04044              -0.20   -28000.00
04045               6.60   -28800.00
04046              -1.00   -28800.00
04047               1.20   -29600.00
04048               5.80   -29600.00
04049              -1.40   -29600.00
04050               1.80   -30400.00
04051               5.00   -30400.00
04052              -1.20   -30400.00
04053               2.80   -31200.00
04054               4.60   -32000.00
04055              -1.20   -30400.00
04056               3.40   -32000.00
04057               2.60   -32000.00
04058               0.20   -32000.00
04059               2.60   -32000.00
04060               2.60   -32800.00
04061               2.00   -32000.00
04062               2.00   -32800.00
04063               1.80   -33600.00
04064               1.20   -32800.00
04065               2.60   -33600.00
04066               1.80   -32800.00
04067               1.20   -33600.00
04068               3.60   -32800.00
04069               2.00   -32800.00
04070               1.20   -33600.00
04071               3.00   -33600.00
04072               1.20   -33600.00
04073               2.00   -32800.00
04074               2.60   -33600.00
04075               1.40   -33600.00
04076               2.60   -33600.00
04077               1.40   -33600.00
04078               1.80   -33600.00
04079               2.60   -33600.00
04080               1.40   -32800.00
04081               1.60   -32800.00
04082               2.20   -32800.00
04083               2.20   -32800.00
04084               1.00   -32800.00
04085               2.60   -32800.00
04086               2.20   -32000.00
04087               1.00   -32800.00
04088               2.80   -32000.00
04089               1.80   -32000.00
04090               1.00   -32000.00
04091               2.20   -32000.00
04092               1.40   -32000.00
04093               1.80   -30400.00
04094               2.20   -30400.00
04095               1.80   -30400.00
04096               1.80   -30400.00
04097               2.20   -30400.00
04098               1.80   -29600.00
04099               1.40   -29600.00
04100               2.20   -29600.00
04101               2.00   -28800.00
04102               1.20   -28800.00
04103               1.40   -28800.00
04104               1.40   -28000.00
04105               1.40   -28000.00
04106               1.40   -27200.00
04107               1.40   -27200.00
04108               1.80   -26400.00
04109               1.00   -26400.00
04110               1.20   -25600.00
04111               2.20   -25600.00
04112               1.40   -25600.00
04113               1.40   -24000.00
04114               1.80   -24000.00
04115               1.20   -24000.00
04116               1.00   -23200.00
04117               1.20   -22400.00
04118               1.40   -22400.00
04119               1.00   -22400.00
04120               1.00   -20800.00
04121               1.00   -20800.00
04122               0.40   -20000.00
04123               1.00   -20000.00
04124               1.00   -19200.00
04125               1.00   -18400.00
04126               1.00   -17600.00
04127               0.40   -17600.00
04128               0.80   -16800.00
04129               0.40   -16800.00
04130               0.40   -16000.00
04131               0.40   -16000.00
04132               0.40   -15200.00
04133               0.40   -14400.00
04134               0.20   -13600.00
04135               0.20   -12800.00
04136               0.20   -12800.00
04137               0.40   -12000.00
04138               0.60   -11200.00
04139               0.20   -11200.00
04140               0.20   -10400.00
04141               0.20    -9600.00
04142              -0.20    -8800.00
04143               0.20    -8800.00
04144               0.20    -8000.00
04145              -0.40    -7200.00
04146              -0.20    -6400.00
04147               0.00    -6400.00
04148              -0.60    -4800.00
04149              -0.20    -4000.00
04150              -0.40    -4000.00
04151              -0.20    -4000.00
04152               0.20    -3200.00
04153              -0.60    -2400.00
04154              -0.60    -1600.00
04155              -0.40     -800.00
04156              -0.60        0.00
04157              -0.40        0.00
04158               0.20        0.00
04159               1.20      800.00
04160               2.80     1600.00
04161              -2.80     2400.00
04162              -0.20     3200.00
04163               1.40     3200.00
04164              -1.40     4800.00
04165               1.80     4800.00
04166              17.60     6400.00
04167              25.00     7200.00
04168             -25.00     8000.00
04169             -21.20     8800.00
04170              25.00     8800.00
04171             -15.60     8800.00
04172             -25.00     8800.00
04173              25.00    10400.00
04174             -10.80    10400.00
04175             -25.00    11200.00
04176              25.00    12000.00
04177             -25.00    12000.00
04178               6.00    12800.00
04179              25.00    13600.00
04180             -25.00    14400.00
04181              25.00    14400.00
04182             -25.00    15200.00
04183              -6.20    16000.00
04184              25.00    16000.00
04185             -25.00    17600.00
04186               7.60    17600.00
04187              25.00    18400.00
04188             -20.20    18400.00
04189             -24.40    19200.00
04190              25.00    19200.00
04191             -21.20    20800.00
04192             -15.60    21600.00
04193              25.00    21600.00
04194             -25.00    21600.00
04195               6.00    22400.00
04196               4.60    23200.00
04197             -18.00    24000.00
04198               3.20    24000.00
04199               6.20    24800.00
04200             -12.40    24800.00
04201               5.40    25600.00
04202               6.00    25600.00
04203             -19.40    25600.00
04204              10.00    27200.00
04205              -4.20    27200.00
04206              -9.20    27200.00
04207               6.20    27200.00
04208              -3.00    28000.00
04209              -6.00    28800.00
04210               1.20    28800.00
04211              -2.00    28800.00
04212              -7.00    28800.00
04213               2.60    29600.00
04214              -3.00    30400.00
04215              -6.60    30400.00
04216               1.40    31200.00
04217              -3.20    31200.00
04218              -4.40    31200.00
04219               3.00    32000.00
04220              -5.00    32000.00
04221              -2.80    32800.00
04222               0.00    32000.00
04223              -5.20    32800.00
04224              -1.80    33600.00
04225              -2.20    32800.00
04226              -2.60    33600.00
04227              -1.20    32800.00
04228              -2.20    33600.00
04229              -3.00    33600.00
04230              -3.20    33600.00
04231              -2.00    33600.00
04232              -3.00    33600.00
04233              -2.20    34400.00
04234              -1.40    33600.00
04235              -3.60    33600.00
04236              -1.20    34400.00
04237              -2.80    34400.00
04238              -3.40    34400.00
04239              -1.40    33600.00
04240              -3.60    34400.00
04241              -2.00    34400.00
04242              -2.00    34400.00
04243              -3.80    33600.00
04244              -2.00    34400.00
04245              -2.20    33600.00
04246              -2.80    33600.00
04247              -2.60    33600.00
04248              -2.60    34400.00
04249              -2.00    33600.00
04250              -2.60    33600.00
04251              -2.60    33600.00
04252              -2.60    33600.00
04253              -2.60    33600.00
04254              -2.20    32800.00
04255              -3.00    32800.00
04256              -2.20    32800.00
04257              -3.00    32000.00
04258              -2.60    32800.00
04259              -2.00    32000.00
04260              -2.80    32000.00
04261              -2.60    32000.00
04262              -2.20    31200.00
04263              -2.80    31200.00
04264              -2.20    31200.00
04265              -2.40    30400.00
04266              -3.00    30400.00
04267              -2.40    30400.00
04268              -2.20    30400.00
04269              -2.20    29600.00
04270              -2.80    28800.00
04271              -1.40    28800.00
04272              -2.60    28000.00
04273              -2.20    28000.00
04274              -1.80    27200.00
04275              -3.00    26400.00
04276              -1.60    26400.00
04277              -2.00    25600.00
04278              -2.60    25600.00
04279              -1.80    25600.00
04280              -2.60    24800.00
04281              -2.20    24800.00
04282              -1.20    24000.00
04283              -2.00    24000.00
04284              -2.20    23200.00
04285              -1.80    22400.00
04286              -2.00    22400.00
04287              -2.00    22400.00
04288              -2.00    21600.00
04289              -2.00    20800.00
04290              -1.80    20000.00
04291              -1.20    19200.00
04292              -1.80    19200.00
04293              -1.80    18400.00
04294              -1.20    17600.00
04295              -1.40    17600.00
04296              -1.40    16800.00
04297              -1.20    16000.00
04298              -1.20    16000.00
04299              -1.20    15200.00
04300              -1.20    14400.00
04301              -0.60    14400.00
04302              -1.80    12800.00
04303              -1.00    12800.00
04304              -1.00    12000.00
04305              -1.40    12000.00
04306              -1.20    11200.00
04307              -1.20    11200.00
04308              -1.00     9600.00
04309              -0.40     8800.00
04310              -1.20     8800.00
04311              -0.60     8000.00
04312              -0.60     7200.00
04313              -0.60     7200.00
04314              -0.60     6400.00
04315              -0.60     4800.00
04316              -0.80     4800.00
04317              -0.20     4800.00
04318              -1.20     3200.00
04319              -0.60     2400.00
04320              -0.60     2400.00
04321              -0.60     1600.00
04322              -0.60      800.00
04323              -0.20        0.00
04324               0.40        0.00
04325               0.40     -800.00
04326               4.20     -800.00
04327              -0.20    -1600.00
04328              -1.20    -2400.00
04329               1.80    -2400.00
04330               1.60    -3200.00
04331              -1.20    -4000.00
04332               3.00    -4000.00
04333              15.40    -4800.00
04334              25.00    -7200.00
04335             -25.00    -8000.00
04336             -25.00    -8000.00
04337              25.00    -8000.00
04338               0.20    -9600.00
04339             -25.00    -9600.00
04340              19.80    -9600.00
04341              25.00   -11200.00
04342             -25.00   -10400.00
04343              13.40   -12000.00
04344              25.00   -12800.00
04345             -25.00   -12800.00
04346              24.60   -13600.00
04347               6.20   -13600.00
04348             -11.00   -14400.00
04349              20.20   -15200.00
04350             -25.00   -16000.00
04351              25.00   -16000.00
04352               7.40   -16800.00
04353             -25.00   -17600.00
04354              19.40   -17600.00
04355              15.80   -17600.00
04356             -25.00   -18400.00
04357               2.60   -20000.00
04358              25.00   -20000.00
04359             -25.00   -20000.00
04360              13.80   -20800.00
04361              16.00   -21600.00
04362             -18.60   -22400.00
04363              12.20   -22400.00
04364               2.60   -23200.00
04365             -10.00   -23200.00
04366               8.60   -24000.00
04367               6.80   -24000.00
04368              -9.40   -24800.00
04369              13.80   -24800.00
04370              -0.80   -25600.00
04371              -7.00   -25600.00
04372              12.40   -26400.00
04373              -4.40   -27200.00
04374              -0.60   -27200.00
04375               9.00   -27200.00
04376              -0.60   -28000.00
04377              -1.40   -28000.00
04378               7.00   -28800.00
04379              -0.60   -28800.00
04380              -0.20   -29600.00
04381               6.20   -29600.00
04382              -1.60   -29600.00
04383               1.20   -29600.00
04384               5.00   -29600.00
04385              -1.40   -30400.00
04386               2.60   -31200.00
04387               5.00   -31200.00
04388              -1.40   -31200.00
04389               3.00   -32000.00
04390               2.60   -32000.00
04391              -0.40   -32000.00
04392               3.00   -32000.00
04393               2.60   -32800.00
04394               2.00   -32800.00
04395               2.20   -32800.00
04396               1.80   -33600.00
04397               1.00   -32800.00
04398               2.20   -33600.00
04399               1.80   -32800.00
04400               1.20   -32800.00
04401               3.00   -32800.00
04402               2.20   -33600.00
04403               1.40   -33600.00
04404               2.60   -33600.00
04405               1.20   -32800.00
04406               2.00   -33600.00
04407               2.60   -33600.00
04408               1.20   -33600.00
04409               2.60   -33600.00
04410               1.80   -32800.00
04411               2.00   -33600.00
04412               2.60   -33600.00
04413               1.80   -32800.00
04414               1.60   -32800.00
04415               1.80   -32800.00
04416               2.00   -32800.00
04417               1.80   -32800.00
04418               2.20   -32800.00
04419               2.60   -32800.00
04420               2.00   -32000.00
04421               2.60   -32800.00
04422               1.40   -32800.00
04423               1.80   -32000.00
04424               2.00   -32000.00
04425               1.40   -32000.00
04426               2.40   -31200.00
04427               2.40   -31200.00
04428               1.20   -30400.00
04429               1.80   -30400.00
04430               2.00   -30400.00
04431               1.80   -29600.00
04432               1.40   -29600.00
04433               2.00   -28800.00
04434               1.40   -28800.00
04435               1.80   -28800.00
04436               1.80   -28000.00
04437               1.80   -28000.00
04438               1.80   -28000.00
04439               1.80   -27200.00
04440               1.20   -26400.00
04441               1.60   -26400.00
04442               1.00   -26400.00
04443               1.00   -25600.00
04444               2.20   -25600.00
04445               1.20   -24000.00
04446               1.20   -24000.00
04447               1.80   -24000.00
04448               1.20   -24000.00
04449               1.00   -23200.00
04450               1.20   -23200.00
04451               1.00   -22400.00
04452               1.00   -20800.00
04453               1.00   -21600.00
04454               1.20   -20800.00
04455               0.60   -20000.00
04456               0.80   -19200.00
04457               0.80   -18400.00
04458               1.00   -18400.00
04459               0.40   -18400.00
04460               0.40   -17600.00
04461               0.60   -17600.00
04462               0.60   -16800.00
04463               0.20   -16000.00
04464               0.40   -16000.00
04465               0.40   -14400.00
04466               0.40   -13600.00
04467               0.20   -14400.00
04468               0.40   -12800.00
04469               0.40   -12800.00
04470              -0.20   -12000.00
04471               0.60   -11200.00
04472               0.20   -10400.00
04473              -0.40   -10400.00
04474               0.40    -9600.00
04475              -0.20    -9600.00
04476               0.00    -8000.00
04477               0.20    -8000.00
04478              -0.40    -8000.00
04479              -0.20    -7200.00
04480               0.20    -6400.00
04481              -0.40    -4800.00
04482               0.00    -4000.00
04483               0.00    -4000.00
04484              -0.40    -3200.00
04485              -0.20    -3200.00
04486              -0.20    -2400.00
04487              -0.60    -1600.00
04488              -0.60     -800.00
04489              -0.20        0.00
04490              -0.40        0.00
04491               0.20      800.00
04492               1.20     1600.00
04493               2.80     2400.00
04494              -2.80     2400.00
04495              -0.40     3200.00
04496               1.20     3200.00
04497              -1.00     3200.00
04498               1.00     4800.00
04499              15.00     5600.00
04500              25.00     8000.00
04501             -25.00     8000.00
04502             -25.00     8000.00
04503              25.00     8800.00
04504              -9.80     8800.00
04505             -25.00     8800.00
04506              25.00    10400.00
04507               6.20    11200.00
04508             -25.00    11200.00
04509              25.00    12000.00
04510             -25.00    12000.00
04511              -8.60    12800.00
04512              25.00    13600.00
04513             -25.00    14400.00
04514              25.00    14400.00
04515             -25.00    15200.00
04516             -21.60    16000.00
04517              25.00    16000.00
04518             -25.00    16800.00
04519               0.20    17600.00
04520              25.00    17600.00
04521             -17.40    18400.00
04522             -25.00    19200.00
04523              25.00    20000.00
04524             -13.60    20800.00
04525             -23.00    20800.00
04526              25.00    21600.00
04527             -25.00    22400.00
04528               1.60    22400.00
04529               9.00    22400.00
04530             -19.00    24000.00
04531               2.00    24000.00
04532               7.60    24000.00
04533             -12.20    24800.00
04534               2.00    24800.00
04535               9.00    25600.00
04536             -20.20    25600.00
04537               8.20    26400.00
04538              -1.20    26400.00
04539             -11.00    27200.00
04540               6.20    28000.00
04541              -2.00    28000.00
04542              -6.40    28800.00
04543               1.00    28800.00
04544              -0.60    28800.00
04545              -7.40    29600.00
04546               2.00    30400.00
04547              -2.00    30400.00
04548              -7.00    30400.00
04549               1.20    31200.00
04550              -2.60    30400.00
04551              -5.40    31200.00
04552               3.20    31200.00
04553              -4.20    32800.00
04554              -3.40    32000.00
04555               0.40    32000.00
04556              -5.20    32800.00
04557              -2.00    32800.00
04558              -1.80    32800.00
04559              -2.80    33600.00
04560              -1.20    32800.00
04561              -2.20    32800.00
04562              -3.40    33600.00
04563              -2.80    33600.00
04564              -2.00    33600.00
04565              -3.00    33600.00
04566              -2.40    33600.00
04567              -1.20    33600.00
04568              -4.20    33600.00
04569              -1.20    34400.00
04570              -2.20    34400.00
04571              -4.40    33600.00
04572              -0.60    34400.00
04573              -3.40    34400.00
04574              -2.60    34400.00
04575              -1.20    33600.00
04576              -3.60    34400.00
04577              -2.40    33600.00
04578              -1.40    34400.00
04579              -3.40    33600.00
04580              -2.20    33600.00
04581              -3.40    33600.00
04582              -2.80    33600.00
04583              -2.00    33600.00
04584              -3.00    33600.00
04585              -3.20    33600.00
04586              -1.40    32800.00
04587              -2.60    32800.00
04588              -3.80    32800.00
04589              -1.00    32000.00
04590              -3.80    32000.00
04591              -2.80    32800.00
04592              -0.60    32000.00
04593              -3.60    32000.00
04594              -2.20    31200.00
04595              -1.40    31200.00
04596              -3.20    31200.00
04597              -2.60    31200.00
04598              -2.20    30400.00
04599              -2.80    30400.00
04600              -2.20    29600.00
04601              -1.80    29600.00
04602              -2.20    28800.00
04603              -2.80    28800.00
04604              -2.00    28800.00
04605              -2.20    28000.00
04606              -1.80    28000.00
04607              -2.00    27200.00
04608              -2.60    27200.00
04609              -1.80    27200.00
04610              -2.20    25600.00
04611              -2.60    25600.00
04612              -1.40    25600.00
04613              -2.20    24800.00
04614              -2.60    24800.00
04615              -1.40    24000.00
04616              -2.00    24000.00
04617              -2.20    23200.00
04618              -1.20    22400.00
04619              -1.20    22400.00
04620              -2.00    21600.00
04621              -1.20    21600.00
04622              -2.00    20800.00
04623              -2.20    20000.00
04624              -1.00    19200.00
04625              -1.20    19200.00
04626              -2.00    17600.00
04627              -1.20    17600.00
04628              -1.40    16800.00
04629              -1.40    16800.00
04630              -1.40    16000.00
04631              -1.00    16000.00
04632              -1.40    15200.00
04633              -2.00    14400.00
04634              -0.40    14400.00
04635              -0.60    13600.00
04636              -2.00    12800.00
04637              -1.40    12800.00
04638               0.40    12000.00
04639              -1.80    11200.00
04640              -2.60    10400.00
04641               0.40     9600.00
04642              -0.20     9600.00
04643              -3.60     8800.00
04644               0.40     8000.00
04645               0.40     8000.00
04646              -2.60     6400.00
04647               0.40     5600.00
04648               1.00     5600.00
04649              -2.80     4800.00
04650              -0.80     4800.00
04651               0.60     3200.00
04652              -1.20     3200.00
04653              -1.20     2400.00
04654               0.60     1600.00
04655              -0.20     1600.00
04656              -1.20        0.00
04657               0.20        0.00
04658               1.20     -800.00
04659               3.00    -1600.00
04660              -0.60    -1600.00
04661              -0.60    -2400.00
04662               2.20    -2400.00
04663               1.00    -3200.00
04664              -0.60    -4000.00
04665               3.60    -4000.00
04666              12.80    -4800.00
04667              25.00    -7200.00
04668             -25.00    -8000.00
04669             -25.00    -8000.00
04670              24.60    -8000.00
04671               6.80    -9600.00
04672             -25.00    -9600.00
04673              11.40    -9600.00
04674              25.00   -10400.00
04675             -25.00   -10400.00
04676              -1.40   -11200.00
04677              25.00   -12800.00
04678             -25.00   -12800.00
04679              18.00   -13600.00
04680              12.20   -13600.00
04681             -15.60   -14400.00
04682              25.00   -15200.00
04683             -25.00   -16000.00
04684              22.00   -16000.00
04685              16.20   -16000.00
04686             -25.00   -16800.00
04687              16.40   -17600.00
04688              22.20   -17600.00
04689             -25.00   -19200.00
04690              -1.20   -19200.00
04691              25.00   -20800.00
04692             -25.00   -20000.00
04693              10.00   -20800.00
04694              21.20   -20800.00
04695             -21.00   -22400.00
04696              11.00   -22400.00
04697               5.40   -23200.00
04698             -11.80   -23200.00
04699               9.00   -24000.00
04700               8.60   -24000.00
04701             -10.20   -24000.00
04702              12.40   -24800.00
04703               0.60   -25600.00
04704              -9.20   -25600.00
04705              13.20   -25600.00
04706              -2.80   -27200.00
04707              -2.00   -27200.00
04708               9.20   -27200.00
04709              -1.00   -28800.00
04710              -2.00   -28000.00
04711               6.80   -28800.00
04712               0.00   -28800.00
04713              -0.40   -28800.00
04714               6.40   -30400.00
04715              -0.60   -29600.00
04716              -0.20   -29600.00
04717               5.40   -31200.00
04718              -0.60   -30400.00
04719               1.40   -30400.00
04720               5.80   -30400.00
04721              -1.20   -32000.00
04722               2.20   -32000.00
04723               3.00   -32000.00
04724               0.00   -32000.00
04725               2.80   -32800.00
04726               2.80   -32000.00
04727               2.00   -32000.00
04728               2.20   -32800.00
04729               1.80   -32800.00
04730               1.40   -32800.00
04731               2.40   -32800.00
04732               2.00   -32800.00
04733               1.00   -33600.00
04734               2.60   -33600.00
04735               2.20   -33600.00
04736               1.00   -33600.00
04737               2.80   -33600.00
04738               1.40   -33600.00
04739               1.80   -33600.00
04740               3.00   -32800.00
04741               1.20   -32800.00
04742               3.00   -33600.00
04743               1.80   -33600.00
04744               1.80   -33600.00
04745               3.00   -33600.00
04746               1.80   -32800.00
04747               1.80   -33600.00
04748               1.80   -32800.00
04749               2.20   -32800.00
04750               1.80   -32800.00
04751               2.00   -32800.00
04752               2.60   -32800.00
04753               1.80   -32000.00
04754               2.60   -32000.00
04755               1.80   -32000.00
04756               2.00   -32000.00
04757               2.00   -31200.00
04758               1.80   -32000.00
04759               2.60   -31200.00
04760               2.60   -31200.00
04761               1.00   -30400.00
04762               1.80   -30400.00
04763               1.80   -30400.00
04764               1.40   -29600.00
04765               1.80   -29600.00
04766               2.20   -28800.00
04767               1.40   -28800.00
04768               1.40   -28800.00
04769               1.80   -28800.00
04770               1.20   -28000.00
04771               1.80   -28000.00
04772               2.00   -27200.00
04773               1.00   -27200.00
04774               1.60   -26400.00
04775               1.20   -26400.00
04776               1.20   -25600.00
04777               2.00   -25600.00
04778               1.80   -25600.00
04779               1.20   -24000.00
04780               1.40   -24000.00
04781               1.00   -24000.00
04782               1.00   -23200.00
04783               1.20   -23200.00
04784               1.00   -22400.00
04785               1.20   -22400.00
04786               1.20   -21600.00
04787               0.80   -20800.00
04788               0.60   -20000.00
04789               1.00   -20000.00
04790               0.60   -19200.00
04791               1.00   -18400.00
04792               1.00   -18400.00
04793               0.40   -17600.00
04794               1.00   -16800.00
04795               0.60   -16800.00
04796               0.40   -16000.00
04797               0.60   -15200.00
04798               0.40   -14400.00
04799               0.40   -14400.00
04800               0.40   -13600.00
04801               0.40   -13600.00
04802               0.60   -12800.00
04803               0.40   -12000.00
04804               0.60   -11200.00
04805               0.40   -11200.00
04806               0.20   -10400.00
04807               0.40    -9600.00
04808               0.20    -9600.00
04809              -0.20    -8800.00
04810               0.40    -8000.00
04811               0.20    -7200.00
04812              -0.20    -7200.00
04813               0.20    -6400.00
04814              -0.20    -4800.00
04815              -0.20    -4800.00
04816              -0.60    -4000.00
04817              -0.20    -4000.00
04818               0.20    -3200.00
04819              -0.20    -1600.00
04820              -0.40    -1600.00
04821              -0.20     -800.00
04822              -0.40     -800.00
04823              -0.20        0.00
04824               0.20     1600.00
04825               0.60     1600.00
04826               3.00     1600.00
04827              -2.60     1600.00
04828              -1.00     2400.00
04829               1.40     4000.00
04830              -0.60     4000.00
04831               0.20     4800.00
04832              13.20     5600.00
04833              25.00     7200.00
04834             -25.00     8000.00
04835             -25.00     8000.00
04836              25.00     8800.00
04837              -3.60     8800.00
04838             -25.00     8800.00
04839              25.00    10400.00
04840              22.20    11200.00
04841             -25.00    11200.00
04842              25.00    12000.00
04843             -25.00    12000.00
04844             -23.80    12800.00
04845              25.00    12800.00
04846             -25.00    14400.00
04847              25.00    14400.00
04848             -24.60    15200.00
04849             -25.00    16000.00
04850              25.00    16000.00
04851             -25.00    16800.00
04852              -7.60    17600.00
04853              25.00    17600.00
04854             -12.40    18400.00
04855             -25.00    19200.00
04856              25.00    19200.00
04857              -4.60    20000.00
04858             -25.00    21600.00
04859              25.00    21600.00
04860             -21.00    22400.00
04861              -3.40    22400.00
04862              11.60    22400.00
04863             -18.80    24000.00
04864               0.20    24000.00
04865               7.80    24000.00
04866             -10.20    24000.00
04867              -0.80    24800.00
04868              11.00    25600.00
04869             -19.00    25600.00
04870               6.00    26400.00
04871               1.00    27200.00
04872             -12.40    28000.00
04873               5.20    28000.00
04874              -1.20    28000.00
04875              -6.40    28800.00
04876               0.40    28800.00
04877               0.20    28800.00
04878              -7.40    28800.00
04879               1.40    30400.00
04880              -1.00    30400.00
04881              -7.20    31200.00
04882               0.60    30400.00
04883              -1.40    31200.00
04884              -5.80    31200.00
04885               2.60    32000.00
04886              -3.40    32800.00
04887              -4.40    32000.00
04888               0.40    32000.00
04889              -4.60    32800.00
04890              -2.60    32800.00
04891              -1.80    32800.00
04892              -2.80    32800.00
04893              -1.40    32800.00
04894              -2.40    32800.00
04895              -2.80    33600.00
04896              -3.40    33600.00
04897              -2.20    33600.00
04898              -2.60    33600.00
04899              -2.60    34400.00
04900              -1.20    33600.00
04901              -3.80    34400.00
04902              -1.80    34400.00
04903              -2.00    34400.00
04904              -4.20    33600.00
04905              -1.40    34400.00
04906              -3.00    34400.00
04907              -2.60    33600.00
04908              -2.00    34400.00
04909              -3.40    34400.00
04910              -2.20    34400.00
04911              -2.60    33600.00
04912              -2.60    34400.00
04913              -2.40    33600.00
04914              -3.00    34400.00
04915              -2.00    33600.00
04916              -2.40    33600.00
04917              -2.80    32800.00
04918              -2.60    33600.00
04919              -2.80    33600.00
04920              -2.20    33600.00
04921              -3.40    32800.00
04922              -2.20    32800.00
04923              -2.80    32800.00
04924              -2.80    32000.00
04925              -1.60    32000.00
04926              -2.40    32000.00
04927              -2.60    32000.00
04928              -2.20    31200.00
04929              -2.20    31200.00
04930              -2.00    30400.00
04931              -2.60    31200.00
04932              -2.20    29600.00
04933              -2.20    30400.00
04934              -2.60    29600.00
04935              -2.00    28800.00
04936              -2.80    28800.00
04937              -2.20    28000.00
04938              -2.00    28000.00
04939              -2.00    28000.00
04940              -2.20    28000.00
04941              -2.20    27200.00
04942              -1.80    27200.00
04943              -1.40    26400.00
04944              -2.00    25600.00
04945              -2.00    25600.00
04946              -2.20    24800.00
04947              -2.00    24800.00
04948              -2.00    24000.00
04949              -2.00    24000.00
04950              -1.80    23200.00
04951              -2.00    22400.00
04952              -1.20    21600.00
04953              -1.80    22400.00
04954              -1.80    21600.00
04955              -1.80    20800.00
04956              -1.80    20800.00
04957              -1.20    19200.00
04958              -1.40    19200.00
04959              -1.40    18400.00
04960              -1.40    17600.00
04961              -1.40    17600.00
04962              -1.20    16800.00
04963              -1.40    16000.00
04964              -1.40    16000.00
04965              -1.00    15200.00
04966              -1.40    14400.00
04967              -1.20    14400.00
04968              -1.20    13600.00
04969              -1.20    12800.00
04970              -1.20    12000.00
04971              -1.00    12000.00
04972              -1.20    11200.00
04973              -1.40    10400.00
04974              -1.20     9600.00
04975              -0.20     9600.00
04976              -1.40     8800.00
04977              -0.60     8000.00
04978              -0.80     7200.00
04979              -1.00     7200.00
04980              -0.60     6400.00
04981              -0.80     5600.00
04982              -1.00     4800.00
04983              -0.20     4800.00
04984              -1.20     3200.00
04985              -0.60     3200.00
04986              -0.60     2400.00
04987              -1.20     1600.00
04988              -0.20     1600.00
04989               0.20        0.00
04990              -0.40        0.00
04991               0.60     -800.00
04992               3.80     -800.00
04993               0.20    -1600.00
04994              -1.60    -1600.00
04995               2.00    -3200.00
04996               1.20    -3200.00
04997              -1.00    -4000.00
04998               3.00    -4000.00
04999              11.80    -4800.00
05000              25.00    -6400.00
