Unit:(mV)
                     CH1         CH2
Frequency              ? 299.975 kHz
00001              25.00    -6400.00
00002             -25.00    -7200.00
00003             -25.00    -8000.00
00004              25.00    -8000.00
00005               1.80    -8800.00
00006             -25.00    -8000.00
00007              25.00    -9600.00
00008              25.00   -10400.00
00009             -25.00   -10400.00
00010              25.00   -11200.00
00011              25.00   -12000.00
00012             -25.00   -12000.00
00013              25.00   -12800.00
00014             -13.40   -13600.00
00015               4.40   -14400.00
00016              15.60   -14400.00
00017             -25.00   -14400.00
00018              25.00   -16000.00
00019              -5.60   -16000.00
00020             -22.20   -16800.00
00021              25.00   -16800.00
00022               1.00   -17600.00
00023             -23.60   -17600.00
00024              21.00   -19200.00
00025              10.80   -19200.00
00026             -25.00   -20000.00
00027              25.00   -20000.00
00028               3.00   -20800.00
00029             -12.40   -20800.00
00030              21.80   -21600.00
00031              -7.60   -22400.00
00032              -2.00   -22400.00
00033              14.60   -23200.00
00034              -1.00   -23200.00
00035               0.00   -24000.00
00036              17.20   -24000.00
00037              -5.60   -24000.00
00038               3.00   -25600.00
00039              13.20   -25600.00
00040              -6.00   -26400.00
00041               9.40   -26400.00
00042               8.20   -27200.00
00043              -0.20   -27200.00
00044               7.40   -27200.00
00045               7.40   -27200.00
00046               2.00   -27200.00
00047               7.60   -28000.00
00048               7.60   -29600.00
00049               2.60   -28800.00
00050               9.00   -29600.00
00051               6.60   -29600.00
00052               3.60   -29600.00
00053              10.00   -29600.00
00054               6.80   -29600.00
00055               5.00   -30400.00
00056              10.20   -29600.00
00057               6.20   -30400.00
00058               6.60   -31200.00
00059              10.00   -31200.00
00060               7.00   -32000.00
00061               9.40   -32000.00
00062               9.40   -32000.00
00063               7.40   -32000.00
00064               8.80   -32000.00
00065               8.60   -32800.00
00066               8.60   -32000.00
00067               9.80   -32800.00
00068              10.00   -32800.00
00069               9.40   -32800.00
00070              10.60   -32800.00
00071              10.20   -32800.00
00072               9.00   -32800.00
00073              11.40   -32800.00
00074              10.20   -32800.00
00075              10.40   -32800.00
00076              10.80   -32000.00
00077              10.00   -32800.00
00078              10.00   -32000.00
00079              10.40   -32800.00
00080               9.20   -32800.00
00081              10.00   -32800.00
00082               8.60   -32000.00
00083               9.00   -32800.00
00084               9.60   -32000.00
00085               8.20   -32000.00
00086               8.60   -32000.00
00087               9.20   -32000.00
00088               8.20   -32000.00
00089               7.80   -31200.00
00090               8.20   -30400.00
00091               7.00   -30400.00
00092               7.40   -30400.00
00093               7.60   -30400.00
00094               6.20   -29600.00
00095               6.80   -29600.00
00096               6.60   -29600.00
00097               5.40   -29600.00
00098               6.60   -28800.00
00099               6.40   -28800.00
00100               5.00   -28800.00
00101               6.00   -28000.00
00102               6.00   -28000.00
00103               5.20   -27200.00
00104               5.00   -27200.00
00105               5.20   -27200.00
00106               4.00   -27200.00
00107               5.20   -26400.00
00108               4.60   -25600.00
00109               3.60   -25600.00
00110               4.60   -25600.00
00111               4.20   -24000.00
00112               3.40   -24000.00
00113               4.60   -24000.00
00114               3.60   -23200.00
00115               3.40   -24000.00
00116               3.60   -22400.00
00117               3.20   -22400.00
00118               3.00   -22400.00
00119               3.40   -20800.00
00120               3.00   -20800.00
00121               2.80   -20000.00
00122               2.00   -20000.00
00123               2.60   -19200.00
00124               2.60   -18400.00
00125               2.40   -18400.00
00126               2.60   -17600.00
00127               2.20   -16800.00
00128               2.00   -16800.00
00129               2.40   -16000.00
00130               1.80   -16000.00
00131               1.40   -15200.00
00132               1.40   -14400.00
00133               1.80   -14400.00
00134               1.20   -13600.00
00135               1.20   -12800.00
00136               1.80   -12800.00
00137               1.00   -11200.00
00138               0.80   -11200.00
00139               1.20   -11200.00
00140               0.40   -10400.00
00141               0.20    -9600.00
00142               0.40    -8800.00
00143               1.00    -8000.00
00144               0.40    -8000.00
00145               0.40    -7200.00
00146               0.60    -7200.00
00147               0.00    -6400.00
00148              -0.20    -4800.00
00149               0.40    -4000.00
00150              -0.40    -4000.00
00151              -0.40    -3200.00
00152               0.40    -2400.00
00153              -0.20    -1600.00
00154              -0.20    -1600.00
00155              -0.40     -800.00
00156              -0.60     -800.00
00157              -0.20        0.00
00158              -0.40      800.00
00159              -0.20     1600.00
00160               3.40     1600.00
00161              -1.20     2400.00
00162              -2.20     3200.00
00163               1.20     3200.00
00164               0.20     3200.00
00165              -1.80     4800.00
00166              11.00     5600.00
00167              25.00     7200.00
00168             -25.00     7200.00
00169             -25.00     8000.00
00170              24.40     8000.00
00171               0.20     8800.00
00172             -25.00     8800.00
00173              25.00     9600.00
00174               0.00     9600.00
00175             -25.00    11200.00
00176              25.00    12000.00
00177             -25.00    11200.00
00178              -5.40    12800.00
00179              25.00    12800.00
00180             -25.00    12800.00
00181              25.00    14400.00
00182             -25.00    14400.00
00183             -24.20    16000.00
00184              25.00    15200.00
00185             -25.00    16000.00
00186              10.20    16800.00
00187              25.00    17600.00
00188             -25.00    17600.00
00189             -14.00    18400.00
00190              25.00    19200.00
00191             -22.60    20000.00
00192             -16.60    20800.00
00193              25.00    20800.00
00194             -25.00    21600.00
00195               7.80    21600.00
00196               5.60    22400.00
00197             -25.00    22400.00
00198              10.20    23200.00
00199              -2.20    24000.00
00200             -14.20    24000.00
00201               5.40    24800.00
00202               0.60    24800.00
00203             -20.60    24800.00
00204               9.20    25600.00
00205              -9.00    26400.00
00206             -12.40    27200.00
00207               6.80    27200.00
00208             -11.40    27200.00
00209              -6.00    27200.00
00210              -1.80    28000.00
00211              -8.20    28800.00
00212              -7.40    28000.00
00213              -2.00    28800.00
00214              -8.80    28800.00
00215              -7.80    28800.00
00216              -3.60    30400.00
00217              -9.40    30400.00
00218              -7.00    30400.00
00219              -2.80    31200.00
00220             -10.80    30400.00
00221              -6.20    31200.00
00222              -6.20    31200.00
00223             -11.80    31200.00
00224              -5.40    31200.00
00225              -9.00    32000.00
00226              -9.80    32800.00
00227              -6.00    32000.00
00228              -9.40    33600.00
00229              -9.80    32800.00
00230              -9.20    32800.00
00231             -10.00    32800.00
00232              -9.80    32800.00
00233              -9.20    32800.00
00234              -9.40    33600.00
00235             -11.00    33600.00
00236              -9.20    33600.00
00237             -10.80    33600.00
00238             -10.80    33600.00
00239              -9.40    33600.00
00240             -13.00    32800.00
00241              -9.20    33600.00
00242             -10.20    33600.00
00243             -12.80    33600.00
00244             -10.20    32800.00
00245              -9.40    33600.00
00246              -9.80    33600.00
00247             -11.80    32800.00
00248             -10.20    32800.00
00249              -9.40    32800.00
00250             -11.00    33600.00
00251              -8.60    32800.00
00252              -9.00    32800.00
00253              -8.60    32000.00
00254              -7.60    32800.00
00255              -9.00    32000.00
00256              -9.40    32000.00
00257              -9.40    32000.00
00258              -7.80    31200.00
00259              -6.80    31200.00
00260              -7.00    31200.00
00261              -6.60    31200.00
00262              -6.80    30400.00
00263              -7.40    29600.00
00264              -7.00    30400.00
00265              -7.60    29600.00
00266              -6.60    30400.00
00267              -5.80    28800.00
00268              -6.60    28800.00
00269              -6.00    28800.00
00270              -5.80    28000.00
00271              -5.60    28000.00
00272              -5.20    27200.00
00273              -5.00    27200.00
00274              -5.20    26400.00
00275              -6.60    26400.00
00276              -5.40    25600.00
00277              -4.40    25600.00
00278              -4.60    24800.00
00279              -3.80    24800.00
00280              -5.00    24800.00
00281              -4.40    24000.00
00282              -3.80    23200.00
00283              -5.80    23200.00
00284              -3.80    22400.00
00285              -3.60    22400.00
00286              -3.40    21600.00
00287              -2.80    21600.00
00288              -3.00    21600.00
00289              -3.80    20800.00
00290              -4.20    19200.00
00291              -3.00    19200.00
00292              -3.40    18400.00
00293              -3.80    18400.00
00294              -2.20    17600.00
00295              -2.20    16800.00
00296              -2.40    16000.00
00297              -2.80    16000.00
00298              -2.60    15200.00
00299              -1.80    15200.00
00300              -2.80    14400.00
00301              -2.20    14400.00
00302              -2.00    13600.00
00303              -3.00    12800.00
00304              -1.20    12800.00
00305              -1.40    12000.00
00306              -2.20    11200.00
00307              -2.00    11200.00
00308              -1.80     9600.00
00309              -2.20     9600.00
00310              -1.40     8800.00
00311              -1.00     8000.00
00312              -1.40     8000.00
00313              -1.20     7200.00
00314              -0.60     6400.00
00315              -1.00     6400.00
00316              -1.20     4800.00
00317              -0.60     4800.00
00318              -1.20     4000.00
00319              -0.60     3200.00
00320              -0.40     2400.00
00321              -0.60     1600.00
00322              -0.40     1600.00
00323              -0.40      800.00
00324              -0.20        0.00
00325               0.20     -800.00
00326               2.60     -800.00
00327               3.00    -1600.00
00328              -1.20    -1600.00
00329               0.80    -2400.00
00330               1.20    -3200.00
00331               1.00    -3200.00
00332               1.20    -4000.00
00333               9.20    -4800.00
00334              25.00    -6400.00
00335              -8.40    -7200.00
00336             -25.00    -8000.00
00337              11.80    -8000.00
00338              20.20    -8800.00
00339             -25.00    -8800.00
00340              -2.60    -8800.00
00341              25.00   -10400.00
00342             -25.00    -9600.00
00343             -13.40   -11200.00
00344              25.00   -11200.00
00345             -25.00   -12000.00
00346              12.20   -12800.00
00347              22.00   -12800.00
00348             -21.40   -13600.00
00349              25.00   -14400.00
00350             -25.00   -14400.00
00351              17.20   -16000.00
00352              25.00   -16000.00
00353             -25.00   -16800.00
00354              19.60   -16800.00
00355              21.20   -17600.00
00356             -25.00   -17600.00
00357               2.60   -18400.00
00358              25.00   -19200.00
00359             -25.00   -19200.00
00360              10.80   -20000.00
00361              23.40   -20800.00
00362             -20.20   -20800.00
00363              15.40   -20800.00
00364               5.00   -22400.00
00365             -10.20   -22400.00
00366              12.60   -23200.00
00367               7.00   -23200.00
00368              -5.20   -24000.00
00369              14.20   -24000.00
00370               3.60   -24800.00
00371              -6.20   -24800.00
00372              15.40   -25600.00
00373              -0.80   -25600.00
00374               2.00   -26400.00
00375              12.20   -26400.00
00376               0.80   -26400.00
00377               4.40   -27200.00
00378               9.00   -27200.00
00379               3.80   -27200.00
00380               5.20   -28000.00
00381               8.60   -28800.00
00382               3.00   -28800.00
00383               6.60   -28800.00
00384               8.80   -29600.00
00385               2.60   -29600.00
00386               8.40   -29600.00
00387              10.00   -30400.00
00388               4.20   -30400.00
00389               9.00   -30400.00
00390               7.60   -30400.00
00391               5.80   -31200.00
00392               9.40   -30400.00
00393               7.20   -31200.00
00394               9.00   -31200.00
00395              10.20   -32000.00
00396               6.80   -32000.00
00397               9.40   -32000.00
00398               9.40   -32000.00
00399               8.20   -32800.00
00400               9.60   -32000.00
00401               9.80   -32000.00
00402               9.20   -32800.00
00403               9.80   -32800.00
00404              10.60   -32800.00
00405               9.00   -32000.00
00406              10.60   -32000.00
00407              11.40   -32800.00
00408              10.00   -32800.00
00409              11.40   -32800.00
00410               9.80   -32800.00
00411              10.00   -32000.00
00412              10.60   -32000.00
00413               9.00   -32000.00
00414              10.00   -32000.00
00415               9.40   -32800.00
00416               9.00   -32000.00
00417               9.40   -32000.00
00418               9.00   -32800.00
00419               8.40   -32000.00
00420               8.40   -32000.00
00421               8.40   -32000.00
00422               7.60   -31200.00
00423               7.80   -30400.00
00424               8.00   -30400.00
00425               7.40   -30400.00
00426               7.40   -30400.00
00427               6.80   -29600.00
00428               6.80   -29600.00
00429               7.00   -29600.00
00430               6.20   -28800.00
00431               6.40   -28800.00
00432               6.60   -28800.00
00433               5.40   -28800.00
00434               5.60   -28800.00
00435               6.60   -28000.00
00436               5.20   -28000.00
00437               5.40   -27200.00
00438               5.20   -27200.00
00439               4.40   -26400.00
00440               5.20   -26400.00
00441               4.60   -26400.00
00442               4.20   -25600.00
00443               4.40   -25600.00
00444               4.40   -24800.00
00445               4.00   -24000.00
00446               4.20   -24000.00
00447               3.60   -23200.00
00448               3.60   -23200.00
00449               3.80   -22400.00
00450               2.60   -22400.00
00451               3.40   -20800.00
00452               3.40   -20800.00
00453               2.80   -20800.00
00454               3.40   -20800.00
00455               2.60   -20000.00
00456               2.60   -18400.00
00457               2.80   -18400.00
00458               2.20   -18400.00
00459               2.60   -17600.00
00460               2.60   -17600.00
00461               2.00   -16800.00
00462               1.80   -16000.00
00463               2.20   -16000.00
00464               1.40   -16000.00
00465               1.40   -14400.00
00466               2.00   -14400.00
00467               1.40   -13600.00
00468               0.60   -13600.00
00469               1.80   -12800.00
00470               1.20   -11200.00
00471               1.00   -11200.00
00472               1.20   -11200.00
00473               0.60    -9600.00
00474               0.40    -9600.00
00475               0.40    -9600.00
00476               0.20    -8000.00
00477               0.60    -8000.00
00478               0.60    -7200.00
00479               0.20    -6400.00
00480               0.20    -6400.00
00481               0.20    -4800.00
00482               0.40    -4800.00
00483              -0.40    -4000.00
00484              -0.60    -4000.00
00485               0.20    -3200.00
00486              -0.20    -2400.00
00487              -0.20    -1600.00
00488               0.00     -800.00
00489              -0.20     -800.00
00490              -0.20        0.00
00491              -0.20      800.00
00492              -0.20     1600.00
00493               1.80     2400.00
00494               0.60     2400.00
00495              -2.80     2400.00
00496               0.40     3200.00
00497               1.20     3200.00
00498              -1.60     4800.00
00499               5.20     4800.00
00500              25.00     7200.00
00501               0.20     7200.00
00502             -25.00     8000.00
00503               6.20     8800.00
00504              21.80     8000.00
00505             -25.00     8800.00
00506              24.20     9600.00
00507              25.00     9600.00
00508             -25.00    10400.00
00509              25.00    11200.00
00510              17.20    12000.00
00511             -25.00    12800.00
00512              25.00    12800.00
00513             -25.00    13600.00
00514              25.00    14400.00
00515              25.00    14400.00
00516             -25.00    15200.00
00517              25.00    16000.00
00518             -22.00    16000.00
00519             -25.00    16800.00
00520              25.00    17600.00
00521             -15.40    17600.00
00522             -25.00    18400.00
00523              21.80    19200.00
00524               5.20    19200.00
00525             -25.00    20000.00
00526              25.00    20800.00
00527             -11.00    20800.00
00528             -17.40    21600.00
00529              24.40    22400.00
00530             -25.00    22400.00
00531              -1.20    23200.00
00532               7.20    24000.00
00533             -15.20    24000.00
00534              -2.40    24800.00
00535              10.60    24800.00
00536             -20.20    24800.00
00537              -1.00    25600.00
00538               3.40    25600.00
00539             -20.20    27200.00
00540               5.20    27200.00
00541              -5.00    27200.00
00542             -10.00    27200.00
00543              -1.00    27200.00
00544              -6.00    28000.00
00545              -9.20    28000.00
00546              -3.40    28800.00
00547              -5.40    28800.00
00548             -10.00    28800.00
00549              -3.60    29600.00
00550              -6.80    29600.00
00551             -10.00    30400.00
00552              -2.60    30400.00
00553              -8.20    31200.00
00554              -9.20    30400.00
00555              -3.80    31200.00
00556             -10.80    31200.00
00557              -7.60    31200.00
00558              -7.00    32800.00
00559             -10.80    32000.00
00560              -6.20    32800.00
00561              -8.40    32800.00
00562              -9.60    32800.00
00563              -8.60    32800.00
00564             -10.20    32000.00
00565              -9.40    33600.00
00566              -8.60    32800.00
00567              -9.40    32800.00
00568             -10.80    32800.00
00569              -9.20    32800.00
00570              -9.80    33600.00
00571             -12.20    33600.00
00572              -9.40    32800.00
00573             -11.60    33600.00
00574             -10.80    33600.00
00575              -8.60    33600.00
00576             -13.00    33600.00
00577             -10.20    33600.00
00578             -10.00    33600.00
00579             -11.00    33600.00
00580              -9.80    33600.00
00581             -10.20    33600.00
00582             -10.20    33600.00
00583              -9.80    32800.00
00584              -9.20    32800.00
00585              -9.20    32800.00
00586              -9.20    32800.00
00587              -8.20    32000.00
00588              -8.60    32000.00
00589              -8.00    32000.00
00590              -8.40    32800.00
00591              -8.60    31200.00
00592              -7.20    31200.00
00593              -7.80    31200.00
00594              -7.60    30400.00
00595              -7.60    30400.00
00596              -7.00    30400.00
00597              -6.20    30400.00
00598              -7.00    29600.00
00599              -6.80    29600.00
00600              -6.20    28800.00
00601              -7.00    28800.00
00602              -6.40    28800.00
00603              -6.00    28000.00
00604              -5.40    28000.00
00605              -5.20    28000.00
00606              -5.40    27200.00
00607              -4.60    27200.00
00608              -5.40    27200.00
00609              -6.40    26400.00
00610              -4.80    25600.00
00611              -3.60    25600.00
00612              -4.60    24800.00
00613              -5.00    24800.00
00614              -4.00    24000.00
00615              -5.00    24000.00
00616              -4.40    23200.00
00617              -3.40    22400.00
00618              -4.60    22400.00
00619              -3.40    21600.00
00620              -3.60    21600.00
00621              -4.20    20800.00
00622              -3.20    20800.00
00623              -3.80    19200.00
00624              -2.80    19200.00
00625              -2.20    18400.00
00626              -3.40    18400.00
00627              -2.80    17600.00
00628              -2.80    17600.00
00629              -3.40    16800.00
00630              -2.80    16000.00
00631              -2.20    15200.00
00632              -2.20    15200.00
00633              -2.00    14400.00
00634              -1.80    14400.00
00635              -2.60    13600.00
00636              -2.20    12800.00
00637              -2.00    12800.00
00638              -2.20    12000.00
00639              -1.40    11200.00
00640              -1.40    11200.00
00641              -2.00     9600.00
00642              -0.60     8800.00
00643              -2.00     8800.00
00644              -1.40     8000.00
00645              -0.60     8000.00
00646              -1.80     7200.00
00647              -1.20     6400.00
00648              -0.60     5600.00
00649              -1.20     5600.00
00650              -0.80     4800.00
00651              -1.20     3200.00
00652              -0.40     3200.00
00653              -0.40     3200.00
00654              -1.00     1600.00
00655              -0.60     1600.00
00656               0.20      800.00
00657              -0.20        0.00
00658               0.20        0.00
00659               1.20        0.00
00660               3.60    -1600.00
00661              -1.20    -1600.00
00662              -0.20    -1600.00
00663               1.40    -3200.00
00664               1.00    -3200.00
00665              -0.40    -4000.00
00666               5.40    -4800.00
00667              21.00    -5600.00
00668              15.60    -7200.00
00669             -25.00    -8000.00
00670             -10.80    -8000.00
00671              25.00    -8000.00
00672             -19.00    -8000.00
00673             -25.00    -8800.00
00674              25.00    -9600.00
00675              10.20   -10400.00
00676             -25.00   -10400.00
00677              25.00   -12000.00
00678             -12.20   -11200.00
00679             -25.00   -12800.00
00680              25.00   -12800.00
00681             -25.00   -13600.00
00682              23.00   -14400.00
00683              -8.60   -14400.00
00684             -13.20   -14400.00
00685              25.00   -16000.00
00686             -25.00   -16000.00
00687              -3.80   -16800.00
00688              25.00   -17600.00
00689             -15.00   -17600.00
00690             -15.00   -18400.00
00691              25.00   -19200.00
00692              -9.80   -20000.00
00693             -13.40   -20000.00
00694              25.00   -20800.00
00695             -13.20   -20800.00
00696               0.40   -21600.00
00697              17.40   -22400.00
00698             -11.80   -22400.00
00699               6.00   -22400.00
00700              12.20   -23200.00
00701              -4.20   -23200.00
00702               7.00   -24000.00
00703              12.20   -24800.00
00704              -8.40   -24800.00
00705              11.00   -25600.00
00706               6.60   -25600.00
00707              -3.80   -26400.00
00708              13.00   -26400.00
00709               3.60   -27200.00
00710               1.60   -27200.00
00711               8.60   -27200.00
00712               5.20   -27200.00
00713               3.60   -28000.00
00714               9.20   -28800.00
00715               5.40   -28800.00
00716               3.40   -28800.00
00717               9.40   -29600.00
00718               4.60   -29600.00
00719               5.80   -29600.00
00720              10.00   -30400.00
00721               5.20   -30400.00
00722               6.80   -30400.00
00723               9.80   -31200.00
00724               5.40   -30400.00
00725               8.40   -31200.00
00726               8.60   -31200.00
00727               7.40   -32000.00
00728               9.60   -32000.00
00729               7.60   -32000.00
00730               8.20   -32000.00
00731               9.40   -32000.00
00732               8.80   -32000.00
00733              10.00   -32000.00
00734               9.00   -32000.00
00735               9.20   -32800.00
00736               9.60   -32000.00
00737              10.60   -32800.00
00738               9.40   -32800.00
00739              10.00   -32000.00
00740              11.60   -32800.00
00741               9.40   -32800.00
00742              10.60   -32800.00
00743              11.00   -32800.00
00744               9.40   -32800.00
00745              10.80   -32800.00
00746               9.80   -32000.00
00747               9.20   -32000.00
00748               9.40   -32000.00
00749               9.00   -32000.00
00750               9.40   -32800.00
00751               9.00   -32000.00
00752               8.60   -32000.00
00753               9.00   -32000.00
00754               8.20   -32000.00
00755               7.60   -31200.00
00756               7.60   -31200.00
00757               7.80   -31200.00
00758               7.00   -31200.00
00759               7.40   -30400.00
00760               7.60   -30400.00
00761               6.80   -29600.00
00762               6.80   -29600.00
00763               6.60   -29600.00
00764               6.00   -29600.00
00765               6.60   -28800.00
00766               6.00   -28800.00
00767               5.80   -28800.00
00768               6.00   -28000.00
00769               5.60   -28000.00
00770               5.40   -27200.00
00771               5.00   -27200.00
00772               4.80   -26400.00
00773               5.20   -25600.00
00774               4.20   -25600.00
00775               4.60   -25600.00
00776               4.40   -25600.00
00777               4.40   -24800.00
00778               4.40   -24800.00
00779               4.40   -24000.00
00780               3.60   -24000.00
00781               3.60   -23200.00
00782               3.60   -23200.00
00783               3.40   -22400.00
00784               3.00   -21600.00
00785               3.00   -21600.00
00786               2.80   -21600.00
00787               3.00   -20800.00
00788               2.60   -20000.00
00789               2.60   -19200.00
00790               2.80   -19200.00
00791               2.20   -18400.00
00792               2.60   -18400.00
00793               2.20   -17600.00
00794               1.80   -16800.00
00795               2.00   -16800.00
00796               2.00   -16000.00
00797               1.60   -16000.00
00798               1.80   -15200.00
00799               1.40   -14400.00
00800               1.20   -14400.00
00801               1.20   -12800.00
00802               1.40   -12800.00
00803               1.20   -12800.00
00804               1.00   -11200.00
00805               1.40   -11200.00
00806               0.80   -10400.00
00807               0.80    -9600.00
00808               0.60    -9600.00
00809               0.40    -8800.00
00810               0.60    -8000.00
00811               0.80    -8000.00
00812               0.40    -7200.00
00813               0.40    -6400.00
00814               0.20    -5600.00
00815              -0.20    -5600.00
00816               0.40    -4000.00
00817               0.20    -3200.00
00818              -0.20    -3200.00
00819               0.40    -3200.00
00820               0.40    -2400.00
00821              -0.60    -1600.00
00822              -0.40     -800.00
00823               0.20     -800.00
00824              -0.40        0.00
00825              -0.40      800.00
00826               1.00     1600.00
00827               3.20     1600.00
00828              -3.00     2400.00
00829              -1.20     3200.00
00830               1.40     4000.00
00831              -1.00     4000.00
00832               0.00     4800.00
00833              18.60     5600.00
00834              25.00     7200.00
00835             -25.00     8000.00
00836             -21.20     8000.00
00837              25.00     8800.00
00838             -23.40     8800.00
00839             -21.40     9600.00
00840              25.00    10400.00
00841             -25.00     9600.00
00842              -5.20    11200.00
00843              25.00    12000.00
00844             -25.00    11200.00
00845              25.00    12800.00
00846              -4.20    12800.00
00847             -25.00    14400.00
00848              25.00    14400.00
00849             -25.00    14400.00
00850              25.00    16000.00
00851              25.00    16000.00
00852             -25.00    16800.00
00853              25.00    16800.00
00854              12.40    17600.00
00855             -25.00    18400.00
00856               2.20    18400.00
00857              23.80    19200.00
00858             -25.00    19200.00
00859               8.40    20800.00
00860              21.00    21600.00
00861             -25.00    21600.00
00862              22.00    22400.00
00863             -13.00    22400.00
00864             -17.20    22400.00
00865              11.20    24000.00
00866              -8.20    24000.00
00867             -10.20    24000.00
00868              10.60    24800.00
00869              -9.80    24800.00
00870             -14.20    25600.00
00871              10.60    25600.00
00872             -17.40    26400.00
00873              -2.80    27200.00
00874               3.00    27200.00
00875             -13.40    27200.00
00876              -2.20    27200.00
00877              -3.00    28000.00
00878             -10.20    28800.00
00879              -5.20    28800.00
00880              -2.80    28800.00
00881             -10.60    28800.00
00882              -6.20    28800.00
00883              -4.60    29600.00
00884             -10.80    29600.00
00885              -4.40    30400.00
00886              -4.00    30400.00
00887             -11.00    31200.00
00888              -3.80    31200.00
00889              -8.80    31200.00
00890             -11.20    31200.00
00891              -5.20    32000.00
00892             -10.60    32800.00
00893              -8.40    32800.00
00894              -6.20    32800.00
00895             -10.00    32800.00
00896              -9.40    32800.00
00897              -9.00    32800.00
00898              -9.40    32800.00
00899             -10.00    33600.00
00900              -8.60    33600.00
00901             -10.20    32800.00
00902             -11.00    33600.00
00903              -8.40    33600.00
00904             -11.20    33600.00
00905             -10.60    33600.00
00906             -10.00    33600.00
00907             -12.20    33600.00
00908             -10.20    33600.00
00909             -11.60    33600.00
00910             -11.20    33600.00
00911              -9.60    33600.00
00912             -10.60    33600.00
00913              -9.40    33600.00
00914             -10.60    33600.00
00915             -10.80    32800.00
00916             -10.20    32800.00
00917              -9.80    32800.00
00918              -9.20    32000.00
00919              -9.80    32800.00
00920              -8.00    32000.00
00921              -8.60    32000.00
00922              -9.00    32000.00
00923              -7.80    32800.00
00924              -9.20    32000.00
00925              -8.60    31200.00
00926              -7.00    31200.00
00927              -8.00    31200.00
00928              -7.40    31200.00
00929              -7.00    30400.00
00930              -6.60    30400.00
00931              -6.60    30400.00
00932              -7.00    29600.00
00933              -7.00    28800.00
00934              -7.40    28800.00
00935              -6.00    28800.00
00936              -5.40    28800.00
00937              -5.80    28000.00
00938              -5.20    27200.00
00939              -5.40    27200.00
00940              -5.40    27200.00
00941              -5.60    26400.00
00942              -6.00    26400.00
00943              -4.60    25600.00
00944              -4.40    25600.00
00945              -4.40    25600.00
00946              -4.40    24800.00
00947              -4.60    24000.00
00948              -4.20    24000.00
00949              -3.80    24000.00
00950              -3.80    23200.00
00951              -4.20    22400.00
00952              -3.80    21600.00
00953              -3.00    21600.00
00954              -4.00    21600.00
00955              -3.80    20800.00
00956              -3.40    20800.00
00957              -3.40    19200.00
00958              -2.80    19200.00
00959              -3.00    18400.00
00960              -3.20    18400.00
00961              -2.80    17600.00
00962              -2.80    16800.00
00963              -2.00    16000.00
00964              -2.60    16000.00
00965              -2.00    15200.00
00966              -2.20    14400.00
00967              -2.20    14400.00
00968              -2.20    13600.00
00969              -2.20    12800.00
00970              -2.20    12000.00
00971              -1.60    12000.00
00972              -1.40    12000.00
00973              -1.60    11200.00
00974              -2.00    11200.00
00975              -1.20     9600.00
00976              -1.40     8800.00
00977              -1.40     8000.00
00978              -0.60     8000.00
00979              -1.80     7200.00
00980              -1.20     6400.00
00981              -0.60     7200.00
00982              -1.20     5600.00
00983              -0.80     4800.00
00984              -1.00     4800.00
00985              -0.60     4000.00
00986              -0.60     3200.00
00987              -1.00     2400.00
00988              -1.00     2400.00
00989              -0.20     1600.00
00990               0.00      800.00
00991               0.20        0.00
00992               0.60        0.00
00993               3.40     -800.00
00994               1.00    -1600.00
00995              -1.80    -1600.00
00996               1.20    -3200.00
00997               1.40    -3200.00
00998              -0.20    -3200.00
00999               2.60    -4000.00
01000              13.80    -4800.00
01001              25.00    -6400.00
01002             -25.00    -7200.00
01003             -25.00    -8000.00
01004              24.40    -8000.00
01005               5.40    -8000.00
01006             -25.00    -8000.00
01007              25.00    -9600.00
01008              25.00   -10400.00
01009             -25.00    -9600.00
01010              25.00   -11200.00
01011              25.00   -11200.00
01012             -25.00   -12000.00
01013              25.00   -12800.00
01014              -7.20   -12800.00
01015              -0.40   -13600.00
01016              19.80   -14400.00
01017             -25.00   -14400.00
01018              25.00   -16000.00
01019              -0.40   -16000.00
01020             -25.00   -16800.00
01021              25.00   -16800.00
01022               4.60   -17600.00
01023             -25.00   -17600.00
01024              18.60   -18400.00
01025              15.00   -19200.00
01026             -25.00   -20000.00
01027              25.00   -20000.00
01028               6.80   -20800.00
01029             -14.80   -22400.00
01030              21.60   -22400.00
01031              -5.40   -22400.00
01032              -3.80   -23200.00
01033              14.60   -23200.00
01034               0.60   -23200.00
01035              -1.20   -24000.00
01036              17.00   -24000.00
01037              -4.40   -24800.00
01038               1.40   -25600.00
01039              14.20   -25600.00
01040              -6.00   -25600.00
01041               8.20   -27200.00
01042               9.20   -26400.00
01043               0.20   -27200.00
01044               7.00   -27200.00
01045               7.60   -27200.00
01046               2.00   -28000.00
01047               7.40   -28800.00
01048               8.20   -28800.00
01049               2.40   -28800.00
01050               8.40   -28800.00
01051               6.80   -29600.00
01052               3.60   -29600.00
01053               9.80   -30400.00
01054               7.00   -29600.00
01055               4.60   -30400.00
01056              10.20   -30400.00
01057               6.20   -30400.00
01058               6.20   -32000.00
01059               9.40   -31200.00
01060               7.00   -31200.00
01061               9.00   -32000.00
01062               9.00   -32000.00
01063               7.40   -32000.00
01064               8.60   -32000.00
01065               9.00   -32000.00
01066               9.00   -32000.00
01067               9.40   -32800.00
01068              10.00   -32000.00
01069               9.20   -32000.00
01070              10.00   -32800.00
01071              10.20   -32800.00
01072               8.60   -32800.00
01073              11.40   -32000.00
01074              10.60   -32800.00
01075               9.80   -32000.00
01076              11.40   -32800.00
01077               9.40   -32800.00
01078              10.20   -32000.00
01079              10.60   -32000.00
01080               9.20   -32800.00
01081              10.00   -32800.00
01082               9.20   -32000.00
01083               8.80   -32000.00
01084               9.40   -32800.00
01085               9.00   -32000.00
01086               8.20   -32000.00
01087               8.40   -32000.00
01088               8.40   -31200.00
01089               7.40   -31200.00
01090               7.80   -30400.00
01091               7.60   -30400.00
01092               7.60   -30400.00
01093               8.40   -29600.00
01094               6.40   -30400.00
01095               5.80   -29600.00
01096               6.80   -29600.00
01097               6.80   -28800.00
01098               6.80   -28800.00
01099               6.60   -28800.00
01100               5.20   -28800.00
01101               5.80   -28800.00
01102               5.80   -28000.00
01103               5.20   -27200.00
01104               5.20   -27200.00
01105               5.40   -26400.00
01106               4.80   -26400.00
01107               5.20   -26400.00
01108               4.40   -25600.00
01109               3.40   -25600.00
01110               4.60   -24800.00
01111               5.00   -24800.00
01112               4.20   -24000.00
01113               4.40   -24000.00
01114               3.00   -23200.00
01115               2.80   -23200.00
01116               4.20   -22400.00
01117               3.40   -22400.00
01118               3.00   -21600.00
01119               3.40   -20800.00
01120               3.00   -20800.00
01121               2.60   -20800.00
01122               2.60   -19200.00
01123               2.60   -19200.00
01124               2.40   -18400.00
01125               2.60   -18400.00
01126               2.20   -18400.00
01127               2.00   -16800.00
01128               2.00   -16800.00
01129               2.00   -16000.00
01130               1.80   -16000.00
01131               1.80   -16000.00
01132               1.40   -14400.00
01133               1.20   -14400.00
01134               1.80   -13600.00
01135               1.40   -12800.00
01136               0.60   -12800.00
01137               1.20   -12000.00
01138               1.40   -11200.00
01139               1.00   -11200.00
01140               1.20   -10400.00
01141               1.00    -9600.00
01142               0.20    -8800.00
01143               1.00    -8000.00
01144               0.40    -8000.00
01145               0.20    -7200.00
01146               1.00    -6400.00
01147               0.20    -6400.00
01148              -0.20    -4800.00
01149               0.60    -4800.00
01150              -0.20    -4000.00
01151              -0.20    -3200.00
01152               0.40    -3200.00
01153              -0.40    -2400.00
01154              -0.20    -1600.00
01155               0.20     -800.00
01156              -0.60        0.00
01157              -0.20        0.00
01158               0.20     1600.00
01159               0.00     1600.00
01160               3.80     1600.00
01161              -1.20     2400.00
01162              -2.20     3200.00
01163               1.20     2400.00
01164               0.20     3200.00
01165              -1.40     4800.00
01166               9.80     4800.00
01167              25.00     7200.00
01168             -25.00     8000.00
01169             -25.00     8000.00
01170              21.20     8000.00
01171               4.60     8000.00
01172             -25.00     8000.00
01173              25.00    10400.00
01174              12.20     9600.00
01175             -25.00    11200.00
01176              25.00    12000.00
01177             -25.00    12000.00
01178             -17.00    12800.00
01179              25.00    12800.00
01180             -25.00    12800.00
01181              25.00    14400.00
01182             -25.00    14400.00
01183             -25.00    15200.00
01184              25.00    15200.00
01185             -25.00    16000.00
01186               2.60    17600.00
01187              25.00    17600.00
01188             -25.00    18400.00
01189             -17.00    19200.00
01190              25.00    19200.00
01191             -17.20    20000.00
01192             -22.00    20800.00
01193              25.00    20800.00
01194             -25.00    20800.00
01195               2.80    21600.00
01196               9.40    22400.00
01197             -25.00    22400.00
01198               8.40    23200.00
01199              -0.60    24000.00
01200             -14.60    24000.00
01201               4.20    24000.00
01202               3.00    24800.00
01203             -21.80    24800.00
01204               7.40    25600.00
01205              -6.20    25600.00
01206             -14.60    26400.00
01207               6.80    26400.00
01208             -10.20    27200.00
01209              -6.80    28000.00
01210              -1.20    28000.00
01211              -8.00    28000.00
01212              -7.80    28800.00
01213              -1.80    28800.00
01214              -8.20    28800.00
01215              -9.00    29600.00
01216              -3.40    30400.00
01217              -9.20    29600.00
01218              -7.60    30400.00
01219              -2.60    31200.00
01220             -10.20    31200.00
01221              -7.00    31200.00
01222              -5.60    31200.00
01223             -11.40    31200.00
01224              -6.00    32000.00
01225              -9.00    32800.00
01226              -9.20    32800.00
01227              -5.60    32800.00
01228              -9.80    32000.00
01229             -10.00    32800.00
01230              -8.60    32800.00
01231             -10.20    32800.00
01232              -9.00    33600.00
01233              -9.00    32800.00
01234              -9.40    32800.00
01235             -11.00    33600.00
01236              -9.00    33600.00
01237             -10.80    32800.00
01238             -11.60    32800.00
01239              -9.20    33600.00
01240             -12.40    33600.00
01241              -9.80    33600.00
01242             -10.00    33600.00
01243             -12.20    33600.00
01244              -9.40    33600.00
01245             -10.80    33600.00
01246             -10.80    33600.00
01247             -10.00    32800.00
01248             -10.80    33600.00
01249             -10.20    32800.00
01250              -9.80    32800.00
01251              -9.00    32000.00
01252              -9.40    32000.00
01253              -9.40    32000.00
01254              -8.40    32000.00
01255              -9.20    32000.00
01256              -8.40    32000.00
01257              -9.00    31200.00
01258              -8.00    31200.00
01259              -7.20    31200.00
01260              -8.20    31200.00
01261              -7.60    31200.00
01262              -7.40    30400.00
01263              -7.60    30400.00
01264              -6.80    30400.00
01265              -7.00    30400.00
01266              -7.00    29600.00
01267              -6.80    28800.00
01268              -6.00    28800.00
01269              -5.60    28800.00
01270              -6.00    28000.00
01271              -5.80    28000.00
01272              -5.40    28000.00
01273              -5.40    27200.00
01274              -5.40    27200.00
01275              -5.80    26400.00
01276              -5.00    25600.00
01277              -4.60    25600.00
01278              -4.60    24800.00
01279              -4.40    24800.00
01280              -4.60    24000.00
01281              -4.20    24800.00
01282              -4.40    24000.00
01283              -3.80    24000.00
01284              -3.60    22400.00
01285              -4.20    22400.00
01286              -3.00    22400.00
01287              -3.40    21600.00
01288              -3.60    20800.00
01289              -3.00    20000.00
01290              -3.00    19200.00
01291              -2.80    19200.00
01292              -4.20    18400.00
01293              -3.20    18400.00
01294              -1.40    17600.00
01295              -2.80    17600.00
01296              -2.20    16000.00
01297              -1.80    16000.00
01298              -3.20    15200.00
01299              -2.20    15200.00
01300              -1.20    14400.00
01301              -2.60    14400.00
01302              -2.60    13600.00
01303              -2.00    12800.00
01304              -2.00    12000.00
01305              -1.80    11200.00
01306              -1.20    11200.00
01307              -2.60    10400.00
01308              -1.20     9600.00
01309               0.00     9600.00
01310              -2.60     8000.00
01311              -2.40     8000.00
01312              -0.80     8000.00
01313              -1.40     6400.00
01314              -1.00     6400.00
01315              -0.40     5600.00
01316              -1.20     5600.00
01317              -1.40     4800.00
01318              -0.40     4000.00
01319              -1.00     3200.00
01320              -1.00     3200.00
01321              -0.40     1600.00
01322              -0.60     1600.00
01323              -0.40      800.00
01324               0.20        0.00
01325               0.20     -800.00
01326               2.00     -800.00
01327               3.00     -800.00
01328              -1.60    -1600.00
01329               1.00    -2400.00
01330               1.80    -3200.00
01331               0.40    -3200.00
01332               0.40    -4000.00
01333               8.40    -4800.00
01334              25.00    -6400.00
01335              -3.60    -7200.00
01336             -25.00    -8000.00
01337               8.20    -8000.00
01338              23.00    -8000.00
01339             -25.00    -8800.00
01340              -9.20    -8000.00
01341              25.00   -10400.00
01342             -25.00   -10400.00
01343             -25.00   -11200.00
01344              25.00   -11200.00
01345             -25.00   -11200.00
01346               4.20   -12800.00
01347              25.00   -13600.00
01348             -24.60   -13600.00
01349              25.00   -14400.00
01350             -25.00   -14400.00
01351              11.60   -15200.00
01352              25.00   -16000.00
01353             -25.00   -16800.00
01354              15.80   -16800.00
01355              24.20   -17600.00
01356             -23.80   -17600.00
01357              -1.00   -18400.00
01358              25.00   -19200.00
01359             -24.60   -20000.00
01360               7.60   -20000.00
01361              25.00   -20800.00
01362             -20.60   -21600.00
01363              14.20   -22400.00
01364               7.60   -22400.00
01365             -11.60   -22400.00
01366              11.80   -23200.00
01367               8.00   -23200.00
01368              -5.80   -24000.00
01369              13.40   -24000.00
01370               5.20   -24000.00
01371              -7.00   -25600.00
01372              15.00   -25600.00
01373               0.20   -25600.00
01374               1.40   -26400.00
01375              12.60   -26400.00
01376               0.40   -27200.00
01377               4.40   -27200.00
01378               8.60   -27200.00
01379               2.80   -28000.00
01380               5.60   -28000.00
01381               9.40   -28800.00
01382               2.80   -28800.00
01383               5.60   -28800.00
01384               9.00   -28800.00
01385               3.00   -29600.00
01386               7.60   -29600.00
01387               9.60   -29600.00
01388               4.20   -30400.00
01389               8.40   -30400.00
01390               8.20   -30400.00
01391               5.20   -31200.00
01392               9.00   -32000.00
01393               7.80   -32000.00
01394               8.40   -32000.00
01395               9.20   -32000.00
01396               7.60   -32000.00
01397               8.40   -32000.00
01398               8.60   -32000.00
01399               8.60   -32000.00
01400               9.40   -32000.00
01401               9.40   -32000.00
01402               9.80   -32000.00
01403               9.20   -32800.00
01404              10.60   -32000.00
01405               9.80   -32800.00
01406               9.80   -32000.00
01407              11.00   -32800.00
01408              10.00   -32800.00
01409              10.80   -32800.00
01410               9.80   -32800.00
01411              10.60   -32800.00
01412              10.60   -32800.00
01413               9.20   -32800.00
01414              10.20   -32800.00
01415               9.00   -32000.00
01416               9.00   -32800.00
01417              10.00   -32000.00
01418               8.60   -32000.00
01419               8.60   -32000.00
01420               9.00   -32000.00
01421               8.40   -32000.00
01422               7.80   -31200.00
01423               8.20   -30400.00
01424               7.80   -31200.00
01425               7.40   -30400.00
01426               7.80   -30400.00
01427               6.80   -30400.00
01428               6.80   -30400.00
01429               7.00   -29600.00
01430               6.60   -29600.00
01431               6.20   -28800.00
01432               6.60   -28800.00
01433               5.80   -28800.00
01434               6.00   -28000.00
01435               6.00   -28800.00
01436               5.40   -27200.00
01437               5.40   -27200.00
01438               4.80   -27200.00
01439               5.00   -26400.00
01440               5.20   -26400.00
01441               4.20   -25600.00
01442               4.40   -25600.00
01443               4.20   -25600.00
01444               3.80   -24800.00
01445               3.80   -24000.00
01446               4.20   -24000.00
01447               3.60   -24000.00
01448               3.40   -23200.00
01449               3.60   -22400.00
01450               2.80   -22400.00
01451               2.80   -22400.00
01452               3.40   -21600.00
01453               2.80   -20000.00
01454               3.40   -20000.00
01455               2.80   -19200.00
01456               2.40   -18400.00
01457               2.60   -18400.00
01458               2.20   -18400.00
01459               2.60   -17600.00
01460               2.00   -17600.00
01461               2.00   -16800.00
01462               2.00   -16000.00
01463               1.80   -16000.00
01464               1.80   -16000.00
01465               1.40   -14400.00
01466               1.40   -14400.00
01467               1.80   -13600.00
01468               1.20   -12800.00
01469               1.20   -12800.00
01470               1.40   -12000.00
01471               1.40   -11200.00
01472               1.00   -11200.00
01473               1.00   -10400.00
01474               1.00    -9600.00
01475               0.60    -9600.00
01476               0.20    -8000.00
01477               1.00    -8000.00
01478               1.00    -8000.00
01479               0.20    -7200.00
01480               0.40    -6400.00
01481               1.00    -5600.00
01482              -0.40    -4800.00
01483               0.20    -4000.00
01484               1.00    -4000.00
01485              -0.40    -3200.00
01486               0.20    -2400.00
01487               0.40    -1600.00
01488              -0.60     -800.00
01489              -0.40     -800.00
01490               0.20        0.00
01491              -0.60      800.00
01492               0.20     1600.00
01493               2.60     1600.00
01494               1.00     1600.00
01495              -2.60     3200.00
01496               0.40     3200.00
01497               0.40     3200.00
01498              -1.40     4800.00
01499               4.60     5600.00
01500              25.00     7200.00
01501               6.00     7200.00
01502             -25.00     7200.00
01503               1.80     8000.00
01504              24.20     8800.00
01505             -25.00     8000.00
01506              14.80     9600.00
01507              25.00    10400.00
01508             -25.00     9600.00
01509              25.00    12000.00
01510              25.00    11200.00
01511             -25.00    12800.00
01512              25.00    12800.00
01513             -25.00    12800.00
01514              20.40    13600.00
01515              25.00    14400.00
01516             -25.00    14400.00
01517              25.00    15200.00
01518             -11.00    16000.00
01519             -25.00    16000.00
01520              25.00    17600.00
01521             -10.60    17600.00
01522             -25.00    18400.00
01523              18.40    19200.00
01524               9.40    19200.00
01525             -25.00    19200.00
01526              25.00    20800.00
01527              -5.00    21600.00
01528             -21.20    21600.00
01529              25.00    21600.00
01530             -25.00    22400.00
01531              -3.40    22400.00
01532               7.60    23200.00
01533             -15.40    24000.00
01534              -2.80    24000.00
01535              11.60    24800.00
01536             -19.80    24800.00
01537              -2.40    25600.00
01538               5.40    25600.00
01539             -21.40    25600.00
01540               5.40    27200.00
01541              -4.00    27200.00
01542             -11.40    27200.00
01543               0.40    28000.00
01544              -6.00    28000.00
01545             -10.60    28800.00
01546              -3.80    28800.00
01547              -3.80    28800.00
01548              -9.20    28800.00
01549              -4.20    29600.00
01550              -6.20    30400.00
01551             -10.20    30400.00
01552              -3.60    31200.00
01553              -7.80    30400.00
01554              -9.20    31200.00
01555              -3.40    31200.00
01556             -10.80    31200.00
01557              -7.80    31200.00
01558              -6.80    31200.00
01559             -11.60    32800.00
01560              -5.80    32800.00
01561              -7.00    32000.00
01562             -10.20    32800.00
01563              -8.80    32800.00
01564              -9.40    32800.00
01565             -10.00    32800.00
01566             -10.20    33600.00
01567              -9.60    32800.00
01568              -9.80    33600.00
01569              -9.40    33600.00
01570              -9.40    32800.00
01571             -11.80    33600.00
01572              -9.80    33600.00
01573             -12.20    33600.00
01574             -11.80    33600.00
01575              -9.20    33600.00
01576             -12.60    33600.00
01577              -9.80    33600.00
01578              -9.40    32800.00
01579             -11.60    33600.00
01580             -10.00    33600.00
01581             -10.60    32800.00
01582             -10.60    33600.00
01583             -10.60    32800.00
01584              -9.40    32800.00
01585              -9.40    32000.00
01586              -9.40    32800.00
01587              -8.20    32000.00
01588              -8.60    32000.00
01589              -8.40    32800.00
01590              -8.60    31200.00
01591              -9.20    31200.00
01592              -7.40    31200.00
01593              -7.80    31200.00
01594              -7.80    31200.00
01595              -6.80    30400.00
01596              -7.40    30400.00
01597              -7.00    30400.00
01598              -6.60    30400.00
01599              -7.40    29600.00
01600              -6.60    28800.00
01601              -6.00    28800.00
01602              -6.00    28800.00
01603              -6.00    28000.00
01604              -5.80    28000.00
01605              -5.40    27200.00
01606              -5.40    27200.00
01607              -4.60    27200.00
01608              -5.80    27200.00
01609              -5.20    25600.00
01610              -5.00    25600.00
01611              -4.60    25600.00
01612              -4.20    24800.00
01613              -5.20    24000.00
01614              -4.40    24000.00
01615              -3.00    24000.00
01616              -4.80    24000.00
01617              -3.80    22400.00
01618              -3.80    22400.00
01619              -4.40    22400.00
01620              -3.00    21600.00
01621              -3.80    21600.00
01622              -3.00    20000.00
01623              -3.00    19200.00
01624              -3.40    19200.00
01625              -2.40    19200.00
01626              -2.80    18400.00
01627              -2.80    18400.00
01628              -2.80    17600.00
01629              -2.20    16800.00
01630              -2.60    16000.00
01631              -2.20    16000.00
01632              -1.60    15200.00
01633              -2.20    15200.00
01634              -2.00    14400.00
01635              -2.00    14400.00
01636              -2.20    12800.00
01637              -2.20    12800.00
01638              -1.80    12000.00
01639              -2.20    11200.00
01640              -1.40    11200.00
01641              -2.00     9600.00
01642              -0.80     9600.00
01643              -1.80     8800.00
01644              -2.00     8000.00
01645              -1.20     8000.00
01646              -1.60     8000.00
01647              -1.80     6400.00
01648              -0.60     5600.00
01649              -1.20     5600.00
01650              -0.60     4800.00
01651              -0.60     4000.00
01652              -0.40     3200.00
01653              -0.60     3200.00
01654              -1.20     1600.00
01655              -1.00     1600.00
01656              -0.20        0.00
01657              -0.40        0.00
01658               0.40        0.00
01659               1.20     -800.00
01660               3.80     -800.00
01661              -0.60    -1600.00
01662              -0.60    -1600.00
01663               1.40    -3200.00
01664               1.00    -3200.00
01665              -0.40    -3200.00
01666               5.20    -4000.00
01667              19.80    -5600.00
01668              18.80    -6400.00
01669             -25.00    -7200.00
01670             -14.80    -8000.00
01671              25.00    -8800.00
01672             -14.60    -8000.00
01673             -25.00    -8000.00
01674              25.00    -9600.00
01675              21.20   -10400.00
01676             -25.00    -9600.00
01677              25.00   -11200.00
01678              -5.20   -11200.00
01679             -25.00   -12800.00
01680              25.00   -12800.00
01681             -25.00   -13600.00
01682              25.00   -14400.00
01683              -5.40   -14400.00
01684             -13.00   -14400.00
01685              25.00   -15200.00
01686             -20.60   -16000.00
01687              -8.80   -16800.00
01688              25.00   -16800.00
01689             -12.20   -17600.00
01690             -16.60   -17600.00
01691              25.00   -18400.00
01692              -5.80   -19200.00
01693             -14.00   -20000.00
01694              25.00   -20000.00
01695             -10.60   -20800.00
01696               0.40   -20800.00
01697              14.80   -22400.00
01698             -13.80   -22400.00
01699               7.40   -22400.00
01700              12.20   -23200.00
01701              -6.20   -23200.00
01702               9.00   -24000.00
01703              15.40   -24000.00
01704              -8.60   -24800.00
01705              10.60   -25600.00
01706               5.40   -25600.00
01707              -7.00   -25600.00
01708              13.40   -26400.00
01709               2.20   -26400.00
01710               2.00   -27200.00
01711              11.40   -27200.00
01712               6.20   -27200.00
01713               3.20   -28000.00
01714               8.40   -28000.00
01715               5.20   -28800.00
01716               1.80   -28800.00
01717               8.20   -28800.00
01718               4.60   -29600.00
01719               5.60   -29600.00
01720              10.80   -29600.00
01721               6.00   -30400.00
01722               7.00   -30400.00
01723               9.00   -30400.00
01724               4.60   -30400.00
01725               8.20   -31200.00
01726               7.60   -31200.00
01727               6.20   -32000.00
01728              10.80   -32000.00
01729               8.40   -32000.00
01730               8.40   -32000.00
01731              10.20   -32000.00
01732               8.60   -32000.00
01733               8.60   -32000.00
01734               9.20   -32800.00
01735               9.00   -32800.00
01736               9.20   -32800.00
01737              11.60   -32800.00
01738               9.80   -32800.00
01739               9.80   -32800.00
01740              11.80   -32800.00
01741               9.60   -32000.00
01742              10.80   -32800.00
01743              10.60   -32800.00
01744               9.00   -32000.00
01745              11.00   -32000.00
01746              10.20   -32000.00
01747               9.20   -32800.00
01748              10.20   -32800.00
01749               9.40   -32000.00
01750               9.40   -32000.00
01751               9.00   -32000.00
01752               8.60   -32000.00
01753               8.40   -32000.00
01754               8.40   -32000.00
01755               8.20   -31200.00
01756               7.60   -30400.00
01757               8.20   -31200.00
01758               7.60   -30400.00
01759               7.40   -30400.00
01760               8.20   -30400.00
01761               6.80   -29600.00
01762               7.00   -29600.00
01763               6.60   -29600.00
01764               5.80   -29600.00
01765               6.20   -28800.00
01766               6.20   -28800.00
01767               5.40   -28800.00
01768               5.80   -28000.00
01769               5.00   -28000.00
01770               5.20   -27200.00
01771               5.00   -27200.00
01772               5.20   -27200.00
01773               4.60   -26400.00
01774               4.60   -26400.00
01775               4.40   -25600.00
01776               4.20   -25600.00
01777               4.40   -25600.00
01778               4.40   -24800.00
01779               4.00   -24000.00
01780               3.60   -24000.00
01781               3.00   -23200.00
01782               3.40   -22400.00
01783               3.20   -22400.00
01784               3.00   -22400.00
01785               3.00   -21600.00
01786               3.00   -20800.00
01787               3.00   -20800.00
01788               2.60   -20000.00
01789               2.60   -19200.00
01790               2.80   -20000.00
01791               2.00   -18400.00
01792               2.60   -17600.00
01793               2.20   -17600.00
01794               1.20   -16800.00
01795               1.80   -16800.00
01796               2.00   -16000.00
01797               2.00   -15200.00
01798               2.20   -15200.00
01799               1.80   -14400.00
01800               1.20   -13600.00
01801               1.20   -12800.00
01802               1.00   -13600.00
01803               1.00   -12800.00
01804               1.20   -11200.00
01805               1.40   -11200.00
01806               1.20   -10400.00
01807               1.40   -10400.00
01808               0.80    -9600.00
01809               0.80    -8000.00
01810               1.20    -8000.00
01811               0.40    -8000.00
01812               0.00    -7200.00
01813               0.60    -6400.00
01814              -0.20    -6400.00
01815               0.60    -4800.00
01816               0.40    -4800.00
01817               0.00    -3200.00
01818               0.60    -3200.00
01819              -0.20    -2400.00
01820              -0.20    -1600.00
01821              -0.20    -1600.00
01822              -0.60     -800.00
01823              -0.40        0.00
01824               0.20        0.00
01825               0.20     1600.00
01826               1.20     1600.00
01827               3.40     1600.00
01828              -2.80     2400.00
01829              -1.00     3200.00
01830               1.00     3200.00
01831              -1.00     4000.00
01832               0.40     4800.00
01833              16.40     5600.00
01834              25.00     7200.00
01835             -25.00     8000.00
01836             -25.00     8000.00
01837              25.00     8000.00
01838             -17.40     8800.00
01839             -25.00     8800.00
01840              25.00    10400.00
01841             -25.00    10400.00
01842             -18.20    11200.00
01843              25.00    11200.00
01844             -25.00    12000.00
01845              25.00    12800.00
01846               6.60    13600.00
01847             -25.00    13600.00
01848              25.00    14400.00
01849             -25.00    14400.00
01850              19.40    15200.00
01851              25.00    16000.00
01852             -25.00    16000.00
01853              25.00    16800.00
01854              17.40    17600.00
01855             -25.00    17600.00
01856              -2.00    18400.00
01857              25.00    19200.00
01858             -25.00    19200.00
01859               3.00    20800.00
01860              25.00    20800.00
01861             -25.00    21600.00
01862              20.00    22400.00
01863              -9.40    22400.00
01864             -20.00    22400.00
01865              11.80    23200.00
01866              -7.00    24000.00
01867             -11.40    24000.00
01868              10.00    24800.00
01869              -7.40    24800.00
01870             -16.40    25600.00
01871              11.00    25600.00
01872             -15.60    26400.00
01873              -5.00    27200.00
01874               4.20    27200.00
01875             -12.60    27200.00
01876              -3.40    27200.00
01877              -3.00    28000.00
01878              -9.40    28000.00
01879              -5.00    28800.00
01880              -2.00    28800.00
01881             -10.00    29600.00
01882              -6.00    28800.00
01883              -4.40    29600.00
01884             -10.60    30400.00
01885              -4.60    30400.00
01886              -3.80    30400.00
01887             -11.00    31200.00
01888              -4.60    31200.00
01889              -7.80    31200.00
01890             -11.00    32000.00
01891              -5.20    32000.00
01892             -10.00    32000.00
01893              -8.40    32800.00
01894              -6.20    32000.00
01895             -10.00    32800.00
01896              -9.40    32000.00
01897              -9.00    32800.00
01898              -9.80    32800.00
01899              -9.80    32800.00
01900              -9.20    33600.00
01901             -10.00    33600.00
01902             -10.80    32800.00
01903              -9.20    33600.00
01904             -11.80    33600.00
01905             -10.60    33600.00
01906             -10.00    33600.00
01907             -12.40    33600.00
01908              -9.00    33600.00
01909             -11.40    33600.00
01910             -12.20    33600.00
01911              -9.40    33600.00
01912             -11.20    33600.00
01913             -10.60    32800.00
01914             -10.20    32800.00
01915             -10.80    33600.00
01916             -10.00    32800.00
01917              -9.40    32800.00
01918              -9.40    32000.00
01919             -10.00    32000.00
01920              -8.60    32800.00
01921              -9.20    32000.00
01922              -9.00    32800.00
01923              -8.20    32000.00
01924              -9.20    32000.00
01925              -7.80    31200.00
01926              -7.00    31200.00
01927              -8.40    30400.00
01928              -7.20    31200.00
01929              -7.00    30400.00
01930              -7.00    30400.00
01931              -6.60    30400.00
01932              -7.00    28800.00
01933              -7.00    28800.00
01934              -6.40    28800.00
01935              -6.00    28800.00
01936              -6.00    28800.00
01937              -5.80    28000.00
01938              -5.40    28000.00
01939              -5.40    27200.00
01940              -5.00    27200.00
01941              -5.20    26400.00
01942              -5.60    26400.00
01943              -4.60    25600.00
01944              -4.60    25600.00
01945              -4.40    24800.00
01946              -4.40    24800.00
01947              -5.00    24800.00
01948              -3.80    24000.00
01949              -4.20    23200.00
01950              -3.80    23200.00
01951              -3.80    22400.00
01952              -3.80    22400.00
01953              -3.60    21600.00
01954              -3.60    21600.00
01955              -3.80    20800.00
01956              -3.60    20800.00
01957              -3.00    19200.00
01958              -2.80    19200.00
01959              -3.00    17600.00
01960              -2.80    18400.00
01961              -2.80    17600.00
01962              -2.80    16800.00
01963              -2.20    16000.00
01964              -2.60    16000.00
01965              -2.40    15200.00
01966              -2.20    15200.00
01967              -2.20    14400.00
01968              -2.20    13600.00
01969              -2.20    12800.00
01970              -2.00    12800.00
01971              -1.80    12000.00
01972              -1.60    11200.00
01973              -1.80    11200.00
01974              -2.20    10400.00
01975              -1.20     9600.00
01976              -1.20     9600.00
01977              -1.80     8000.00
01978              -0.60     8000.00
01979              -1.40     7200.00
01980              -1.80     7200.00
01981              -0.40     6400.00
01982              -1.20     5600.00
01983              -1.20     4800.00
01984              -0.60     4000.00
01985              -1.00     3200.00
01986              -0.60     3200.00
01987              -0.60     2400.00
01988              -1.00     2400.00
01989              -0.20     1600.00
01990               0.00      800.00
01991              -0.20        0.00
01992               1.00        0.00
01993               3.40     -800.00
01994               1.00     -800.00
01995              -1.20    -1600.00
01996               1.40    -2400.00
01997               1.20    -3200.00
01998               0.20    -3200.00
01999               2.20    -4000.00
02000              12.80    -4800.00
02001              25.00    -6400.00
02002             -25.00    -8000.00
02003             -25.00    -8000.00
02004              23.00    -8000.00
02005               9.40    -8800.00
02006             -25.00    -8800.00
02007              22.20    -8800.00
02008              25.00   -10400.00
02009             -25.00    -9600.00
02010              25.00   -11200.00
02011              25.00   -11200.00
02012             -25.00   -12000.00
02013              25.00   -12800.00
02014              -1.20   -13600.00
02015              -4.60   -13600.00
02016              23.40   -14400.00
02017             -25.00   -14400.00
02018              25.00   -14400.00
02019               5.80   -16000.00
02020             -25.00   -16800.00
02021              25.00   -17600.00
02022               8.60   -17600.00
02023             -25.00   -17600.00
02024              15.40   -18400.00
02025              18.60   -19200.00
02026             -25.00   -19200.00
02027              24.20   -20000.00
02028              10.60   -20800.00
02029             -16.60   -21600.00
02030              21.20   -21600.00
02031              -3.60   -22400.00
02032              -5.20   -23200.00
02033              14.60   -23200.00
02034               1.40   -23200.00
02035              -2.20   -24000.00
02036              16.60   -24800.00
02037              -3.00   -24800.00
02038              -0.60   -25600.00
02039              14.60   -25600.00
02040              -5.20   -26400.00
02041               6.80   -26400.00
02042              10.00   -27200.00
02043              -0.20   -27200.00
02044               6.00   -27200.00
02045               7.60   -27200.00
02046               2.00   -28000.00
02047               6.80   -28800.00
02048               8.20   -28800.00
02049               2.00   -28800.00
02050               7.80   -29600.00
02051               7.20   -29600.00
02052               3.40   -28800.00
02053               9.40   -29600.00
02054               7.60   -30400.00
02055               4.20   -30400.00
02056              10.00   -30400.00
02057               6.60   -31200.00
02058               6.00   -31200.00
02059               9.80   -31200.00
02060               7.00   -32000.00
02061               9.00   -32000.00
02062               9.20   -32000.00
02063               7.60   -32000.00
02064               8.80   -32000.00
02065               9.00   -32800.00
02066               8.60   -32000.00
02067               9.40   -32800.00
02068              10.20   -32000.00
02069               9.40   -32800.00
02070              10.20   -32800.00
02071              10.60   -32800.00
02072               9.00   -32800.00
02073              11.20   -32800.00
02074              10.60   -32800.00
02075               9.80   -32800.00
02076              11.60   -32000.00
02077               9.60   -32000.00
02078              10.00   -32800.00
02079              11.00   -32800.00
02080               9.40   -32000.00
02081               9.80   -32800.00
02082               9.80   -32000.00
02083               9.20   -32000.00
02084               9.20   -32000.00
02085               9.00   -32800.00
02086               8.40   -32000.00
02087               8.60   -32000.00
02088               8.60   -32000.00
02089               7.60   -31200.00
02090               7.80   -32000.00
02091               7.80   -30400.00
02092               6.80   -30400.00
02093               7.80   -30400.00
02094               6.80   -30400.00
02095               5.80   -29600.00
02096               6.60   -29600.00
02097               6.40   -29600.00
02098               6.00   -28800.00
02099               6.20   -28800.00
02100               5.40   -28800.00
02101               5.80   -28000.00
02102               5.40   -28000.00
02103               5.00   -27200.00
02104               5.00   -27200.00
02105               5.00   -27200.00
02106               4.20   -26400.00
02107               4.80   -26400.00
02108               4.80   -25600.00
02109               4.40   -25600.00
02110               4.20   -25600.00
02111               4.20   -24800.00
02112               3.40   -24000.00
02113               3.60   -24000.00
02114               3.60   -24000.00
02115               3.60   -23200.00
02116               3.60   -22400.00
02117               2.60   -22400.00
02118               3.20   -21600.00
02119               3.60   -20800.00
02120               2.60   -20800.00
02121               2.20   -20000.00
02122               2.80   -20000.00
02123               2.60   -19200.00
02124               2.60   -18400.00
02125               1.80   -18400.00
02126               3.40   -17600.00
02127               2.80   -17600.00
02128               0.40   -17600.00
02129               2.40   -16000.00
02130               1.80   -16000.00
02131               0.80   -15200.00
02132               2.40   -14400.00
02133               2.20   -14400.00
02134               1.40   -13600.00
02135               2.20   -13600.00
02136               1.60   -12800.00
02137              -0.60   -11200.00
02138               0.60   -11200.00
02139               1.80   -11200.00
02140               0.80   -10400.00
02141               2.00    -9600.00
02142               1.20    -9600.00
02143               0.40    -8000.00
02144               0.60    -8000.00
02145              -0.60    -7200.00
02146               0.40    -6400.00
02147               1.40    -6400.00
02148               0.00    -4800.00
02149               0.40    -4800.00
02150               0.20    -4000.00
02151              -0.20    -3200.00
02152               0.40    -3200.00
02153               0.40    -2400.00
02154               0.40    -1600.00
02155              -1.20     -800.00
02156              -1.20     -800.00
02157               0.00        0.00
02158              -0.40      800.00
02159               0.60     1600.00
02160               4.20     1600.00
02161              -0.60     1600.00
02162              -2.00     2400.00
02163               0.60     3200.00
02164              -1.20     4000.00
02165              -2.00     4000.00
02166               9.20     5600.00
02167              25.00     6400.00
02168             -19.40     7200.00
02169             -25.00     8000.00
02170              18.00     8800.00
02171               8.60     8000.00
02172             -25.00     8800.00
02173              25.00    10400.00
02174              23.60     9600.00
02175             -25.00    11200.00
02176              25.00    11200.00
02177             -25.00    12000.00
02178             -25.00    12800.00
02179              25.00    12800.00
02180             -25.00    12800.00
02181              25.00    14400.00
02182             -14.60    14400.00
02183             -25.00    15200.00
02184              25.00    16000.00
02185             -25.00    16000.00
02186              -4.60    16000.00
02187              25.00    17600.00
02188             -25.00    17600.00
02189             -19.80    18400.00
02190              25.00    19200.00
02191             -12.40    19200.00
02192             -25.00    20800.00
02193              25.00    21600.00
02194             -25.00    20800.00
02195              -1.00    22400.00
02196              13.40    22400.00
02197             -25.00    22400.00
02198               6.80    24000.00
02199               1.20    24000.00
02200             -14.00    24000.00
02201               2.60    24000.00
02202               5.00    24800.00
02203             -21.20    24800.00
02204               6.20    25600.00
02205              -4.60    25600.00
02206             -15.40    27200.00
02207               6.80    27200.00
02208              -9.40    27200.00
02209              -7.00    28000.00
02210              -1.20    27200.00
02211              -8.20    28000.00
02212              -8.40    28800.00
02213              -1.80    28800.00
02214              -8.00    28800.00
02215              -8.40    29600.00
02216              -3.20    28800.00
02217              -9.00    30400.00
02218              -7.80    30400.00
02219              -2.20    30400.00
02220             -10.20    31200.00
02221              -7.00    30400.00
02222              -5.20    31200.00
02223             -11.80    31200.00
02224              -6.00    31200.00
02225              -8.20    31200.00
02226             -10.60    32000.00
02227              -6.00    32800.00
02228              -9.20    32000.00
02229             -10.00    32000.00
02230              -8.60    32800.00
02231             -10.00    33600.00
02232              -9.60    32800.00
02233              -9.20    32800.00
02234              -9.80    33600.00
02235             -11.20    33600.00
02236              -9.20    33600.00
02237             -10.60    33600.00
02238             -11.80    33600.00
02239              -9.20    33600.00
02240             -12.20    33600.00
02241             -10.20    33600.00
02242              -9.80    33600.00
02243             -13.00    33600.00
02244             -10.00    33600.00
02245             -10.60    33600.00
02246             -11.00    32800.00
02247             -10.20    33600.00
02248             -11.00    33600.00
02249             -10.20    33600.00
02250              -9.40    32800.00
02251              -9.20    32000.00
02252              -9.60    32800.00
02253              -9.00    32800.00
02254              -8.60    32000.00
02255              -9.40    31200.00
02256              -7.80    32000.00
02257              -9.00    31200.00
02258              -8.60    31200.00
02259              -6.60    32000.00
02260              -8.40    31200.00
02261              -7.60    31200.00
02262              -6.80    30400.00
02263              -7.40    30400.00
02264              -6.80    29600.00
02265              -6.60    30400.00
02266              -6.80    29600.00
02267              -6.60    28800.00
02268              -6.00    28800.00
02269              -5.80    28000.00
02270              -6.00    28000.00
02271              -5.40    28800.00
02272              -5.40    27200.00
02273              -5.40    27200.00
02274              -5.00    27200.00
02275              -6.00    26400.00
02276              -5.00    25600.00
02277              -4.40    24800.00
02278              -5.00    25600.00
02279              -4.40    24800.00
02280              -4.40    24800.00
02281              -4.40    24000.00
02282              -3.80    24000.00
02283              -4.20    22400.00
02284              -4.20    23200.00
02285              -3.80    22400.00
02286              -3.60    22400.00
02287              -3.60    21600.00
02288              -3.40    21600.00
02289              -3.80    20000.00
02290              -3.80    20000.00
02291              -2.80    19200.00
02292              -3.40    18400.00
02293              -3.20    18400.00
02294              -2.60    17600.00
02295              -3.20    17600.00
02296              -2.60    16800.00
02297              -2.20    16000.00
02298              -2.60    16000.00
02299              -2.60    15200.00
02300              -2.20    14400.00
02301              -2.20    14400.00
02302              -2.60    13600.00
02303              -2.20    12800.00
02304              -1.80    12800.00
02305              -1.80    12000.00
02306              -2.00    11200.00
02307              -2.00    11200.00
02308              -2.00     9600.00
02309              -1.00     9600.00
02310              -2.00     8800.00
02311              -1.20     8000.00
02312              -1.00     7200.00
02313              -1.20     7200.00
02314              -0.80     6400.00
02315              -0.60     5600.00
02316              -1.40     5600.00
02317              -0.60     4800.00
02318              -1.20     3200.00
02319              -0.60     3200.00
02320              -0.60     2400.00
02321              -1.00     2400.00
02322              -0.40     1600.00
02323               0.20     1600.00
02324               0.00        0.00
02325               0.60     -800.00
02326               1.80     -800.00
02327               3.00    -1600.00
02328              -1.40    -1600.00
02329               0.40    -1600.00
02330               1.40    -2400.00
02331               1.00    -3200.00
02332               0.40    -4000.00
02333               7.80    -4800.00
02334              25.00    -5600.00
02335               1.20    -7200.00
02336             -25.00    -7200.00
02337               4.60    -8000.00
02338              24.60    -8000.00
02339             -25.00    -8000.00
02340             -15.00    -8800.00
02341              25.00   -10400.00
02342             -25.00   -10400.00
02343             -25.00   -10400.00
02344              25.00   -12000.00
02345             -25.00   -11200.00
02346              -4.40   -12800.00
02347              25.00   -12800.00
02348             -25.00   -13600.00
02349              25.00   -14400.00
02350             -25.00   -14400.00
02351               7.00   -15200.00
02352              25.00   -16000.00
02353             -25.00   -16000.00
02354              11.80   -16800.00
02355              25.00   -17600.00
02356             -23.00   -17600.00
02357              -4.20   -19200.00
02358              25.00   -19200.00
02359             -22.20   -20000.00
02360               2.20   -20000.00
02361              25.00   -20000.00
02362             -19.40   -20800.00
02363              11.00   -20800.00
02364              10.00   -22400.00
02365             -12.40   -22400.00
02366              10.60   -23200.00
02367               9.20   -23200.00
02368              -6.00   -24000.00
02369              11.80   -24000.00
02370               7.00   -24000.00
02371              -8.20   -25600.00
02372              14.60   -25600.00
02373               1.80   -25600.00
02374              -0.60   -26400.00
02375              13.00   -26400.00
02376               1.40   -27200.00
02377               3.00   -27200.00
02378               9.00   -27200.00
02379               3.60   -28000.00
02380               4.40   -28000.00
02381               9.40   -28800.00
02382               3.80   -29600.00
02383               4.80   -28800.00
02384               9.20   -28800.00
02385               3.80   -29600.00
02386               7.00   -30400.00
02387              10.00   -30400.00
02388               4.20   -30400.00
02389               8.20   -30400.00
02390               8.60   -30400.00
02391               5.20   -30400.00
02392               9.20   -31200.00
02393               8.20   -32000.00
02394               8.00   -32000.00
02395              10.00   -32000.00
02396               7.60   -32000.00
02397               8.20   -32000.00
02398               9.20   -32000.00
02399               8.60   -32000.00
02400               9.40   -32800.00
02401               9.80   -32800.00
02402              10.00   -32800.00
02403               9.80   -32000.00
02404              10.80   -32800.00
02405               9.40   -32800.00
02406              10.00   -32800.00
02407              11.80   -32800.00
02408               9.60   -32800.00
02409              10.60   -32800.00
02410              10.60   -32000.00
02411               9.80   -32800.00
02412              11.40   -32800.00
02413               9.80   -32800.00
02414               9.60   -32800.00
02415              10.00   -32000.00
02416               9.00   -32000.00
02417               9.00   -32000.00
02418               9.40   -32000.00
02419               8.60   -32000.00
02420               8.20   -32000.00
02421               8.60   -32000.00
02422               8.40   -30400.00
02423               7.00   -31200.00
02424               7.60   -30400.00
02425               7.00   -30400.00
02426               6.80   -30400.00
02427               7.00   -29600.00
02428               6.80   -29600.00
02429               7.40   -29600.00
02430               6.20   -29600.00
02431               6.00   -28800.00
02432               6.60   -28800.00
02433               5.40   -28800.00
02434               5.20   -28800.00
02435               5.80   -27200.00
02436               5.00   -27200.00
02437               5.00   -27200.00
02438               5.00   -27200.00
02439               5.20   -26400.00
02440               5.20   -26400.00
02441               4.20   -26400.00
02442               4.20   -25600.00
02443               4.40   -25600.00
02444               3.40   -24800.00
02445               3.60   -24000.00
02446               4.60   -24000.00
02447               3.40   -24000.00
02448               3.60   -23200.00
02449               4.20   -23200.00
02450               2.80   -22400.00
02451               2.40   -21600.00
02452               2.80   -20800.00
02453               2.60   -20800.00
02454               3.00   -20800.00
02455               3.40   -20000.00
02456               2.60   -19200.00
02457               2.20   -19200.00
02458               2.60   -17600.00
02459               2.00   -17600.00
02460               1.80   -17600.00
02461               2.60   -16800.00
02462               2.20   -16000.00
02463               1.40   -16000.00
02464               2.00   -16000.00
02465               1.40   -14400.00
02466               1.80   -14400.00
02467               2.00   -13600.00
02468               1.20   -12800.00
02469               1.20   -12800.00
02470               0.60   -12000.00
02471               1.00   -11200.00
02472               1.80   -10400.00
02473               0.60   -10400.00
02474               0.80    -9600.00
02475               1.60    -8800.00
02476               0.40    -8000.00
02477               0.40    -8000.00
02478               1.40    -7200.00
02479              -0.40    -6400.00
02480              -0.40    -6400.00
02481               1.00    -6400.00
02482               0.40    -4800.00
02483               0.40    -4000.00
02484               0.40    -3200.00
02485               0.40    -3200.00
02486               0.00    -2400.00
02487              -0.60    -1600.00
02488              -0.60     -800.00
02489              -0.60     -800.00
02490              -0.20     -800.00
02491              -0.40        0.00
02492               1.20     1600.00
02493               2.00     1600.00
02494               1.20     2400.00
02495              -2.80     2400.00
02496              -0.40     3200.00
02497               0.20     3200.00
02498              -1.20     4800.00
02499               4.20     4800.00
02500              25.00     6400.00
02501              10.60     8000.00
02502             -25.00     8000.00
02503              -3.00     8000.00
02504              25.00     8800.00
02505             -25.00     8800.00
02506               6.60     9600.00
02507              25.00    10400.00
02508             -25.00    10400.00
02509              25.00    11200.00
02510              25.00    11200.00
02511             -25.00    12800.00
02512              25.00    13600.00
02513             -25.00    12800.00
02514              10.00    14400.00
02515              25.00    14400.00
02516             -25.00    15200.00
02517              25.00    16000.00
02518              -1.20    16000.00
02519             -25.00    17600.00
02520              25.00    17600.00
02521              -6.20    18400.00
02522             -25.00    18400.00
02523              15.20    19200.00
02524              12.80    19200.00
02525             -25.00    20800.00
02526              25.00    20800.00
02527               0.60    21600.00
02528             -23.60    22400.00
02529              25.00    21600.00
02530             -24.40    22400.00
02531              -6.00    23200.00
02532               7.40    24000.00
02533             -12.40    24000.00
02534              -4.60    24000.00
02535              10.60    24800.00
02536             -15.40    25600.00
02537              -6.00    25600.00
02538               5.20    25600.00
02539             -18.80    27200.00
02540               2.40    27200.00
02541              -3.00    27200.00
02542              -9.80    28000.00
02543              -1.40    28000.00
02544              -5.00    28800.00
02545              -9.00    28800.00
02546              -4.20    28800.00
02547              -4.20    28800.00
02548             -10.00    29600.00
02549              -4.60    28800.00
02550              -6.20    29600.00
02551             -10.60    30400.00
02552              -2.80    30400.00
02553              -7.20    30400.00
02554             -10.20    31200.00
02555              -3.40    32000.00
02556             -11.00    31200.00
02557              -8.60    32800.00
02558              -5.80    32000.00
02559             -11.40    32000.00
02560              -7.00    32000.00
02561              -7.60    32800.00
02562             -10.20    32800.00
02563              -8.80    32800.00
02564              -9.60    32800.00
02565             -10.00    32800.00
02566              -9.40    32800.00
02567              -9.20    32800.00
02568             -11.20    33600.00
02569             -10.00    33600.00
02570              -9.20    33600.00
02571             -12.40    33600.00
02572              -9.40    33600.00
02573             -11.00    33600.00
02574             -12.00    33600.00
02575              -9.00    32800.00
02576             -12.40    32800.00
02577             -11.00    33600.00
02578              -9.60    33600.00
02579             -11.40    33600.00
02580             -10.20    33600.00
02581             -10.60    33600.00
02582             -10.20    32000.00
02583             -10.00    33600.00
02584              -9.20    32800.00
02585              -9.40    32800.00
02586              -9.60    32800.00
02587              -7.80    32000.00
02588              -9.20    32800.00
02589              -8.20    32000.00
02590              -7.80    32000.00
02591              -9.00    31200.00
02592              -7.00    31200.00
02593              -7.40    30400.00
02594              -7.80    30400.00
02595              -7.00    31200.00
02596              -7.40    31200.00
02597              -7.00    30400.00
02598              -6.60    29600.00
02599              -6.80    30400.00
02600              -6.80    30400.00
02601              -6.20    28800.00
02602              -5.80    28800.00
02603              -6.00    28800.00
02604              -6.00    28000.00
02605              -5.40    28000.00
02606              -5.60    27200.00
02607              -4.60    27200.00
02608              -6.00    26400.00
02609              -5.20    25600.00
02610              -4.20    25600.00
02611              -5.40    24800.00
02612              -4.20    25600.00
02613              -3.80    24800.00
02614              -5.40    24800.00
02615              -4.20    24000.00
02616              -3.00    24000.00
02617              -4.40    23200.00
02618              -4.20    22400.00
02619              -3.80    22400.00
02620              -3.60    21600.00
02621              -3.80    21600.00
02622              -4.00    20800.00
02623              -2.80    20000.00
02624              -2.80    19200.00
02625              -3.80    18400.00
02626              -3.40    18400.00
02627              -2.20    17600.00
02628              -3.40    17600.00
02629              -2.60    17600.00
02630              -1.80    16000.00
02631              -3.40    16000.00
02632              -2.40    15200.00
02633              -2.60    14400.00
02634              -2.20    14400.00
02635              -2.00    14400.00
02636              -2.20    12800.00
02637              -2.80    12800.00
02638              -1.20    12000.00
02639              -2.00    11200.00
02640              -2.20    11200.00
02641              -1.40    10400.00
02642              -1.20     9600.00
02643              -2.00     9600.00
02644              -1.40     8000.00
02645              -1.00     8000.00
02646              -1.20     7200.00
02647              -1.00     6400.00
02648              -0.40     6400.00
02649              -1.00     5600.00
02650              -1.20     4800.00
02651              -1.80     4000.00
02652              -0.20     3200.00
02653              -0.40     3200.00
02654              -0.60     2400.00
02655              -0.20     1600.00
02656               0.20     1600.00
02657              -1.00      800.00
02658               0.20        0.00
02659               1.40     -800.00
02660               3.80    -1600.00
02661              -0.40    -1600.00
02662              -0.60    -2400.00
02663               1.20    -3200.00
02664               1.20    -3200.00
02665               0.20    -3200.00
02666               5.20    -4000.00
02667              18.80    -4800.00
02668              21.40    -6400.00
02669             -25.00    -7200.00
02670             -19.20    -8000.00
02671              25.00    -8000.00
02672             -10.00    -8800.00
02673             -25.00    -8000.00
02674              25.00    -9600.00
02675              25.00   -10400.00
02676             -25.00    -9600.00
02677              25.00   -12000.00
02678              10.20   -11200.00
02679             -25.00   -12000.00
02680              25.00   -13600.00
02681             -24.60   -12800.00
02682              16.00   -14400.00
02683               2.20   -14400.00
02684             -22.60   -15200.00
02685              25.00   -16000.00
02686             -19.00   -16000.00
02687             -12.40   -16800.00
02688              25.00   -16800.00
02689              -8.60   -18400.00
02690             -19.40   -17600.00
02691              25.00   -18400.00
02692               0.20   -19200.00
02693             -20.40   -20000.00
02694              25.00   -20800.00
02695              -7.00   -20000.00
02696              -5.80   -21600.00
02697              20.60   -22400.00
02698             -10.60   -22400.00
02699               2.20   -22400.00
02700              13.80   -23200.00
02701              -3.60   -24000.00
02702               3.40   -24000.00
02703              14.60   -24000.00
02704              -7.60   -24800.00
02705               8.20   -25600.00
02706               9.40   -25600.00
02707              -5.60   -26400.00
02708              11.80   -26400.00
02709               5.60   -26400.00
02710               0.40   -26400.00
02711               9.00   -27200.00
02712               6.00   -27200.00
02713               1.40   -28000.00
02714               9.20   -28800.00
02715               7.00   -28800.00
02716               2.00   -28800.00
02717               9.20   -28800.00
02718               6.80   -28800.00
02719               3.60   -29600.00
02720              10.20   -29600.00
02721               6.80   -30400.00
02722               5.00   -30400.00
02723              10.20   -30400.00
02724               5.40   -30400.00
02725               7.60   -31200.00
02726               9.80   -31200.00
02727               6.60   -32000.00
02728              10.00   -32000.00
02729               9.00   -32000.00
02730               7.00   -32000.00
02731               9.20   -32000.00
02732               9.20   -32000.00
02733               8.60   -32800.00
02734              10.00   -32000.00
02735              10.60   -32800.00
02736               8.40   -32800.00
02737              10.60   -32800.00
02738              10.00   -32000.00
02739               9.00   -32800.00
02740              11.80   -32000.00
02741              10.00   -32000.00
02742              10.20   -32800.00
02743              11.20   -32800.00
02744               9.00   -32800.00
02745              10.20   -32800.00
02746              10.60   -32800.00
02747               9.80   -32800.00
02748              10.00   -32800.00
02749               9.00   -32000.00
02750               9.00   -32000.00
02751               8.60   -32000.00
02752               9.00   -32000.00
02753               8.20   -32000.00
02754               8.40   -31200.00
02755               8.40   -32000.00
02756               7.40   -32000.00
02757               8.00   -31200.00
02758               7.60   -31200.00
02759               7.20   -30400.00
02760               7.60   -30400.00
02761               6.60   -29600.00
02762               6.60   -30400.00
02763               6.00   -29600.00
02764               5.80   -29600.00
02765               6.60   -28800.00
02766               6.20   -28800.00
02767               5.20   -28800.00
02768               5.80   -28800.00
02769               5.20   -28000.00
02770               5.00   -27200.00
02771               4.60   -27200.00
02772               5.40   -27200.00
02773               5.00   -26400.00
02774               5.00   -26400.00
02775               4.60   -25600.00
02776               4.40   -25600.00
02777               4.20   -25600.00
02778               4.20   -24800.00
02779               3.80   -24000.00
02780               3.60   -24000.00
02781               3.40   -24000.00
02782               3.40   -23200.00
02783               3.40   -22400.00
02784               3.40   -22400.00
02785               3.60   -21600.00
02786               3.00   -20800.00
02787               3.20   -20800.00
02788               2.60   -20000.00
02789               2.20   -20000.00
02790               2.40   -18400.00
02791               2.40   -18400.00
02792               3.00   -18400.00
02793               2.20   -17600.00
02794               2.20   -17600.00
02795               2.20   -16800.00
02796               1.00   -16800.00
02797               1.80   -15200.00
02798               2.20   -15200.00
02799               1.00   -14400.00
02800               1.40   -14400.00
02801               2.00   -13600.00
02802               1.80   -12800.00
02803               1.20   -12000.00
02804               1.40   -11200.00
02805               1.40   -11200.00
02806               0.60   -11200.00
02807               0.80   -10400.00
02808               1.00    -9600.00
02809               1.00    -8800.00
02810               0.40    -8000.00
02811               0.20    -8000.00
02812               1.00    -7200.00
02813               0.40    -6400.00
02814              -0.20    -4800.00
02815               0.40    -5600.00
02816              -0.20    -4000.00
02817              -0.60    -4000.00
02818               0.40    -3200.00
02819               0.40    -3200.00
02820              -0.60    -1600.00
02821               0.00    -1600.00
02822              -0.60     -800.00
02823              -0.60        0.00
02824               0.00        0.00
02825               0.00      800.00
02826               0.60     1600.00
02827               3.60     1600.00
02828              -2.60     2400.00
02829              -1.40     3200.00
02830               1.20     3200.00
02831              -0.60     4000.00
02832              -0.20     4800.00
02833              14.80     5600.00
02834              25.00     7200.00
02835             -25.00     8000.00
02836             -25.00     8000.00
02837              25.00     8800.00
02838             -13.20     8000.00
02839             -25.00     8800.00
02840              25.00    10400.00
02841             -25.00     9600.00
02842             -25.00    11200.00
02843              25.00    11200.00
02844             -25.00    12000.00
02845              23.80    12800.00
02846              16.40    12800.00
02847             -25.00    13600.00
02848              25.00    14400.00
02849             -25.00    15200.00
02850               9.00    15200.00
02851              25.00    16000.00
02852             -25.00    17600.00
02853              25.00    17600.00
02854              20.80    17600.00
02855             -25.00    17600.00
02856              -5.20    18400.00
02857              25.00    19200.00
02858             -25.00    19200.00
02859              -1.00    20800.00
02860              25.00    20800.00
02861             -25.00    21600.00
02862              18.00    22400.00
02863              -6.60    22400.00
02864             -21.40    22400.00
02865              12.20    24000.00
02866              -6.20    24000.00
02867             -11.60    24000.00
02868               9.40    24000.00
02869              -6.00    24800.00
02870             -17.20    25600.00
02871              10.80    25600.00
02872             -14.60    25600.00
02873              -6.60    26400.00
02874               4.40    27200.00
02875             -12.60    26400.00
02876              -3.40    27200.00
02877              -2.80    28000.00
02878              -9.00    28000.00
02879              -5.80    28800.00
02880              -2.20    28800.00
02881              -9.40    28800.00
02882              -6.80    28800.00
02883              -4.40    29600.00
02884             -10.20    30400.00
02885              -5.40    30400.00
02886              -3.80    30400.00
02887             -11.00    31200.00
02888              -5.00    30400.00
02889              -7.80    31200.00
02890             -11.40    32000.00
02891              -5.40    32000.00
02892             -10.00    32000.00
02893              -8.40    32800.00
02894              -6.60    32000.00
02895             -10.00    32000.00
02896              -9.00    32800.00
02897              -9.80    32000.00
02898             -10.00    32800.00
02899              -9.20    33600.00
02900              -9.20    33600.00
02901             -10.20    33600.00
02902             -10.80    33600.00
02903              -8.60    33600.00
02904             -11.80    33600.00
02905             -10.80    33600.00
02906              -9.40    33600.00
02907             -13.00    33600.00
02908              -9.00    33600.00
02909             -11.00    33600.00
02910             -12.40    32800.00
02911              -9.20    33600.00
02912             -11.00    33600.00
02913             -10.60    33600.00
02914             -10.20    33600.00
02915             -10.60    32800.00
02916             -10.00    32800.00
02917              -9.20    32800.00
02918              -9.20    32800.00
02919              -9.80    32000.00
02920              -8.60    32800.00
02921              -8.60    32000.00
02922              -8.60    32000.00
02923              -8.20    32000.00
02924              -9.00    32000.00
02925              -7.60    31200.00
02926              -7.00    31200.00
02927              -8.40    31200.00
02928              -7.00    31200.00
02929              -7.00    31200.00
02930              -7.00    30400.00
02931              -6.80    30400.00
02932              -6.80    29600.00
02933              -6.80    28800.00
02934              -6.40    28800.00
02935              -6.00    28800.00
02936              -5.80    28000.00
02937              -6.00    28800.00
02938              -6.00    28000.00
02939              -5.20    27200.00
02940              -5.20    27200.00
02941              -5.60    27200.00
02942              -5.40    26400.00
02943              -4.60    25600.00
02944              -5.20    25600.00
02945              -4.60    25600.00
02946              -4.40    24000.00
02947              -5.00    24000.00
02948              -4.40    24000.00
02949              -3.80    23200.00
02950              -3.60    23200.00
02951              -4.40    22400.00
02952              -3.80    22400.00
02953              -3.40    22400.00
02954              -4.00    21600.00
02955              -3.60    21600.00
02956              -3.60    20000.00
02957              -3.40    19200.00
02958              -2.80    19200.00
02959              -3.60    19200.00
02960              -3.00    18400.00
02961              -3.00    17600.00
02962              -3.00    17600.00
02963              -2.60    16000.00
02964              -2.60    16000.00
02965              -3.00    16000.00
02966              -2.00    15200.00
02967              -2.60    14400.00
02968              -2.20    13600.00
02969              -2.40    12800.00
02970              -2.20    12800.00
02971              -2.00    12000.00
02972              -1.80    12000.00
02973              -2.00    11200.00
02974              -1.80    10400.00
02975              -1.60     9600.00
02976              -1.00     8800.00
02977              -2.00     8800.00
02978              -1.00     8000.00
02979              -1.60     8000.00
02980              -1.20     7200.00
02981              -0.80     6400.00
02982              -1.20     5600.00
02983              -1.00     5600.00
02984              -0.60     4800.00
02985              -1.00     3200.00
02986              -0.20     3200.00
02987              -0.60     2400.00
02988              -1.00     2400.00
02989              -0.20     1600.00
02990               0.20        0.00
02991              -0.40        0.00
02992               0.60     -800.00
02993               3.00     -800.00
02994               1.20    -1600.00
02995              -1.40    -1600.00
02996               1.80    -2400.00
02997               1.40    -3200.00
02998               0.20    -4000.00
02999               2.20    -4000.00
03000              11.80    -4000.00
03001              25.00    -6400.00
03002             -21.20    -7200.00
03003             -25.00    -7200.00
03004              20.60    -8000.00
03005              12.40    -9600.00
03006             -25.00    -8000.00
03007              15.40    -8800.00
03008              25.00   -10400.00
03009             -25.00   -10400.00
03010              17.20   -11200.00
03011              25.00   -12000.00
03012             -25.00   -12000.00
03013              25.00   -12800.00
03014               5.20   -13600.00
03015              -9.80   -13600.00
03016              25.00   -14400.00
03017             -25.00   -14400.00
03018              25.00   -16000.00
03019              10.60   -16000.00
03020             -25.00   -16800.00
03021              25.00   -16800.00
03022              11.80   -17600.00
03023             -25.00   -17600.00
03024              11.80   -17600.00
03025              21.60   -19200.00
03026             -25.00   -19200.00
03027              21.20   -20800.00
03028              14.20   -20800.00
03029             -18.20   -20800.00
03030              20.40   -21600.00
03031              -1.20   -22400.00
03032              -7.00   -23200.00
03033              14.20   -23200.00
03034               3.40   -24000.00
03035              -3.40   -24000.00
03036              16.20   -24000.00
03037              -1.20   -24000.00
03038              -2.20   -25600.00
03039              14.80   -25600.00
03040              -4.20   -25600.00
03041               5.80   -26400.00
03042              10.80   -26400.00
03043               0.20   -26400.00
03044               6.00   -27200.00
03045               8.20   -27200.00
03046               2.20   -28000.00
03047               6.80   -28800.00
03048               8.40   -28800.00
03049               2.60   -28800.00
03050               7.80   -28800.00
03051               7.60   -29600.00
03052               3.40   -29600.00
03053               9.20   -29600.00
03054               8.20   -30400.00
03055               4.20   -30400.00
03056               9.80   -31200.00
03057               7.40   -30400.00
03058               6.00   -31200.00
03059               9.60   -32000.00
03060               7.40   -32000.00
03061               9.00   -32000.00
03062               9.20   -32000.00
03063               7.60   -32000.00
03064               8.80   -32000.00
03065               9.20   -32000.00
03066               8.60   -32000.00
03067               9.80   -32000.00
03068              10.00   -32000.00
03069               9.80   -32000.00
03070              10.20   -32800.00
03071              10.20   -32800.00
03072               8.60   -32800.00
03073              10.80   -32800.00
03074              10.40   -32800.00
03075               9.40   -32800.00
03076              11.80   -32800.00
03077               9.20   -32000.00
03078              10.00   -32800.00
03079              11.00   -32800.00
03080               9.00   -32000.00
03081               9.80   -32800.00
03082               9.40   -32800.00
03083               9.20   -32000.00
03084               9.00   -32000.00
03085               8.60   -32000.00
03086               8.60   -32000.00
03087               8.40   -32000.00
03088               8.00   -32000.00
03089               7.60   -30400.00
03090               7.80   -31200.00
03091               7.40   -30400.00
03092               6.80   -30400.00
03093               7.80   -30400.00
03094               6.80   -29600.00
03095               6.40   -30400.00
03096               6.80   -29600.00
03097               6.40   -28800.00
03098               6.20   -28800.00
03099               6.00   -28800.00
03100               5.40   -28800.00
03101               5.80   -28800.00
03102               5.60   -28000.00
03103               5.60   -27200.00
03104               5.20   -27200.00
03105               4.60   -27200.00
03106               5.20   -27200.00
03107               4.80   -26400.00
03108               4.20   -25600.00
03109               4.40   -25600.00
03110               4.20   -25600.00
03111               4.20   -24000.00
03112               4.20   -24800.00
03113               4.20   -23200.00
03114               3.80   -24000.00
03115               3.40   -23200.00
03116               3.40   -22400.00
03117               3.00   -22400.00
03118               2.80   -22400.00
03119               2.80   -20800.00
03120               3.40   -20800.00
03121               3.00   -20000.00
03122               2.60   -20000.00
03123               3.00   -19200.00
03124               2.60   -18400.00
03125               2.00   -18400.00
03126               2.60   -17600.00
03127               2.00   -17600.00
03128               2.00   -16800.00
03129               2.00   -16000.00
03130               2.00   -16000.00
03131               2.00   -16000.00
03132               1.80   -14400.00
03133               1.40   -14400.00
03134               1.40   -13600.00
03135               1.00   -12800.00
03136               1.20   -12000.00
03137               1.00   -12800.00
03138               1.20   -11200.00
03139               1.20   -11200.00
03140               0.60   -10400.00
03141               0.60    -9600.00
03142               0.40    -9600.00
03143               0.40    -8800.00
03144               0.40    -8000.00
03145               0.20    -8000.00
03146               0.20    -6400.00
03147               0.20    -6400.00
03148               0.20    -4800.00
03149               0.40    -4800.00
03150              -0.20    -4000.00
03151              -0.20    -3200.00
03152               0.20    -3200.00
03153              -0.40    -2400.00
03154              -0.40    -1600.00
03155              -0.40     -800.00
03156              -0.60     -800.00
03157              -0.20        0.00
03158              -0.20        0.00
03159               0.20     1600.00
03160               3.20     1600.00
03161              -0.20     2400.00
03162              -2.60     3200.00
03163               0.40     3200.00
03164               0.20     4000.00
03165              -1.80     4000.00
03166               7.80     5600.00
03167              25.00     5600.00
03168             -15.00     8000.00
03169             -25.00     8000.00
03170              16.20     8000.00
03171              12.40     8800.00
03172             -25.00     8800.00
03173              25.00     9600.00
03174              25.00     9600.00
03175             -25.00    11200.00
03176              25.00    12000.00
03177             -17.20    11200.00
03178             -25.00    12800.00
03179              25.00    12800.00
03180             -25.00    12800.00
03181              25.00    14400.00
03182              -2.80    14400.00
03183             -25.00    15200.00
03184              25.00    16000.00
03185             -25.00    16000.00
03186             -11.80    16800.00
03187              25.00    17600.00
03188             -25.00    17600.00
03189             -21.40    19200.00
03190              25.00    19200.00
03191              -8.20    20000.00
03192             -25.00    20000.00
03193              25.00    20800.00
03194             -23.60    21600.00
03195              -5.20    21600.00
03196              16.60    22400.00
03197             -25.00    23200.00
03198               5.00    23200.00
03199               2.80    24000.00
03200             -14.00    24000.00
03201               0.20    24000.00
03202               6.60    24800.00
03203             -21.00    25600.00
03204               4.20    25600.00
03205              -2.00    25600.00
03206             -16.60    27200.00
03207               6.20    27200.00
03208              -8.60    27200.00
03209              -8.20    27200.00
03210              -1.20    28000.00
03211              -7.20    28000.00
03212              -9.00    28000.00
03213              -2.20    28800.00
03214              -7.00    28800.00
03215              -9.00    28800.00
03216              -3.40    29600.00
03217              -8.40    29600.00
03218              -8.60    31200.00
03219              -2.80    30400.00
03220             -10.20    31200.00
03221              -7.60    31200.00
03222              -4.60    31200.00
03223             -11.80    31200.00
03224              -6.40    32000.00
03225              -7.80    32000.00
03226             -10.60    31200.00
03227              -6.20    32800.00
03228              -9.00    32000.00
03229             -10.00    32800.00
03230              -9.00    33600.00
03231              -9.60    32800.00
03232              -9.40    32800.00
03233              -9.60    32800.00
03234              -9.40    33600.00
03235             -11.00    33600.00
03236              -9.20    32800.00
03237             -10.20    33600.00
03238             -12.20    33600.00
03239              -9.40    33600.00
03240             -12.20    33600.00
03241             -10.40    33600.00
03242              -9.40    33600.00
03243             -12.40    33600.00
03244              -9.80    33600.00
03245             -10.80    33600.00
03246             -10.80    33600.00
03247              -9.80    33600.00
03248             -10.80    32800.00
03249              -9.80    32800.00
03250              -9.40    32800.00
03251              -9.20    33600.00
03252              -9.80    32800.00
03253              -9.00    32000.00
03254              -9.00    32800.00
03255              -9.20    32000.00
03256              -7.60    31200.00
03257              -9.00    32000.00
03258              -8.20    32000.00
03259              -6.80    31200.00
03260              -8.40    31200.00
03261              -7.40    30400.00
03262              -7.00    31200.00
03263              -8.00    30400.00
03264              -6.20    30400.00
03265              -6.80    30400.00
03266              -7.40    28800.00
03267              -6.20    28800.00
03268              -6.20    28800.00
03269              -6.20    28800.00
03270              -6.40    28000.00
03271              -6.00    28000.00
03272              -5.80    28000.00
03273              -5.40    27200.00
03274              -5.20    26400.00
03275              -5.80    26400.00
03276              -5.20    25600.00
03277              -5.00    25600.00
03278              -4.60    25600.00
03279              -4.40    24800.00
03280              -4.80    24800.00
03281              -4.40    24000.00
03282              -3.80    24000.00
03283              -4.40    22400.00
03284              -3.60    23200.00
03285              -4.20    22400.00
03286              -3.80    22400.00
03287              -3.40    21600.00
03288              -3.80    20800.00
03289              -4.00    20800.00
03290              -3.40    20000.00
03291              -3.20    19200.00
03292              -3.40    19200.00
03293              -2.80    18400.00
03294              -3.00    17600.00
03295              -2.60    17600.00
03296              -2.20    16800.00
03297              -2.60    16000.00
03298              -2.60    16000.00
03299              -2.20    15200.00
03300              -2.80    14400.00
03301              -1.80    14400.00
03302              -2.20    12800.00
03303              -2.20    12800.00
03304              -1.80    12800.00
03305              -1.80    12000.00
03306              -2.00    11200.00
03307              -1.80    10400.00
03308              -1.40     9600.00
03309              -1.00     8800.00
03310              -2.00     8800.00
03311              -1.20     8000.00
03312              -1.20     8000.00
03313              -1.80     7200.00
03314              -1.00     6400.00
03315              -0.80     4800.00
03316              -1.40     4800.00
03317              -0.60     4800.00
03318              -1.20     4000.00
03319              -0.40     3200.00
03320              -0.60     2400.00
03321              -1.00     2400.00
03322              -0.60     1600.00
03323               0.20      800.00
03324              -0.20        0.00
03325               0.60        0.00
03326               2.00     -800.00
03327               2.40     -800.00
03328              -1.20    -1600.00
03329               1.00    -2400.00
03330               1.80    -3200.00
03331               0.60    -4000.00
03332              -0.40    -4000.00
03333               7.60    -4800.00
03334              25.00    -5600.00
03335               4.20    -6400.00
03336             -25.00    -8000.00
03337               1.20    -8000.00
03338              25.00    -8000.00
03339             -25.00    -8800.00
03340             -18.80    -8000.00
03341              25.00   -10400.00
03342             -19.80    -9600.00
03343             -25.00   -10400.00
03344              25.00   -11200.00
03345             -25.00   -11200.00
03346             -12.40   -12800.00
03347              25.00   -13600.00
03348             -25.00   -13600.00
03349              25.00   -14400.00
03350             -22.60   -14400.00
03351               1.80   -15200.00
03352              25.00   -16000.00
03353             -25.00   -16800.00
03354               8.20   -16800.00
03355              25.00   -17600.00
03356             -21.00   -17600.00
03357              -7.00   -18400.00
03358              25.00   -19200.00
03359             -19.20   -19200.00
03360              -1.60   -20000.00
03361              25.00   -20800.00
03362             -18.80   -20800.00
03363               8.60   -21600.00
03364              12.20   -22400.00
03365             -12.60   -22400.00
03366              10.20   -23200.00
03367              10.60   -23200.00
03368              -6.00   -24000.00
03369              11.00   -24000.00
03370               8.20   -24000.00
03371              -8.40   -24800.00
03372              14.20   -25600.00
03373               2.60   -26400.00
03374              -1.20   -26400.00
03375              13.80   -26400.00
03376               1.80   -26400.00
03377               2.60   -27200.00
03378               9.80   -27200.00
03379               4.20   -27200.00
03380               4.20   -28000.00
03381               9.60   -28800.00
03382               4.20   -28800.00
03383               4.40   -28800.00
03384               9.40   -29600.00
03385               3.80   -29600.00
03386               6.80   -29600.00
03387               9.80   -30400.00
03388               5.00   -30400.00
03389               8.20   -30400.00
03390               8.20   -30400.00
03391               5.80   -31200.00
03392               9.00   -31200.00
03393               7.40   -32000.00
03394               8.40   -31200.00
03395              10.20   -32000.00
03396               6.80   -32000.00
03397               8.40   -32000.00
03398               9.60   -32000.00
03399               8.20   -32800.00
03400               9.20   -32000.00
03401              10.00   -32800.00
03402              10.20   -32800.00
03403               9.80   -32800.00
03404              10.60   -32000.00
03405               9.00   -32800.00
03406               9.60   -32800.00
03407              11.20   -32800.00
03408              10.00   -32800.00
03409              11.40   -32800.00
03410              10.00   -32800.00
03411               9.60   -32000.00
03412              10.60   -32000.00
03413               9.00   -32800.00
03414              10.00   -32000.00
03415              10.60   -32800.00
03416               8.40   -32000.00
03417               9.20   -32000.00
03418               9.40   -32000.00
03419               7.80   -32000.00
03420               8.20   -32000.00
03421               9.80   -31200.00
03422               7.60   -32000.00
03423               6.80   -31200.00
03424               8.20   -30400.00
03425               7.00   -31200.00
03426               7.00   -30400.00
03427               8.20   -30400.00
03428               7.00   -29600.00
03429               6.60   -29600.00
03430               6.00   -29600.00
03431               6.00   -28800.00
03432               6.20   -28800.00
03433               5.20   -28800.00
03434               5.40   -28800.00
03435               6.40   -28000.00
03436               5.20   -28800.00
03437               4.40   -27200.00
03438               4.60   -27200.00
03439               5.80   -26400.00
03440               4.20   -26400.00
03441               5.00   -26400.00
03442               5.00   -25600.00
03443               3.40   -25600.00
03444               4.80   -25600.00
03445               4.40   -24800.00
03446               3.40   -24000.00
03447               4.20   -24000.00
03448               3.60   -23200.00
03449               3.40   -23200.00
03450               2.80   -22400.00
03451               2.80   -22400.00
03452               3.60   -20800.00
03453               3.40   -20800.00
03454               3.20   -20800.00
03455               2.80   -20000.00
03456               2.80   -20000.00
03457               2.20   -19200.00
03458               1.80   -17600.00
03459               2.20   -17600.00
03460               2.80   -17600.00
03461               2.80   -16800.00
03462               2.60   -16800.00
03463               2.00   -16000.00
03464               1.20   -16000.00
03465               1.00   -15200.00
03466               0.80   -14400.00
03467               1.20   -13600.00
03468               1.80   -13600.00
03469               2.00   -12800.00
03470               1.00   -12000.00
03471               1.00   -12000.00
03472               1.00   -11200.00
03473               1.00   -10400.00
03474               0.40    -9600.00
03475              -0.20    -9600.00
03476               0.20    -8800.00
03477               1.40    -8000.00
03478               0.40    -7200.00
03479               0.40    -7200.00
03480               1.40    -6400.00
03481               0.20    -6400.00
03482              -0.20    -4800.00
03483               0.40    -4000.00
03484              -0.60    -4000.00
03485              -0.40    -3200.00
03486               0.40    -3200.00
03487              -0.40    -2400.00
03488              -0.40     -800.00
03489               0.20     -800.00
03490              -0.40        0.00
03491              -0.60        0.00
03492               0.20      800.00
03493               1.40     1600.00
03494               2.00     2400.00
03495              -2.40     3200.00
03496              -0.20     3200.00
03497               1.00     3200.00
03498              -1.40     4000.00
03499               2.60     5600.00
03500              23.60     7200.00
03501              15.00     7200.00
03502             -25.00     8000.00
03503              -7.00     8000.00
03504              25.00     8800.00
03505             -25.00     8000.00
03506              -0.20     8800.00
03507              25.00    10400.00
03508             -25.00    10400.00
03509              25.00    12000.00
03510              25.00    12000.00
03511             -25.00    12000.00
03512              25.00    12800.00
03513             -25.00    12800.00
03514              -0.20    14400.00
03515              25.00    14400.00
03516             -25.00    15200.00
03517              25.00    16000.00
03518               8.40    16000.00
03519             -25.00    17600.00
03520              25.00    16800.00
03521              -2.00    18400.00
03522             -25.00    18400.00
03523              12.20    18400.00
03524              17.00    19200.00
03525             -25.00    20000.00
03526              21.60    20800.00
03527               6.00    20800.00
03528             -25.00    22400.00
03529              24.60    22400.00
03530             -21.80    22400.00
03531              -9.40    22400.00
03532               9.00    24000.00
03533             -10.60    24000.00
03534              -7.60    24800.00
03535              11.60    25600.00
03536             -14.20    24800.00
03537              -9.20    25600.00
03538               8.40    25600.00
03539             -20.20    26400.00
03540               0.80    26400.00
03541               0.40    27200.00
03542             -12.60    27200.00
03543              -1.20    28000.00
03544              -3.60    28800.00
03545             -11.40    28800.00
03546              -3.80    28800.00
03547              -3.00    28800.00
03548             -11.40    28800.00
03549              -4.00    28800.00
03550              -5.20    30400.00
03551             -11.00    30400.00
03552              -2.80    30400.00
03553              -6.60    30400.00
03554             -10.60    31200.00
03555              -3.80    31200.00
03556              -9.80    31200.00
03557              -8.60    32000.00
03558              -6.20    32000.00
03559             -10.60    32000.00
03560              -7.00    32800.00
03561              -7.80    32800.00
03562             -10.00    32000.00
03563              -8.80    33600.00
03564             -10.00    32800.00
03565              -9.80    33600.00
03566              -9.40    33600.00
03567              -9.40    33600.00
03568             -10.60    32800.00
03569             -10.20    33600.00
03570              -9.20    33600.00
03571             -11.60    33600.00
03572             -10.00    33600.00
03573             -11.00    33600.00
03574             -11.20    33600.00
03575              -9.20    32800.00
03576             -12.40    33600.00
03577             -10.20    33600.00
03578             -10.00    33600.00
03579             -11.60    33600.00
03580             -10.00    33600.00
03581             -10.60    32800.00
03582             -10.40    33600.00
03583              -9.60    32800.00
03584              -9.20    32800.00
03585              -9.40    32800.00
03586              -9.40    32800.00
03587              -8.40    32000.00
03588              -9.20    32000.00
03589              -8.40    32800.00
03590              -8.20    32000.00
03591              -9.00    31200.00
03592              -7.40    31200.00
03593              -7.60    31200.00
03594              -8.20    31200.00
03595              -7.20    31200.00
03596              -7.80    30400.00
03597              -6.80    30400.00
03598              -6.80    30400.00
03599              -7.00    30400.00
03600              -6.60    29600.00
03601              -6.20    28800.00
03602              -6.20    28800.00
03603              -6.00    28000.00
03604              -5.80    28000.00
03605              -6.00    28000.00
03606              -5.60    27200.00
03607              -5.00    27200.00
03608              -5.80    26400.00
03609              -5.80    26400.00
03610              -4.80    25600.00
03611              -4.40    25600.00
03612              -4.60    24800.00
03613              -5.20    24800.00
03614              -4.40    24000.00
03615              -4.20    24000.00
03616              -5.00    24000.00
03617              -3.20    23200.00
03618              -4.00    22400.00
03619              -4.40    22400.00
03620              -3.00    21600.00
03621              -3.80    21600.00
03622              -3.80    20800.00
03623              -3.40    19200.00
03624              -3.40    19200.00
03625              -2.80    19200.00
03626              -3.40    18400.00
03627              -2.80    18400.00
03628              -2.60    17600.00
03629              -2.80    17600.00
03630              -2.00    16000.00
03631              -2.80    16000.00
03632              -2.20    16000.00
03633              -2.20    14400.00
03634              -2.20    14400.00
03635              -2.20    13600.00
03636              -2.60    13600.00
03637              -1.80    12000.00
03638              -1.80    12000.00
03639              -2.00    12000.00
03640              -1.20    10400.00
03641              -1.80    10400.00
03642              -1.40     9600.00
03643              -1.40     8800.00
03644              -1.80     8000.00
03645              -0.80     8000.00
03646              -1.40     7200.00
03647              -1.20     6400.00
03648              -0.60     7200.00
03649              -1.20     5600.00
03650              -0.80     4800.00
03651              -0.80     4000.00
03652              -0.60     3200.00
03653              -0.40     3200.00
03654              -1.00     2400.00
03655              -1.00     1600.00
03656              -0.20      800.00
03657              -0.40        0.00
03658               0.40     -800.00
03659               0.80     -800.00
03660               3.60    -1600.00
03661              -0.40    -1600.00
03662              -1.20    -2400.00
03663               1.80    -2400.00
03664               1.00    -3200.00
03665              -0.60    -4000.00
03666               4.20    -4000.00
03667              17.40    -5600.00
03668              23.20    -6400.00
03669             -25.00    -7200.00
03670             -22.60    -8000.00
03671              25.00    -8000.00
03672              -6.80    -8000.00
03673             -25.00    -8000.00
03674              25.00    -8800.00
03675              25.00   -10400.00
03676             -25.00   -10400.00
03677              25.00   -11200.00
03678              18.80   -11200.00
03679             -25.00   -12000.00
03680              25.00   -12800.00
03681             -21.80   -12800.00
03682              12.20   -14400.00
03683               6.60   -14400.00
03684             -25.00   -15200.00
03685              25.00   -16000.00
03686             -15.00   -16800.00
03687             -15.00   -16800.00
03688              25.00   -16800.00
03689              -6.00   -17600.00
03690             -21.00   -18400.00
03691              25.00   -19200.00
03692               3.40   -19200.00
03693             -23.00   -20000.00
03694              25.00   -20000.00
03695              -3.80   -20800.00
03696              -7.40   -21600.00
03697              21.60   -22400.00
03698              -9.80   -22400.00
03699               1.40   -22400.00
03700              14.00   -23200.00
03701              -3.00   -24000.00
03702               2.40   -24000.00
03703              15.60   -24800.00
03704              -7.00   -24000.00
03705               6.80   -25600.00
03706              11.40   -25600.00
03707              -5.80   -25600.00
03708              11.20   -26400.00
03709               6.80   -27200.00
03710               0.40   -27200.00
03711               8.20   -27200.00
03712               6.20   -28000.00
03713               2.60   -28000.00
03714               9.00   -28800.00
03715               6.80   -28800.00
03716               2.60   -28800.00
03717               9.40   -29600.00
03718               5.80   -29600.00
03719               4.20   -29600.00
03720              10.20   -29600.00
03721               6.20   -29600.00
03722               5.80   -30400.00
03723              10.40   -30400.00
03724               5.80   -31200.00
03725               7.40   -31200.00
03726               9.20   -32000.00
03727               7.40   -32000.00
03728               9.40   -32000.00
03729               8.40   -32000.00
03730               7.60   -32000.00
03731               9.00   -32000.00
03732               9.00   -32000.00
03733               9.00   -32000.00
03734               9.60   -32800.00
03735              10.00   -32800.00
03736               8.60   -32800.00
03737              10.80   -32000.00
03738               9.80   -32800.00
03739               9.00   -32800.00
03740              11.80   -33600.00
03741               9.40   -32800.00
03742              10.40   -32800.00
03743              11.60   -32800.00
03744               9.00   -32000.00
03745              10.20   -32000.00
03746              10.80   -32000.00
03747               9.20   -32800.00
03748               9.80   -32000.00
03749               9.40   -32000.00
03750               9.40   -32800.00
03751               9.20   -32000.00
03752               9.00   -32000.00
03753               8.40   -32000.00
03754               8.60   -32000.00
03755               8.20   -32000.00
03756               7.60   -31200.00
03757               7.80   -31200.00
03758               7.40   -31200.00
03759               7.40   -30400.00
03760               7.80   -30400.00
03761               6.60   -29600.00
03762               6.60   -29600.00
03763               6.60   -29600.00
03764               6.00   -29600.00
03765               6.40   -28800.00
03766               6.20   -28800.00
03767               5.40   -28800.00
03768               5.80   -28000.00
03769               5.80   -28000.00
03770               5.40   -27200.00
03771               5.20   -27200.00
03772               5.40   -26400.00
03773               5.00   -26400.00
03774               4.60   -26400.00
03775               4.20   -25600.00
03776               4.20   -25600.00
03777               4.60   -25600.00
03778               4.40   -24800.00
03779               3.80   -24000.00
03780               4.20   -24000.00
03781               3.40   -24000.00
03782               3.40   -23200.00
03783               3.60   -22400.00
03784               3.00   -22400.00
03785               3.20   -21600.00
03786               3.00   -20800.00
03787               2.80   -20800.00
03788               2.80   -20000.00
03789               2.60   -20000.00
03790               2.40   -19200.00
03791               2.40   -18400.00
03792               2.20   -17600.00
03793               1.80   -17600.00
03794               2.00   -17600.00
03795               1.80   -16800.00
03796               1.80   -16000.00
03797               1.80   -16000.00
03798               1.80   -14400.00
03799               1.20   -14400.00
03800               1.80   -13600.00
03801               1.20   -13600.00
03802               1.00   -12800.00
03803               1.20   -12800.00
03804               1.20   -11200.00
03805               1.20   -11200.00
03806               1.00   -11200.00
03807               0.80    -9600.00
03808               0.40    -9600.00
03809               0.40    -8800.00
03810               0.40    -8800.00
03811               0.40    -8000.00
03812               0.40    -7200.00
03813               0.60    -6400.00
03814               0.40    -6400.00
03815               0.40    -4800.00
03816               0.40    -4800.00
03817               0.00    -4000.00
03818               0.20    -3200.00
03819               0.00    -3200.00
03820              -0.20    -1600.00
03821              -0.60    -1600.00
03822              -0.60     -800.00
03823              -0.40        0.00
03824              -0.40        0.00
03825               0.20     1600.00
03826               0.60     1600.00
03827               3.60     2400.00
03828              -2.20     2400.00
03829              -1.20     3200.00
03830               1.00     3200.00
03831              -0.60     4000.00
03832              -0.60     4800.00
03833              13.40     5600.00
03834              25.00     8000.00
03835             -25.00     8000.00
03836             -25.00     8000.00
03837              25.00     8800.00
03838              -9.00     8800.00
03839             -25.00     8800.00
03840              25.00     9600.00
03841             -22.40    10400.00
03842             -25.00    11200.00
03843              25.00    11200.00
03844             -25.00    11200.00
03845              15.00    12800.00
03846              24.60    12800.00
03847             -25.00    13600.00
03848              25.00    14400.00
03849             -25.00    14400.00
03850              -1.60    16000.00
03851              25.00    16000.00
03852             -25.00    16000.00
03853              22.60    16800.00
03854              25.00    17600.00
03855             -25.00    17600.00
03856              -8.20    18400.00
03857              25.00    19200.00
03858             -25.00    20000.00
03859              -6.60    20800.00
03860              25.00    20800.00
03861             -25.00    21600.00
03862              14.20    22400.00
03863              -2.00    21600.00
03864             -23.60    22400.00
03865              11.00    24000.00
03866              -4.60    24000.00
03867             -12.80    24000.00
03868               7.80    24800.00
03869              -3.40    24800.00
03870             -19.00    25600.00
03871              10.20    25600.00
03872             -12.60    25600.00
03873              -8.60    26400.00
03874               5.20    27200.00
03875             -12.40    27200.00
03876              -4.40    27200.00
03877              -2.60    28000.00
03878              -9.00    28800.00
03879              -6.20    28800.00
03880              -2.00    28800.00
03881              -9.20    28800.00
03882              -7.00    29600.00
03883              -3.80    30400.00
03884             -10.20    30400.00
03885              -5.80    30400.00
03886              -3.60    30400.00
03887             -11.60    31200.00
03888              -5.00    31200.00
03889              -7.40    32000.00
03890             -11.40    31200.00
03891              -4.60    31200.00
03892             -10.00    32000.00
03893              -8.60    32000.00
03894              -6.00    32800.00
03895             -10.00    32800.00
03896              -9.20    32800.00
03897              -9.20    32800.00
03898             -10.00    32800.00
03899              -9.40    33600.00
03900              -9.40    32000.00
03901             -10.00    33600.00
03902             -10.80    33600.00
03903              -9.20    33600.00
03904             -11.40    33600.00
03905             -10.60    33600.00
03906              -9.80    33600.00
03907             -12.40    33600.00
03908              -8.60    33600.00
03909             -10.80    33600.00
03910             -12.20    33600.00
03911              -9.00    33600.00
03912             -11.00    33600.00
03913             -10.20    33600.00
03914             -10.00    33600.00
03915             -10.80    32800.00
03916             -10.00    32800.00
03917              -9.40    32800.00
03918              -9.40    33600.00
03919              -9.80    32000.00
03920              -8.80    32800.00
03921              -9.00    32000.00
03922              -8.80    32800.00
03923              -7.80    32000.00
03924              -9.00    31200.00
03925              -8.20    31200.00
03926              -7.40    31200.00
03927              -8.20    31200.00
03928              -7.60    31200.00
03929              -7.40    30400.00
03930              -7.40    30400.00
03931              -6.60    30400.00
03932              -7.00    29600.00
03933              -7.00    28800.00
03934              -6.40    29600.00
03935              -6.00    28800.00
03936              -6.00    28000.00
03937              -6.00    28000.00
03938              -5.40    28000.00
03939              -5.80    27200.00
03940              -5.20    27200.00
03941              -5.40    27200.00
03942              -5.80    26400.00
03943              -4.80    25600.00
03944              -5.00    25600.00
03945              -4.60    25600.00
03946              -4.60    24800.00
03947              -4.80    24800.00
03948              -4.20    24000.00
03949              -4.20    24000.00
03950              -3.80    23200.00
03951              -3.80    22400.00
03952              -4.20    22400.00
03953              -3.40    21600.00
03954              -3.60    21600.00
03955              -3.60    20800.00
03956              -3.60    20000.00
03957              -3.40    20000.00
03958              -2.80    19200.00
03959              -3.00    18400.00
03960              -3.00    17600.00
03961              -2.80    17600.00
03962              -2.80    17600.00
03963              -2.20    16000.00
03964              -2.20    16000.00
03965              -2.20    16000.00
03966              -2.60    15200.00
03967              -2.00    14400.00
03968              -2.00    14400.00
03969              -2.60    13600.00
03970              -1.80    12800.00
03971              -1.80    12000.00
03972              -1.80    11200.00
03973              -1.80    11200.00
03974              -2.00    10400.00
03975              -1.40     9600.00
03976              -1.00     8800.00
03977              -2.00     8800.00
03978              -1.00     8000.00
03979              -1.40     8000.00
03980              -1.40     6400.00
03981              -0.60     6400.00
03982              -1.20     5600.00
03983              -1.20     4800.00
03984              -0.60     4800.00
03985              -1.20     3200.00
03986              -0.80     3200.00
03987              -0.40     2400.00
03988              -1.00     2400.00
03989              -0.40     1600.00
03990              -0.20      800.00
03991              -0.20        0.00
03992               0.40     -800.00
03993               2.60     -800.00
03994               1.40    -1600.00
03995              -1.80    -1600.00
03996               1.00    -3200.00
03997               1.40    -3200.00
03998               0.20    -4000.00
03999               1.80    -4800.00
04000              10.80    -4800.00
04001              25.00    -6400.00
04002             -17.40    -7200.00
04003             -25.00    -8000.00
04004              18.00    -8000.00
04005              15.40    -8800.00
04006             -25.00    -8800.00
04007               9.40    -8800.00
04008              25.00   -10400.00
04009             -25.00   -10400.00
04010               8.20   -11200.00
04011              25.00   -11200.00
04012             -25.00   -12000.00
04013              25.00   -12800.00
04014              11.00   -12800.00
04015             -14.00   -14400.00
04016              25.00   -14400.00
04017             -25.00   -14400.00
04018              25.00   -15200.00
04019              14.80   -16000.00
04020             -25.00   -16800.00
04021              25.00   -16800.00
04022              15.40   -17600.00
04023             -25.00   -17600.00
04024              10.60   -18400.00
04025              23.80   -19200.00
04026             -25.00   -19200.00
04027              19.40   -20000.00
04028              17.40   -20800.00
04029             -18.80   -20800.00
04030              20.60   -20800.00
04031               0.00   -22400.00
04032              -9.20   -22400.00
04033              13.80   -23200.00
04034               4.20   -23200.00
04035              -3.80   -24000.00
04036              17.20   -24000.00
04037              -0.20   -25600.00
04038              -3.60   -24800.00
04039              15.80   -25600.00
04040              -4.40   -25600.00
04041               4.20   -26400.00
04042              12.60   -27200.00
04043               0.20   -26400.00
04044               5.00   -27200.00
04045               8.60   -28800.00
04046               2.00   -28000.00
04047               6.60   -28800.00
04048               9.40   -28800.00
04049               2.60   -28800.00
04050               6.60   -29600.00
04051               7.40   -29600.00
04052               3.00   -29600.00
04053               8.80   -29600.00
04054               9.00   -30400.00
04055               4.20   -30400.00
04056               9.60   -31200.00
04057               7.40   -30400.00
04058               5.60   -31200.00
04059               9.00   -31200.00
04060               7.20   -32000.00
04061               8.60   -32000.00
04062              10.00   -32000.00
04063               7.80   -32000.00
04064               9.00   -32000.00
04065               9.40   -32000.00
04066               8.00   -32800.00
04067               9.00   -32800.00
04068              10.00   -32000.00
04069               9.40   -32800.00
04070              10.40   -32800.00
04071              10.80   -32800.00
04072               9.00   -32800.00
04073              11.00   -32800.00
04074              10.20   -32800.00
04075               9.20   -32800.00
04076              11.80   -32800.00
04077               9.80   -32000.00
04078               9.80   -32800.00
04079              11.40   -32000.00
04080               9.20   -32800.00
04081              10.00   -32800.00
04082              10.00   -32000.00
04083               9.20   -32000.00
04084               8.60   -32000.00
04085               9.00   -32000.00
04086               8.40   -32000.00
04087               8.20   -31200.00
04088               9.00   -32000.00
04089               8.40   -31200.00
04090               7.80   -30400.00
04091               7.60   -30400.00
04092               7.00   -30400.00
04093               7.00   -31200.00
04094               6.80   -29600.00
04095               7.00   -29600.00
04096               7.40   -29600.00
04097               6.80   -29600.00
04098               6.40   -29600.00
04099               6.40   -28800.00
04100               5.40   -28800.00
04101               5.40   -28800.00
04102               5.80   -28000.00
04103               5.60   -28000.00
04104               5.20   -27200.00
04105               5.00   -27200.00
04106               5.20   -27200.00
04107               5.00   -26400.00
04108               4.60   -26400.00
04109               4.60   -25600.00
04110               4.40   -25600.00
04111               4.40   -24800.00
04112               3.60   -24000.00
04113               3.80   -24000.00
04114               3.60   -24000.00
04115               3.40   -23200.00
04116               3.20   -22400.00
04117               3.40   -22400.00
04118               3.00   -22400.00
04119               2.80   -20800.00
04120               3.20   -20800.00
04121               3.00   -20000.00
04122               2.60   -20000.00
04123               2.60   -19200.00
04124               2.60   -18400.00
04125               2.20   -18400.00
04126               2.20   -17600.00
04127               2.00   -17600.00
04128               2.00   -16800.00
04129               1.80   -16800.00
04130               1.80   -16000.00
04131               1.60   -15200.00
04132               1.40   -15200.00
04133               1.80   -13600.00
04134               1.60   -13600.00
04135               1.00   -13600.00
04136               1.40   -12800.00
04137               0.80   -12000.00
04138               1.00   -11200.00
04139               1.20   -11200.00
04140               0.80   -10400.00
04141               0.40    -9600.00
04142               0.60    -8800.00
04143               0.60    -8000.00
04144               0.40    -8000.00
04145               0.20    -7200.00
04146               0.40    -6400.00
04147               0.60    -6400.00
04148               0.20    -5600.00
04149              -0.20    -4800.00
04150               0.40    -4000.00
04151               0.40    -3200.00
04152              -0.20    -3200.00
04153               0.20    -1600.00
04154               0.20    -1600.00
04155              -0.60     -800.00
04156              -0.40        0.00
04157               0.20        0.00
04158              -0.40        0.00
04159               0.20     1600.00
04160               3.20     1600.00
04161               0.40     2400.00
04162              -2.40     3200.00
04163               0.40     3200.00
04164               0.60     4800.00
04165              -2.00     4800.00
04166               7.00     4800.00
04167              25.00     7200.00
04168             -10.20     8000.00
04169             -25.00     8000.00
04170              13.40     8000.00
04171              15.80     8000.00
04172             -25.00     8800.00
04173              25.00     9600.00
04174              25.00    10400.00
04175             -25.00    10400.00
04176              25.00    11200.00
04177              -6.40    12000.00
04178             -25.00    12800.00
04179              25.00    12800.00
04180             -25.00    12800.00
04181              25.00    14400.00
04182               7.40    14400.00
04183             -25.00    15200.00
04184              25.00    16000.00
04185             -25.00    16000.00
04186             -19.40    16800.00
04187              25.00    17600.00
04188             -23.00    18400.00
04189             -23.80    18400.00
04190              24.60    19200.00
04191              -3.80    19200.00
04192             -25.00    20000.00
04193              25.00    20800.00
04194             -19.80    20800.00
04195              -9.00    21600.00
04196              18.60    22400.00
04197             -25.00    22400.00
04198               3.60    23200.00
04199               3.00    24000.00
04200             -14.60    24000.00
04201              -0.20    24800.00
04202               7.60    24800.00
04203             -20.40    24800.00
04204               3.00    25600.00
04205              -0.40    25600.00
04206             -17.60    27200.00
04207               5.80    27200.00
04208              -7.60    27200.00
04209              -9.00    27200.00
04210              -1.00    28000.00
04211              -7.00    28000.00
04212              -8.60    28000.00
04213              -2.20    28800.00
04214              -6.60    29600.00
04215              -9.40    28800.00
04216              -3.60    29600.00
04217              -7.80    29600.00
04218              -9.40    30400.00
04219              -2.20    31200.00
04220              -9.40    30400.00
04221              -8.60    30400.00
04222              -4.00    31200.00
04223             -11.00    32000.00
04224              -6.80    31200.00
04225              -7.00    32000.00
04226             -10.80    32000.00
04227              -6.60    32800.00
04228              -8.40    32000.00
04229             -10.80    32800.00
04230              -8.20    32000.00
04231              -9.20    32800.00
04232              -9.80    32800.00
04233              -8.60    33600.00
04234              -9.20    32800.00
04235             -11.80    33600.00
04236              -9.20    33600.00
04237              -9.80    33600.00
04238             -12.80    33600.00
04239              -8.40    33600.00
04240             -11.60    34400.00
04241             -11.00    33600.00
04242              -8.60    33600.00
04243             -13.00    32800.00
04244             -10.20    33600.00
04245              -9.80    32800.00
04246             -11.60    33600.00
04247             -10.20    33600.00
04248             -10.60    33600.00
04249             -10.60    33600.00
04250              -9.40    32800.00
04251              -8.60    32000.00
04252             -10.00    32800.00
04253              -9.20    32800.00
04254              -8.60    32800.00
04255              -9.60    32000.00
04256              -8.00    31200.00
04257              -8.40    32000.00
04258              -9.00    31200.00
04259              -6.80    31200.00
04260              -7.20    31200.00
04261              -8.40    31200.00
04262              -7.40    30400.00
04263              -6.80    30400.00
04264              -7.00    30400.00
04265              -7.00    29600.00
04266              -6.20    29600.00
04267              -7.00    28800.00
04268              -6.80    28800.00
04269              -5.20    28800.00
04270              -6.60    28800.00
04271              -6.00    28000.00
04272              -5.00    28000.00
04273              -5.40    27200.00
04274              -5.40    27200.00
04275              -5.40    27200.00
04276              -5.00    25600.00
04277              -4.20    25600.00
04278              -5.00    24800.00
04279              -4.40    25600.00
04280              -4.60    24800.00
04281              -4.60    24800.00
04282              -3.80    24000.00
04283              -3.80    24000.00
04284              -4.20    22400.00
04285              -3.80    22400.00
04286              -3.00    21600.00
04287              -3.80    21600.00
04288              -3.80    20800.00
04289              -3.40    20800.00
04290              -3.60    20000.00
04291              -3.00    19200.00
04292              -2.80    19200.00
04293              -2.60    18400.00
04294              -2.80    18400.00
04295              -2.80    17600.00
04296              -2.20    16000.00
04297              -2.60    16000.00
04298              -2.80    16000.00
04299              -1.80    15200.00
04300              -2.60    14400.00
04301              -2.20    14400.00
04302              -1.80    12800.00
04303              -1.80    12800.00
04304              -2.60    12800.00
04305              -1.80    12000.00
04306              -0.60    11200.00
04307              -2.00    11200.00
04308              -2.60    10400.00
04309              -0.80     8800.00
04310              -2.00     8800.00
04311              -1.20     8000.00
04312              -0.60     8000.00
04313              -1.80     7200.00
04314              -1.20     7200.00
04315              -1.80     5600.00
04316              -1.20     5600.00
04317               0.20     4800.00
04318              -2.40     4000.00
04319              -0.60     3200.00
04320               0.40     3200.00
04321              -2.00     2400.00
04322              -0.60     1600.00
04323               1.00      800.00
04324              -0.60        0.00
04325              -0.60        0.00
04326               2.00     -800.00
04327               3.60     -800.00
04328              -1.80    -1600.00
04329               0.20    -2400.00
04330               1.80    -3200.00
04331               0.20    -3200.00
04332              -0.20    -4000.00
04333               7.20    -4000.00
04334              23.80    -6400.00
04335               8.40    -7200.00
04336             -25.00    -8000.00
04337              -2.80    -8000.00
04338              25.00    -8000.00
04339             -25.00    -8800.00
04340             -23.60    -8000.00
04341              25.00    -9600.00
04342             -10.20   -10400.00
04343             -25.00   -10400.00
04344              25.00   -11200.00
04345             -25.00   -11200.00
04346             -19.80   -12800.00
04347              25.00   -13600.00
04348             -25.00   -13600.00
04349              25.00   -13600.00
04350             -18.60   -14400.00
04351              -2.20   -15200.00
04352              25.00   -16000.00
04353             -25.00   -16000.00
04354               4.20   -16800.00
04355              25.00   -16800.00
04356             -19.80   -18400.00
04357              -9.60   -17600.00
04358              25.00   -19200.00
04359             -16.20   -19200.00
04360              -4.60   -20000.00
04361              25.00   -20800.00
04362             -17.40   -20800.00
04363               6.20   -21600.00
04364              13.80   -22400.00
04365             -13.20   -22400.00
04366               9.00   -22400.00
04367              11.60   -23200.00
04368              -5.20   -24000.00
04369              10.60   -23200.00
04370              10.20   -24800.00
04371              -9.60   -24800.00
04372              12.60   -25600.00
04373               3.80   -25600.00
04374              -2.80   -25600.00
04375              13.80   -26400.00
04376               3.40   -26400.00
04377               2.40   -27200.00
04378               9.00   -27200.00
04379               3.60   -28000.00
04380               2.80   -28000.00
04381               9.80   -28800.00
04382               4.40   -28800.00
04383               3.80   -29600.00
04384               9.80   -29600.00
04385               3.80   -29600.00
04386               5.40   -29600.00
04387              10.60   -29600.00
04388               4.80   -29600.00
04389               7.40   -30400.00
04390               9.00   -30400.00
04391               5.00   -30400.00
04392               8.20   -31200.00
04393               8.20   -31200.00
04394               8.20   -31200.00
04395              10.00   -32000.00
04396               8.20   -32000.00
04397               8.20   -32000.00
04398               9.00   -32000.00
04399               8.20   -32000.00
04400               9.00   -32800.00
04401               9.80   -32000.00
04402              10.00   -32800.00
04403               9.80   -32800.00
04404              10.80   -32000.00
04405               9.40   -32800.00
04406               9.80   -32800.00
04407              11.00   -32800.00
04408               9.20   -32800.00
04409              11.00   -32800.00
04410              10.60   -32800.00
04411               9.80   -32800.00
04412              11.40   -32800.00
04413              10.00   -32800.00
04414               9.60   -32000.00
04415               9.80   -32000.00
04416               9.40   -32000.00
04417               9.20   -32000.00
04418               9.00   -32000.00
04419               9.00   -32000.00
04420               8.40   -32000.00
04421               8.60   -32000.00
04422               8.20   -32000.00
04423               7.60   -31200.00
04424               8.00   -31200.00
04425               7.40   -30400.00
04426               7.40   -30400.00
04427               7.80   -30400.00
04428               6.80   -30400.00
04429               7.00   -29600.00
04430               6.60   -28800.00
04431               5.80   -29600.00
04432               6.40   -29600.00
04433               6.00   -28800.00
04434               5.40   -28800.00
04435               5.80   -28000.00
04436               5.00   -27200.00
04437               4.80   -27200.00
04438               4.60   -27200.00
04439               5.40   -27200.00
04440               4.80   -26400.00
04441               4.40   -26400.00
04442               4.20   -25600.00
04443               4.40   -25600.00
04444               4.40   -25600.00
04445               3.60   -24800.00
04446               3.80   -24000.00
04447               4.20   -24000.00
04448               3.00   -23200.00
04449               3.60   -23200.00
04450               3.60   -22400.00
04451               2.60   -22400.00
04452               3.40   -22400.00
04453               3.00   -20800.00
04454               2.80   -20000.00
04455               2.60   -20000.00
04456               2.60   -19200.00
04457               2.40   -19200.00
04458               2.60   -18400.00
04459               2.20   -17600.00
04460               2.20   -17600.00
04461               2.20   -16800.00
04462               1.80   -16800.00
04463               1.80   -16000.00
04464               2.00   -16000.00
04465               1.40   -14400.00
04466               1.40   -14400.00
04467               2.00   -13600.00
04468               1.20   -13600.00
04469               1.40   -12800.00
04470               1.40   -12000.00
04471               0.60   -11200.00
04472               1.00   -11200.00
04473               1.20   -10400.00
04474               0.60    -9600.00
04475               0.60    -9600.00
04476               0.60    -8800.00
04477               1.00    -8000.00
04478               0.40    -8000.00
04479               0.40    -7200.00
04480               0.60    -6400.00
04481               0.20    -5600.00
04482               0.40    -5600.00
04483               0.60    -4000.00
04484              -0.40    -4000.00
04485               0.20    -3200.00
04486               0.80    -1600.00
04487              -0.40    -1600.00
04488              -0.60    -1600.00
04489               0.20     -800.00
04490              -0.40     -800.00
04491              -0.40      800.00
04492               0.40     1600.00
04493               1.40     1600.00
04494               2.40     2400.00
04495              -2.80     3200.00
04496              -0.40     3200.00
04497               1.20     3200.00
04498              -1.40     4000.00
04499               2.20     4800.00
04500              22.20     6400.00
04501              18.60     7200.00
04502             -25.00     8000.00
04503             -10.80     8000.00
04504              25.00     8000.00
04505             -25.00     8800.00
04506              -7.40     9600.00
04507              25.00    11200.00
04508             -25.00     9600.00
04509              19.40    11200.00
04510              25.00    12000.00
04511             -25.00    12000.00
04512              25.00    12800.00
04513             -25.00    12800.00
04514              -8.60    14400.00
04515              25.00    14400.00
04516             -25.00    14400.00
04517              25.00    15200.00
04518              16.20    16000.00
04519             -25.00    16800.00
04520              25.00    16800.00
04521               1.20    17600.00
04522             -25.00    17600.00
04523               8.20    18400.00
04524              18.00    19200.00
04525             -25.00    20800.00
04526              17.40    20800.00
04527               8.60    20800.00
04528             -25.00    21600.00
04529              25.00    22400.00
04530             -20.60    22400.00
04531             -11.00    23200.00
04532               9.80    24000.00
04533             -10.80    24000.00
04534              -7.00    24800.00
04535              11.00    24800.00
04536             -14.60    25600.00
04537             -10.00    25600.00
04538               9.40    25600.00
04539             -19.80    26400.00
04540               1.20    27200.00
04541               0.60    27200.00
04542             -14.00    27200.00
04543              -0.60    27200.00
04544              -4.40    28000.00
04545             -11.40    28800.00
04546              -2.20    28800.00
04547              -3.80    28800.00
04548             -11.00    29600.00
04549              -2.80    29600.00
04550              -6.20    30400.00
04551             -11.00    30400.00
04552              -2.80    30400.00
04553              -7.80    30400.00
04554             -10.20    31200.00
04555              -2.80    32000.00
04556             -10.20    32000.00
04557              -9.00    32000.00
04558              -5.40    32000.00
04559             -11.40    32800.00
04560              -7.00    32000.00
04561              -6.80    32800.00
04562             -10.20    32800.00
04563              -9.20    32800.00
04564              -9.20    32800.00
04565             -10.20    33600.00
04566              -9.40    33600.00
04567              -8.60    33600.00
04568             -10.60    33600.00
04569             -10.60    32800.00
04570              -8.80    33600.00
04571             -12.40    33600.00
04572             -10.20    33600.00
04573             -10.60    33600.00
04574             -12.20    33600.00
04575              -9.00    33600.00
04576             -11.80    33600.00
04577             -11.20    33600.00
04578              -9.60    33600.00
04579             -11.80    33600.00
04580             -10.20    32800.00
04581             -10.60    32800.00
04582             -10.80    32000.00
04583              -9.60    32800.00
04584              -9.40    32800.00
04585              -9.40    32000.00
04586              -9.80    32800.00
04587              -8.40    32000.00
04588              -9.20    32800.00
04589              -8.60    32000.00
04590              -8.60    31200.00
04591              -9.20    31200.00
04592              -7.60    31200.00
04593              -7.60    31200.00
04594              -7.80    31200.00
04595              -7.00    31200.00
04596              -7.60    30400.00
04597              -7.00    30400.00
04598              -6.80    30400.00
04599              -7.00    29600.00
04600              -6.20    30400.00
04601              -6.40    28800.00
04602              -6.00    28800.00
04603              -6.00    28800.00
04604              -6.00    28000.00
04605              -5.40    27200.00
04606              -5.40    27200.00
04607              -5.00    27200.00
04608              -5.20    27200.00
04609              -5.60    26400.00
04610              -4.60    25600.00
04611              -4.40    24800.00
04612              -5.00    25600.00
04613              -3.80    24800.00
04614              -4.40    24000.00
04615              -4.40    24000.00
04616              -3.80    24000.00
04617              -3.60    22400.00
04618              -4.40    22400.00
04619              -3.40    22400.00
04620              -3.00    21600.00
04621              -3.80    21600.00
04622              -3.40    20800.00
04623              -3.80    20000.00
04624              -2.80    19200.00
04625              -2.60    19200.00
04626              -4.20    18400.00
04627              -1.80    17600.00
04628              -2.20    17600.00
04629              -3.60    17600.00
04630              -1.60    16000.00
04631              -2.20    16000.00
04632              -3.40    15200.00
04633              -2.20    14400.00
04634              -1.80    14400.00
04635              -2.80    13600.00
04636              -2.60    12800.00
04637              -2.00    12800.00
04638              -2.00    12000.00
04639              -1.80    12000.00
04640              -2.00    11200.00
04641              -2.00     9600.00
04642              -1.00     9600.00
04643              -2.20     8800.00
04644              -1.80     8800.00
04645              -0.60     8000.00
04646              -2.40     7200.00
04647              -0.80     6400.00
04648              -0.20     5600.00
04649              -2.20     5600.00
04650               0.40     4800.00
04651              -0.80     4000.00
04652              -1.40     3200.00
04653              -0.40     3200.00
04654              -0.80     2400.00
04655              -3.00     1600.00
04656              -1.00      800.00
04657               0.00      800.00
04658               0.00        0.00
04659               1.40     -800.00
04660               5.80     -800.00
04661               0.00    -1600.00
04662              -2.00    -2400.00
04663               1.40    -2400.00
04664               0.20    -3200.00
04665              -1.20    -4000.00
04666               3.40    -4000.00
04667              16.20    -4800.00
04668              25.00    -6400.00
04669             -25.00    -7200.00
04670             -25.00    -8000.00
04671              25.00    -8000.00
04672              -2.80    -8000.00
04673             -25.00    -8000.00
04674              25.00    -9600.00
04675              25.00   -10400.00
04676             -25.00    -9600.00
04677              25.00   -11200.00
04678              25.00   -12000.00
04679             -25.00   -12000.00
04680              25.00   -12800.00
04681             -17.60   -12800.00
04682               8.60   -14400.00
04683              10.00   -14400.00
04684             -25.00   -14400.00
04685              25.00   -16000.00
04686             -11.00   -16000.00
04687             -18.20   -16800.00
04688              25.00   -16800.00
04689              -1.00   -17600.00
04690             -22.20   -17600.00
04691              23.20   -19200.00
04692               6.60   -19200.00
04693             -25.00   -19200.00
04694              25.00   -20000.00
04695              -0.80   -20000.00
04696              -9.00   -20800.00
04697              22.20   -21600.00
04698              -8.40   -22400.00
04699               0.20   -22400.00
04700              13.80   -23200.00
04701              -2.80   -23200.00
04702               0.60   -24000.00
04703              15.80   -24800.00
04704              -7.00   -24800.00
04705               5.60   -25600.00
04706              12.80   -25600.00
04707              -5.40   -25600.00
04708              10.60   -26400.00
04709               6.80   -26400.00
04710              -0.20   -27200.00
04711               7.00   -27200.00
04712               6.20   -28000.00
04713               2.20   -28000.00
04714               8.40   -28000.00
04715               7.40   -28800.00
04716               2.60   -28800.00
04717               8.60   -29600.00
04718               5.80   -29600.00
04719               3.80   -29600.00
04720               9.80   -30400.00
04721               6.20   -30400.00
04722               5.20   -30400.00
04723              10.60   -30400.00
04724               5.80   -30400.00
04725               7.00   -30400.00
04726               9.40   -32000.00
04727               7.00   -32000.00
04728               9.40   -32000.00
04729               8.40   -32000.00
04730               7.40   -32000.00
04731               9.00   -32000.00
04732               8.60   -32000.00
04733               9.00   -32000.00
04734              10.00   -32800.00
04735              10.00   -32000.00
04736               9.20   -32800.00
04737              10.60   -32800.00
04738              10.00   -32800.00
04739               9.00   -32800.00
04740              11.40   -32000.00
04741              10.20   -32800.00
04742              10.20   -32800.00
04743              11.40   -32800.00
04744               9.20   -32800.00
04745              10.20   -32800.00
04746              10.60   -32000.00
04747               9.40   -32000.00
04748              10.00   -32800.00
04749               9.80   -32000.00
04750               8.80   -32000.00
04751               9.60   -32000.00
04752               9.00   -32000.00
04753               8.00   -32000.00
04754               9.00   -32000.00
04755               8.40   -32000.00
04756               7.40   -30400.00
04757               8.20   -31200.00
04758               7.60   -30400.00
04759               6.80   -30400.00
04760               8.20   -30400.00
04761               6.60   -30400.00
04762               6.60   -29600.00
04763               6.80   -29600.00
04764               6.00   -28800.00
04765               6.00   -29600.00
04766               6.60   -28800.00
04767               5.40   -28800.00
04768               5.40   -28800.00
04769               5.60   -28000.00
04770               5.20   -27200.00
04771               5.00   -27200.00
04772               5.20   -26400.00
04773               4.60   -26400.00
04774               4.60   -26400.00
04775               4.40   -26400.00
04776               4.20   -25600.00
04777               4.60   -25600.00
04778               4.20   -24000.00
04779               3.60   -24000.00
04780               3.80   -24000.00
04781               3.00   -23200.00
04782               3.20   -23200.00
04783               3.40   -23200.00
04784               3.00   -22400.00
04785               3.40   -22400.00
04786               3.00   -20800.00
04787               2.80   -20800.00
04788               2.60   -20000.00
04789               2.40   -20000.00
04790               2.20   -19200.00
04791               2.20   -18400.00
04792               2.60   -18400.00
04793               2.20   -17600.00
04794               2.00   -17600.00
04795               2.20   -16000.00
04796               1.80   -16000.00
04797               2.00   -16000.00
04798               1.80   -15200.00
04799               1.20   -14400.00
04800               1.80   -14400.00
04801               1.40   -13600.00
04802               1.20   -12800.00
04803               1.40   -12000.00
04804               1.40   -11200.00
04805               1.40   -11200.00
04806               1.20   -11200.00
04807               0.40   -10400.00
04808               0.60    -9600.00
04809               0.40    -9600.00
04810               0.60    -8800.00
04811               0.60    -7200.00
04812               0.60    -7200.00
04813               0.60    -6400.00
04814               0.80    -6400.00
04815               0.40    -4800.00
04816               0.40    -4000.00
04817               0.20    -4000.00
04818              -0.20    -3200.00
04819               0.20    -3200.00
04820              -0.20    -1600.00
04821              -0.20    -1600.00
04822              -0.40     -800.00
04823              -0.20        0.00
04824              -0.20        0.00
04825               0.20      800.00
04826               0.40     1600.00
04827               3.40     1600.00
04828              -1.80     2400.00
04829              -1.40     3200.00
04830               1.00     3200.00
04831              -0.40     4000.00
04832              -0.60     4800.00
04833              11.80     5600.00
04834              25.00     7200.00
04835             -25.00     7200.00
04836             -25.00     8000.00
04837              25.00     8000.00
04838              -4.60     8000.00
04839             -25.00     8800.00
04840              25.00    10400.00
04841             -11.80     9600.00
04842             -25.00    11200.00
04843              25.00    12000.00
04844             -25.00    12000.00
04845               5.80    12800.00
04846              25.00    12800.00
04847             -25.00    13600.00
04848              25.00    14400.00
04849             -25.00    15200.00
04850             -12.40    15200.00
04851              25.00    16000.00
04852             -25.00    16800.00
04853              17.00    17600.00
04854              25.00    17600.00
04855             -25.00    18400.00
04856             -11.40    18400.00
04857              25.00    19200.00
04858             -25.00    19200.00
04859             -11.00    20800.00
04860              25.00    20800.00
04861             -25.00    21600.00
04862              11.40    22400.00
04863               1.20    22400.00
04864             -24.80    22400.00
04865              10.60    23200.00
04866              -3.40    24000.00
04867             -13.40    24000.00
04868               6.80    24800.00
04869              -1.20    25600.00
04870             -19.80    25600.00
04871              10.00    25600.00
04872             -10.80    25600.00
04873             -10.20    26400.00
04874               6.00    27200.00
04875             -12.00    28000.00
04876              -5.00    28000.00
04877              -2.00    28000.00
04878              -8.60    28800.00
04879              -6.80    28800.00
04880              -1.40    28800.00
04881              -9.00    29600.00
04882              -7.60    29600.00
04883              -3.60    30400.00
04884             -10.00    30400.00
04885              -6.80    30400.00
04886              -3.00    31200.00
04887             -11.00    31200.00
04888              -5.80    31200.00
04889              -6.60    31200.00
04890             -11.40    32000.00
04891              -5.60    32800.00
04892              -9.40    32000.00
04893              -9.00    32000.00
04894              -6.00    32800.00
04895             -10.00    32800.00
04896              -9.60    32000.00
04897              -9.00    33600.00
04898             -10.20    32800.00
04899              -9.40    33600.00
04900              -9.40    33600.00
04901             -10.20    33600.00
04902             -11.00    33600.00
04903              -9.20    33600.00
04904             -11.60    33600.00
04905             -11.00    33600.00
04906              -9.20    33600.00
04907             -12.80    33600.00
04908              -9.40    33600.00
04909             -10.60    33600.00
04910             -12.60    33600.00
04911              -9.40    33600.00
04912             -11.00    33600.00
04913             -10.80    33600.00
04914             -10.20    33600.00
04915             -11.00    33600.00
04916             -10.00    33600.00
04917              -9.80    32000.00
04918              -9.40    33600.00
04919              -9.80    32800.00
04920              -9.00    32000.00
04921              -9.20    32800.00
04922              -8.60    32800.00
04923              -7.80    31200.00
04924              -9.20    32000.00
04925              -8.20    31200.00
04926              -7.00    31200.00
04927              -8.60    32000.00
04928              -7.60    31200.00
04929              -7.00    31200.00
04930              -7.20    30400.00
04931              -6.60    30400.00
04932              -7.00    30400.00
04933              -6.80    29600.00
04934              -6.60    28800.00
04935              -6.00    28800.00
04936              -5.60    28800.00
04937              -6.00    28000.00
04938              -5.40    28000.00
04939              -5.80    27200.00
04940              -5.40    27200.00
04941              -5.00    27200.00
04942              -5.80    26400.00
04943              -4.60    25600.00
04944              -4.60    25600.00
04945              -4.60    25600.00
04946              -4.40    24800.00
04947              -4.60    24800.00
04948              -4.20    24000.00
04949              -3.80    24000.00
04950              -3.80    23200.00
04951              -3.80    22400.00
04952              -4.20    22400.00
04953              -3.60    21600.00
04954              -3.60    21600.00
04955              -3.60    21600.00
04956              -3.20    20000.00
04957              -3.40    19200.00
04958              -2.60    19200.00
04959              -3.00    18400.00
04960              -3.00    18400.00
04961              -3.00    17600.00
04962              -2.80    17600.00
04963              -2.20    16000.00
04964              -2.80    16000.00
04965              -2.60    15200.00
04966              -2.20    14400.00
04967              -2.60    14400.00
04968              -1.80    14400.00
04969              -2.60    12800.00
04970              -2.20    12800.00
04971              -1.80    12000.00
04972              -2.00    12000.00
04973              -2.00    11200.00
04974              -2.20    11200.00
04975              -1.40     9600.00
04976              -1.20     9600.00
04977              -2.00     8800.00
04978              -1.00     8800.00
04979              -1.80     8000.00
04980              -1.20     7200.00
04981              -1.00     6400.00
04982              -1.20     5600.00
04983              -1.00     5600.00
04984              -0.60     4800.00
04985              -1.00     4000.00
04986              -0.60     3200.00
04987              -0.60     3200.00
04988              -1.00     2400.00
04989              -0.20     1600.00
04990              -0.20      800.00
04991              -0.20        0.00
04992               0.40     -800.00
04993               2.60     -800.00
04994               2.20    -1600.00
04995              -2.00    -1600.00
04996               1.00    -3200.00
04997               1.80    -3200.00
04998               0.40    -3200.00
04999               1.40    -4000.00
05000              10.20    -4800.00
