Unit:(mV)
                     CH1         CH2
Frequency              ? 299.764 kHz
00001              -8.40    -8000.00
00002             -25.00    -8000.00
00003              11.40    -8000.00
00004              21.00    -8800.00
00005             -25.00    -8800.00
00006               2.20    -9600.00
00007              25.00   -10400.00
00008             -25.00   -10400.00
00009               1.20   -11200.00
00010              25.00   -12000.00
00011             -25.00   -12000.00
00012              23.00   -12800.00
00013              14.60   -12800.00
00014             -18.80   -13600.00
00015              25.00   -14400.00
00016             -25.00   -14400.00
00017              18.60   -16000.00
00018              21.20   -16000.00
00019             -25.00   -16800.00
00020              18.80   -17600.00
00021              19.80   -17600.00
00022             -24.60   -18400.00
00023               2.80   -18400.00
00024              25.00   -19200.00
00025             -25.00   -19200.00
00026              12.40   -20000.00
00027              22.00   -20800.00
00028             -20.40   -20800.00
00029              15.00   -21600.00
00030               4.60   -22400.00
00031             -10.00   -22400.00
00032              11.20   -23200.00
00033               8.20   -24000.00
00034              -6.40   -24000.00
00035              13.80   -24800.00
00036               3.40   -25600.00
00037              -6.60   -24800.00
00038              14.60   -25600.00
00039              -0.60   -26400.00
00040               1.80   -26400.00
00041              10.80   -27200.00
00042               1.80   -27200.00
00043               2.40   -27200.00
00044               8.20   -28800.00
00045               3.60   -28800.00
00046               3.80   -28800.00
00047               9.00   -28800.00
00048               3.60   -28800.00
00049               4.20   -29600.00
00050               8.60   -30400.00
00051               3.60   -29600.00
00052               6.00   -30400.00
00053               9.80   -30400.00
00054               4.00   -31200.00
00055               7.40   -31200.00
00056               8.20   -30400.00
00057               5.20   -32000.00
00058               7.80   -32000.00
00059               8.40   -32000.00
00060               8.40   -32000.00
00061               8.60   -32000.00
00062               8.20   -32000.00
00063               8.20   -32000.00
00064               8.20   -32800.00
00065               9.40   -32800.00
00066               8.40   -32800.00
00067               9.80   -32800.00
00068               9.80   -33600.00
00069               8.80   -32800.00
00070              10.60   -32800.00
00071               9.00   -32800.00
00072               9.80   -33600.00
00073              11.00   -33600.00
00074               9.60   -32800.00
00075              11.00   -32800.00
00076              10.00   -33600.00
00077               9.80   -32800.00
00078              10.60   -32800.00
00079               9.80   -32800.00
00080               9.80   -32800.00
00081               9.40   -32800.00
00082               9.00   -32800.00
00083               8.60   -32800.00
00084               9.00   -32800.00
00085               8.20   -32000.00
00086               7.60   -32800.00
00087               9.00   -32000.00
00088               7.80   -32000.00
00089               7.00   -32000.00
00090               7.40   -32000.00
00091               6.80   -32000.00
00092               7.40   -30400.00
00093               7.20   -31200.00
00094               6.20   -30400.00
00095               6.20   -30400.00
00096               6.20   -29600.00
00097               5.60   -30400.00
00098               6.00   -29600.00
00099               5.40   -29600.00
00100               5.20   -28800.00
00101               5.20   -28800.00
00102               5.20   -28800.00
00103               4.20   -28000.00
00104               4.60   -27200.00
00105               4.80   -27200.00
00106               4.20   -27200.00
00107               4.60   -26400.00
00108               3.80   -26400.00
00109               3.40   -25600.00
00110               4.60   -25600.00
00111               4.00   -24800.00
00112               3.00   -24800.00
00113               4.20   -24000.00
00114               3.20   -23200.00
00115               3.00   -23200.00
00116               3.40   -22400.00
00117               2.80   -22400.00
00118               2.60   -21600.00
00119               2.80   -20800.00
00120               3.00   -20800.00
00121               2.60   -20800.00
00122               2.20   -20000.00
00123               2.20   -20000.00
00124               2.40   -18400.00
00125               2.20   -18400.00
00126               2.00   -17600.00
00127               2.60   -16800.00
00128               1.80   -16800.00
00129               1.40   -16000.00
00130               2.00   -15200.00
00131               1.40   -15200.00
00132               1.40   -14400.00
00133               1.80   -14400.00
00134               1.00   -13600.00
00135               1.20   -12800.00
00136               1.00   -12000.00
00137               1.00   -11200.00
00138               1.20   -11200.00
00139               0.80   -10400.00
00140               1.00   -10400.00
00141               1.00    -9600.00
00142               0.60    -8800.00
00143               0.80    -8000.00
00144               0.40    -7200.00
00145               0.40    -7200.00
00146               0.20    -6400.00
00147               0.20    -6400.00
00148               0.20    -4800.00
00149              -0.20    -4800.00
00150              -0.40    -4000.00
00151               0.20    -3200.00
00152              -0.20    -2400.00
00153              -0.20    -1600.00
00154              -0.40    -1600.00
00155              -0.40     -800.00
00156              -0.20        0.00
00157              -0.20      800.00
00158               0.20        0.00
00159               1.40     1600.00
00160               2.40     1600.00
00161              -3.00     2400.00
00162              -0.60     3200.00
00163               0.60     4000.00
00164              -1.60     4800.00
00165               3.40     4800.00
00166              25.00     6400.00
00167              10.00     7200.00
00168             -25.00     8000.00
00169              -2.00     8800.00
00170              25.00     8800.00
00171             -25.00     8000.00
00172              18.20     9600.00
00173              25.00    10400.00
00174             -25.00    10400.00
00175              25.00    12000.00
00176              20.60    12000.00
00177             -25.00    12800.00
00178              25.00    12800.00
00179             -25.00    13600.00
00180              21.00    14400.00
00181              25.00    14400.00
00182             -25.00    15200.00
00183              25.00    16000.00
00184             -13.40    16000.00
00185             -25.00    17600.00
00186              25.00    17600.00
00187              -7.60    18400.00
00188             -25.00    18400.00
00189              17.00    19200.00
00190              12.40    19200.00
00191             -25.00    20000.00
00192              25.00    20800.00
00193              -2.80    21600.00
00194             -21.40    21600.00
00195              22.80    22400.00
00196             -22.00    22400.00
00197              -5.20    22400.00
00198               6.80    24000.00
00199              -9.40    24000.00
00200              -7.00    24800.00
00201              11.80    24800.00
00202             -16.20    24800.00
00203              -4.60    25600.00
00204               5.20    26400.00
00205             -17.40    27200.00
00206               2.20    27200.00
00207              -2.60    27200.00
00208              -9.20    28000.00
00209              -2.60    28000.00
00210              -3.80    28800.00
00211              -8.60    28800.00
00212              -4.60    28800.00
00213              -3.20    29600.00
00214              -9.40    29600.00
00215              -5.20    30400.00
00216              -4.80    30400.00
00217             -10.20    30400.00
00218              -3.40    31200.00
00219              -5.80    31200.00
00220             -10.00    31200.00
00221              -4.20    31200.00
00222              -9.20    32000.00
00223              -8.40    32800.00
00224              -6.80    32000.00
00225             -10.00    32800.00
00226              -7.20    32800.00
00227              -7.80    32800.00
00228              -9.20    33600.00
00229              -9.20    33600.00
00230              -9.40    33600.00
00231              -8.80    33600.00
00232              -9.80    33600.00
00233              -8.80    33600.00
00234             -10.20    33600.00
00235             -10.20    33600.00
00236              -8.60    33600.00
00237             -12.00    33600.00
00238              -9.80    34400.00
00239             -10.60    33600.00
00240             -11.60    33600.00
00241              -9.20    34400.00
00242             -12.00    33600.00
00243             -10.60    33600.00
00244              -9.80    33600.00
00245             -10.80    33600.00
00246              -9.80    33600.00
00247             -10.60    32800.00
00248              -9.80    33600.00
00249              -9.80    33600.00
00250              -9.20    33600.00
00251              -9.00    33600.00
00252              -9.40    32800.00
00253              -8.20    32800.00
00254              -9.00    32800.00
00255              -8.40    32000.00
00256              -7.80    32000.00
00257              -8.40    32800.00
00258              -7.40    31200.00
00259              -7.00    32000.00
00260              -7.40    32000.00
00261              -7.00    31200.00
00262              -6.80    31200.00
00263              -6.20    30400.00
00264              -6.20    30400.00
00265              -6.60    30400.00
00266              -6.20    30400.00
00267              -6.20    28800.00
00268              -5.80    28800.00
00269              -5.40    28800.00
00270              -5.40    28800.00
00271              -5.40    28000.00
00272              -4.60    27200.00
00273              -4.80    27200.00
00274              -5.40    27200.00
00275              -5.20    27200.00
00276              -4.20    26400.00
00277              -4.40    25600.00
00278              -4.40    25600.00
00279              -4.40    24800.00
00280              -4.40    24800.00
00281              -3.60    24800.00
00282              -4.00    24000.00
00283              -3.80    23200.00
00284              -3.60    23200.00
00285              -4.20    22400.00
00286              -3.40    21600.00
00287              -3.40    21600.00
00288              -3.40    20800.00
00289              -3.60    20800.00
00290              -2.80    19200.00
00291              -2.80    19200.00
00292              -3.20    18400.00
00293              -2.60    18400.00
00294              -3.00    17600.00
00295              -2.80    17600.00
00296              -2.20    16800.00
00297              -2.40    16000.00
00298              -2.20    16000.00
00299              -2.20    15200.00
00300              -2.60    14400.00
00301              -1.40    14400.00
00302              -2.60    12800.00
00303              -2.20    12800.00
00304              -1.20    12800.00
00305              -1.80    11200.00
00306              -2.00    11200.00
00307              -1.40    10400.00
00308              -2.00     9600.00
00309              -1.40     9600.00
00310              -0.80     8800.00
00311              -1.20     8000.00
00312              -1.20     7200.00
00313              -0.80     7200.00
00314              -1.00     6400.00
00315              -1.00     5600.00
00316              -1.00     4800.00
00317              -0.60     4800.00
00318              -0.60     3200.00
00319              -0.40     3200.00
00320              -0.80     2400.00
00321              -0.60     2400.00
00322              -0.60     1600.00
00323               0.20        0.00
00324               0.40      800.00
00325               0.20     -800.00
00326               3.80     -800.00
00327               1.00    -1600.00
00328              -2.00    -1600.00
00329               1.80    -2400.00
00330               1.60    -2400.00
00331              -0.40    -4000.00
00332               3.40    -4000.00
00333              15.80    -5600.00
00334              25.00    -6400.00
00335             -25.00    -7200.00
00336             -25.00    -8000.00
00337              25.00    -8000.00
00338              -2.00    -8800.00
00339             -25.00    -8000.00
00340              25.00    -9600.00
00341              25.00   -10400.00
00342             -25.00   -10400.00
00343              25.00   -12000.00
00344              16.60   -11200.00
00345             -25.00   -12800.00
00346              25.00   -12800.00
00347             -24.40   -13600.00
00348              11.80   -14400.00
00349               9.20   -14400.00
00350             -25.00   -15200.00
00351              25.00   -16000.00
00352             -11.00   -16000.00
00353             -17.80   -16800.00
00354              25.00   -16800.00
00355              -0.60   -17600.00
00356             -23.60   -18400.00
00357              24.00   -18400.00
00358               6.20   -20000.00
00359             -25.00   -20000.00
00360              25.00   -20800.00
00361              -1.20   -20800.00
00362             -10.80   -21600.00
00363              20.20   -22400.00
00364              -7.40   -22400.00
00365              -2.00   -23200.00
00366              14.00   -23200.00
00367              -1.20   -23200.00
00368              -0.20   -24000.00
00369              16.40   -24800.00
00370              -6.60   -24800.00
00371               3.60   -25600.00
00372              11.80   -25600.00
00373              -5.20   -26400.00
00374               8.20   -26400.00
00375               7.40   -27200.00
00376               1.00   -27200.00
00377               5.80   -28800.00
00378               7.00   -28800.00
00379               2.20   -28800.00
00380               6.00   -28800.00
00381               8.00   -29600.00
00382               2.00   -29600.00
00383               7.00   -29600.00
00384               7.40   -29600.00
00385               3.60   -29600.00
00386               8.40   -30400.00
00387               7.60   -30400.00
00388               4.20   -31200.00
00389               9.00   -32000.00
00390               6.80   -32000.00
00391               5.80   -31200.00
00392               8.40   -32000.00
00393               8.00   -32000.00
00394               8.60   -32800.00
00395               8.20   -32800.00
00396               8.40   -32000.00
00397               8.20   -32800.00
00398               8.40   -32800.00
00399               9.00   -32800.00
00400               8.40   -32800.00
00401              10.40   -32800.00
00402               9.00   -33600.00
00403               9.40   -32800.00
00404              10.60   -32800.00
00405               8.80   -32800.00
00406              10.60   -32800.00
00407              10.00   -32800.00
00408               9.80   -33600.00
00409              10.60   -32800.00
00410               9.20   -32800.00
00411              10.00   -32800.00
00412              10.00   -32800.00
00413               9.40   -32800.00
00414               9.40   -32800.00
00415               9.20   -32000.00
00416               9.00   -32800.00
00417               8.20   -32800.00
00418               9.00   -32000.00
00419               8.20   -32000.00
00420               7.60   -32800.00
00421               8.40   -32000.00
00422               7.40   -32000.00
00423               7.40   -32000.00
00424               7.40   -32000.00
00425               6.60   -31200.00
00426               7.20   -30400.00
00427               6.60   -30400.00
00428               6.00   -30400.00
00429               6.60   -29600.00
00430               6.20   -29600.00
00431               5.80   -29600.00
00432               5.60   -29600.00
00433               5.80   -28800.00
00434               5.40   -28800.00
00435               5.20   -28800.00
00436               5.40   -28000.00
00437               4.40   -27200.00
00438               4.60   -27200.00
00439               4.40   -27200.00
00440               4.20   -26400.00
00441               4.20   -26400.00
00442               3.60   -26400.00
00443               4.20   -25600.00
00444               4.20   -25600.00
00445               3.60   -24800.00
00446               3.60   -24000.00
00447               3.80   -24000.00
00448               3.00   -24000.00
00449               3.60   -23200.00
00450               3.00   -22400.00
00451               2.80   -22400.00
00452               2.60   -22400.00
00453               2.80   -20800.00
00454               2.60   -20800.00
00455               2.20   -20000.00
00456               2.60   -20000.00
00457               2.00   -20000.00
00458               2.20   -18400.00
00459               2.60   -18400.00
00460               2.00   -17600.00
00461               2.20   -16800.00
00462               2.00   -16800.00
00463               1.80   -16000.00
00464               2.00   -16000.00
00465               1.20   -14400.00
00466               1.40   -14400.00
00467               1.40   -14400.00
00468               1.00   -12800.00
00469               1.20   -12800.00
00470               1.00   -12000.00
00471               1.20   -11200.00
00472               1.00   -11200.00
00473               0.60   -10400.00
00474               0.60    -9600.00
00475               0.40    -9600.00
00476               0.60    -8800.00
00477               0.60    -8000.00
00478               0.20    -8000.00
00479               0.20    -7200.00
00480              -0.20    -6400.00
00481               0.40    -5600.00
00482               0.20    -4800.00
00483              -0.20    -4000.00
00484               0.20    -4000.00
00485               0.20    -3200.00
00486              -0.60    -2400.00
00487              -0.20    -1600.00
00488              -0.40     -800.00
00489              -0.40     -800.00
00490              -0.40        0.00
00491               0.00        0.00
00492               0.20     1600.00
00493               3.00     1600.00
00494               0.00     2400.00
00495              -2.40     2400.00
00496               0.40     3200.00
00497               0.20     3200.00
00498              -1.80     4800.00
00499               9.60     5600.00
00500              25.00     7200.00
00501             -25.00     8000.00
00502             -25.00     8000.00
00503              21.40     8000.00
00504               3.80     8000.00
00505             -25.00     8800.00
00506              25.00    10400.00
00507              -4.40    10400.00
00508             -25.00    11200.00
00509              25.00    12000.00
00510             -25.00    12000.00
00511              -0.80    12800.00
00512              25.00    12800.00
00513             -25.00    13600.00
00514              25.00    14400.00
00515             -25.00    14400.00
00516             -24.80    16000.00
00517              25.00    16000.00
00518             -25.00    16000.00
00519               7.80    17600.00
00520              25.00    17600.00
00521             -25.00    18400.00
00522             -18.20    19200.00
00523              25.00    19200.00
00524             -19.80    20000.00
00525             -19.80    20800.00
00526              25.00    20800.00
00527             -25.00    21600.00
00528               4.20    22400.00
00529               7.40    22400.00
00530             -23.60    22400.00
00531               5.80    23200.00
00532               1.00    24000.00
00533             -13.00    24800.00
00534               2.80    24800.00
00535               3.00    25600.00
00536             -20.20    25600.00
00537               7.80    25600.00
00538              -6.80    26400.00
00539             -11.40    27200.00
00540               4.60    27200.00
00541              -8.60    28000.00
00542              -6.20    28000.00
00543              -2.20    28000.00
00544              -5.80    28000.00
00545              -8.40    28800.00
00546              -2.60    29600.00
00547              -6.00    29600.00
00548              -9.20    30400.00
00549              -4.20    30400.00
00550              -7.40    30400.00
00551              -8.40    31200.00
00552              -2.20    31200.00
00553              -9.20    31200.00
00554              -7.40    32000.00
00555              -5.60    32000.00
00556             -10.20    32000.00
00557              -6.20    32800.00
00558              -9.00    32800.00
00559              -8.40    32800.00
00560              -6.80    32800.00
00561              -9.20    32800.00
00562              -9.00    32800.00
00563              -9.40    33600.00
00564              -9.40    33600.00
00565              -8.80    33600.00
00566              -9.40    33600.00
00567              -9.00    33600.00
00568             -10.80    33600.00
00569              -8.60    33600.00
00570             -10.40    33600.00
00571             -11.40    33600.00
00572              -9.20    33600.00
00573             -11.80    33600.00
00574              -9.80    33600.00
00575             -10.20    33600.00
00576             -12.20    33600.00
00577              -9.40    33600.00
00578             -10.80    33600.00
00579             -10.20    33600.00
00580             -10.00    33600.00
00581             -10.60    33600.00
00582              -9.20    33600.00
00583              -9.80    33600.00
00584              -9.00    33600.00
00585              -9.00    33600.00
00586              -9.00    33600.00
00587              -8.60    33600.00
00588              -8.60    32800.00
00589              -7.00    32800.00
00590              -8.60    32000.00
00591              -8.60    32000.00
00592              -6.20    31200.00
00593              -7.60    32000.00
00594              -7.60    31200.00
00595              -6.60    31200.00
00596              -6.80    31200.00
00597              -6.60    31200.00
00598              -6.60    30400.00
00599              -6.40    29600.00
00600              -6.20    29600.00
00601              -5.80    28800.00
00602              -5.20    29600.00
00603              -6.00    28800.00
00604              -5.40    28000.00
00605              -5.20    28000.00
00606              -5.00    27200.00
00607              -5.20    27200.00
00608              -5.80    27200.00
00609              -4.60    26400.00
00610              -4.40    26400.00
00611              -4.60    25600.00
00612              -3.80    25600.00
00613              -4.80    24800.00
00614              -4.60    24000.00
00615              -3.60    24000.00
00616              -4.00    24000.00
00617              -4.00    23200.00
00618              -3.40    22400.00
00619              -3.00    21600.00
00620              -3.80    22400.00
00621              -3.40    21600.00
00622              -3.00    20800.00
00623              -3.80    20000.00
00624              -3.00    19200.00
00625              -3.00    19200.00
00626              -2.80    18400.00
00627              -2.40    17600.00
00628              -3.00    17600.00
00629              -1.60    16000.00
00630              -2.80    16000.00
00631              -3.00    15200.00
00632              -1.20    16000.00
00633              -2.80    15200.00
00634              -1.80    14400.00
00635              -1.00    13600.00
00636              -3.80    12800.00
00637              -1.00    12800.00
00638              -1.20    12000.00
00639              -2.60    12000.00
00640              -1.20    11200.00
00641              -1.20    10400.00
00642              -2.20     9600.00
00643              -1.20     9600.00
00644              -1.20     8000.00
00645              -1.20     8000.00
00646              -0.40     7200.00
00647              -1.00     6400.00
00648              -0.60     6400.00
00649              -0.20     5600.00
00650              -2.00     4800.00
00651              -0.20     4000.00
00652              -0.20     3200.00
00653              -1.80     2400.00
00654              -0.20     1600.00
00655              -0.20     1600.00
00656              -0.80     1600.00
00657               0.40        0.00
00658               0.20        0.00
00659               0.40     -800.00
00660               4.20    -1600.00
00661              -0.60    -1600.00
00662              -0.40    -2400.00
00663               2.20    -3200.00
00664               1.20    -4000.00
00665              -0.60    -4000.00
00666               7.00    -4800.00
00667              23.80    -6400.00
00668               6.60    -7200.00
00669             -25.00    -8000.00
00670              -1.20    -8000.00
00671              25.00    -8000.00
00672             -25.00    -8800.00
00673             -18.00    -8800.00
00674              25.00   -10400.00
00675             -25.00    -9600.00
00676             -25.00   -11200.00
00677              25.00   -12000.00
00678             -25.00   -12000.00
00679              -3.00   -12800.00
00680              25.00   -12800.00
00681             -25.00   -13600.00
00682              25.00   -14400.00
00683             -24.20   -14400.00
00684               1.40   -16000.00
00685              25.00   -16000.00
00686             -25.00   -17600.00
00687               6.60   -16800.00
00688              25.00   -17600.00
00689             -18.80   -18400.00
00690              -8.60   -19200.00
00691              25.00   -19200.00
00692             -21.00   -19200.00
00693              -2.00   -20800.00
00694              25.00   -20800.00
00695             -18.80   -21600.00
00696               7.40   -22400.00
00697              11.80   -22400.00
00698             -11.40   -23200.00
00699               7.60   -23200.00
00700              11.60   -24000.00
00701              -6.00   -24000.00
00702               9.00   -24800.00
00703               8.40   -24800.00
00704              -9.00   -25600.00
00705              12.40   -25600.00
00706               3.80   -26400.00
00707              -1.20   -26400.00
00708              10.60   -26400.00
00709               3.60   -27200.00
00710               1.80   -27200.00
00711               7.40   -28000.00
00712               5.80   -28800.00
00713               3.00   -28800.00
00714               8.20   -28800.00
00715               5.00   -29600.00
00716               2.60   -29600.00
00717               9.00   -29600.00
00718               5.80   -30400.00
00719               4.60   -29600.00
00720              10.00   -30400.00
00721               5.40   -30400.00
00722               5.40   -31200.00
00723               9.00   -32000.00
00724               6.00   -30400.00
00725               7.40   -32000.00
00726               9.00   -32000.00
00727               8.00   -32800.00
00728               8.20   -32000.00
00729               8.40   -32000.00
00730               8.20   -32800.00
00731               8.20   -32800.00
00732               9.00   -32000.00
00733               9.00   -32800.00
00734               9.20   -32800.00
00735               9.40   -32800.00
00736               8.40   -32800.00
00737              10.60   -33600.00
00738               9.20   -32800.00
00739               9.20   -32800.00
00740              11.40   -33600.00
00741               9.20   -33600.00
00742              10.60   -32800.00
00743              10.20   -32800.00
00744               9.20   -32800.00
00745              10.60   -33600.00
00746               9.80   -32800.00
00747               9.20   -32800.00
00748               9.00   -32800.00
00749               9.00   -32800.00
00750               8.60   -32800.00
00751               8.40   -32800.00
00752               9.00   -32800.00
00753               8.00   -32000.00
00754               8.40   -32000.00
00755               7.60   -32000.00
00756               7.20   -32000.00
00757               7.80   -31200.00
00758               6.20   -31200.00
00759               7.00   -30400.00
00760               7.60   -30400.00
00761               5.80   -30400.00
00762               5.80   -30400.00
00763               6.80   -29600.00
00764               5.80   -29600.00
00765               5.80   -29600.00
00766               6.00   -29600.00
00767               5.60   -29600.00
00768               4.80   -28800.00
00769               5.20   -28800.00
00770               5.20   -28800.00
00771               4.60   -27200.00
00772               5.00   -27200.00
00773               4.40   -26400.00
00774               3.80   -26400.00
00775               4.40   -26400.00
00776               3.60   -25600.00
00777               4.20   -25600.00
00778               4.00   -24800.00
00779               3.40   -24000.00
00780               3.60   -24000.00
00781               3.40   -24000.00
00782               3.00   -23200.00
00783               3.00   -23200.00
00784               3.00   -22400.00
00785               3.00   -22400.00
00786               2.60   -21600.00
00787               3.00   -20800.00
00788               2.60   -20800.00
00789               2.00   -19200.00
00790               2.60   -19200.00
00791               2.40   -18400.00
00792               2.60   -18400.00
00793               2.20   -17600.00
00794               2.20   -17600.00
00795               1.00   -17600.00
00796               1.40   -16800.00
00797               2.20   -16000.00
00798               1.80   -16000.00
00799               1.00   -14400.00
00800               1.20   -14400.00
00801               1.00   -13600.00
00802               1.40   -13600.00
00803               1.00   -12800.00
00804               1.00   -12000.00
00805               1.20   -11200.00
00806               0.40   -11200.00
00807               0.40   -10400.00
00808               1.00    -9600.00
00809               0.40    -8800.00
00810               0.20    -8000.00
00811               0.60    -7200.00
00812               0.40    -7200.00
00813               0.20    -6400.00
00814               0.20    -6400.00
00815               0.20    -4800.00
00816              -0.20    -4800.00
00817               0.20    -4000.00
00818               0.20    -4000.00
00819               0.20    -3200.00
00820               0.20    -2400.00
00821              -0.40    -1600.00
00822              -0.60     -800.00
00823              -0.20        0.00
00824              -0.40        0.00
00825               0.00        0.00
00826               1.00     1600.00
00827               3.40     1600.00
00828              -2.60     2400.00
00829              -1.20     3200.00
00830               1.00     3200.00
00831              -0.60     4800.00
00832               1.00     4800.00
00833              19.20     7200.00
00834              25.00     7200.00
00835             -25.00     8000.00
00836             -18.60     8800.00
00837              25.00     8000.00
00838             -25.00     8000.00
00839              -8.40     9600.00
00840              25.00    10400.00
00841             -25.00     9600.00
00842              22.80    11200.00
00843              25.00    11200.00
00844             -25.00    12000.00
00845              25.00    12800.00
00846             -22.60    12800.00
00847             -16.20    14400.00
00848              25.00    14400.00
00849             -25.00    14400.00
00850              25.00    16000.00
00851              19.00    16000.00
00852             -25.00    16800.00
00853              25.00    17600.00
00854               6.60    18400.00
00855             -25.00    18400.00
00856               4.60    18400.00
00857              24.40    20000.00
00858             -25.00    20800.00
00859              15.40    20800.00
00860              15.40    21600.00
00861             -25.00    21600.00
00862              22.60    22400.00
00863             -14.80    22400.00
00864             -13.20    22400.00
00865               8.40    24000.00
00866              -6.20    24000.00
00867             -10.20    24800.00
00868              10.80    24800.00
00869             -11.00    25600.00
00870             -12.20    25600.00
00871               9.20    26400.00
00872             -16.60    27200.00
00873              -1.20    27200.00
00874               0.60    28000.00
00875             -10.20    28000.00
00876              -3.60    28000.00
00877              -3.40    28800.00
00878              -8.40    28800.00
00879              -6.40    28800.00
00880              -1.80    28800.00
00881              -8.60    29600.00
00882              -6.80    30400.00
00883              -3.80    30400.00
00884              -9.60    30400.00
00885              -5.80    31200.00
00886              -3.80    31200.00
00887             -10.80    31200.00
00888              -5.40    31200.00
00889              -7.80    32800.00
00890              -9.40    32800.00
00891              -6.20    32000.00
00892              -9.20    33600.00
00893              -6.80    32800.00
00894              -8.00    32800.00
00895              -9.20    33600.00
00896              -9.00    33600.00
00897              -9.80    32800.00
00898              -8.60    33600.00
00899              -9.60    33600.00
00900              -8.60    33600.00
00901              -9.80    34400.00
00902             -10.60    33600.00
00903              -8.60    33600.00
00904             -11.60    33600.00
00905             -10.20    33600.00
00906             -10.20    34400.00
00907             -11.80    33600.00
00908              -8.80    33600.00
00909             -11.40    33600.00
00910             -11.00    33600.00
00911              -9.40    33600.00
00912             -11.00    33600.00
00913              -9.80    33600.00
00914             -10.60    33600.00
00915             -10.20    33600.00
00916              -9.60    33600.00
00917              -9.20    33600.00
00918              -9.00    32800.00
00919              -9.20    33600.00
00920              -8.40    32800.00
00921              -8.60    32800.00
00922              -8.20    32000.00
00923              -7.80    32000.00
00924              -9.00    32000.00
00925              -7.00    32800.00
00926              -6.80    32000.00
00927              -8.20    32000.00
00928              -7.00    31200.00
00929              -7.00    31200.00
00930              -7.00    30400.00
00931              -6.00    30400.00
00932              -7.00    30400.00
00933              -6.80    30400.00
00934              -6.00    29600.00
00935              -6.00    29600.00
00936              -6.20    28800.00
00937              -5.80    28800.00
00938              -5.40    28000.00
00939              -5.20    28000.00
00940              -4.60    27200.00
00941              -5.40    27200.00
00942              -5.40    27200.00
00943              -3.80    26400.00
00944              -5.00    25600.00
00945              -4.40    24800.00
00946              -4.00    24800.00
00947              -4.60    24800.00
00948              -4.00    24800.00
00949              -4.00    24000.00
00950              -3.80    23200.00
00951              -3.80    23200.00
00952              -3.60    22400.00
00953              -3.40    22400.00
00954              -3.60    21600.00
00955              -3.40    20800.00
00956              -3.60    20800.00
00957              -2.80    20000.00
00958              -2.80    19200.00
00959              -3.00    18400.00
00960              -2.80    18400.00
00961              -2.80    17600.00
00962              -2.80    17600.00
00963              -2.20    16800.00
00964              -2.60    16000.00
00965              -2.20    16000.00
00966              -2.00    15200.00
00967              -2.20    15200.00
00968              -1.80    14400.00
00969              -2.00    13600.00
00970              -2.00    12800.00
00971              -1.00    12000.00
00972              -1.60    12000.00
00973              -2.00    11200.00
00974              -1.60    10400.00
00975              -1.20    10400.00
00976              -1.60     9600.00
00977              -1.20     8800.00
00978              -1.20     8000.00
00979              -1.40     7200.00
00980              -1.20     7200.00
00981              -0.60     6400.00
00982              -1.20     6400.00
00983              -1.20     5600.00
00984              -0.60     4800.00
00985              -0.60     3200.00
00986              -0.80     3200.00
00987              -0.60     2400.00
00988              -0.60     1600.00
00989              -0.40     1600.00
00990              -0.20      800.00
00991               0.00        0.00
00992               0.40        0.00
00993               2.80     -800.00
00994               2.00     -800.00
00995              -2.00    -1600.00
00996               1.00    -2400.00
00997               1.40    -3200.00
00998               0.00    -4000.00
00999               1.80    -4000.00
01000              12.20    -4800.00
01001              25.00    -6400.00
01002             -23.40    -7200.00
01003             -25.00    -7200.00
01004              21.20    -8000.00
01005              11.00    -8800.00
01006             -25.00    -8000.00
01007              24.20    -8800.00
01008              25.00   -10400.00
01009             -25.00   -10400.00
01010              25.00   -11200.00
01011              25.00   -11200.00
01012             -25.00   -12000.00
01013              25.00   -13600.00
01014              -6.80   -13600.00
01015              -3.80   -14400.00
01016              23.60   -14400.00
01017             -25.00   -15200.00
01018              25.00   -16000.00
01019               5.80   -16000.00
01020             -25.00   -16800.00
01021              25.00   -17600.00
01022              10.20   -17600.00
01023             -25.00   -17600.00
01024              14.00   -19200.00
01025              19.60   -19200.00
01026             -25.00   -20000.00
01027              23.80   -20000.00
01028              11.00   -20800.00
01029             -17.20   -20800.00
01030              19.60   -22400.00
01031              -1.80   -22400.00
01032              -6.40   -23200.00
01033              13.00   -23200.00
01034               3.80   -24000.00
01035              -4.40   -24000.00
01036              16.00   -25600.00
01037              -1.80   -24800.00
01038              -2.20   -24800.00
01039              14.20   -25600.00
01040              -4.20   -26400.00
01041               5.40   -26400.00
01042              10.00   -26400.00
01043               1.00   -27200.00
01044               3.60   -28000.00
01045               8.80   -28800.00
01046               2.20   -28800.00
01047               5.20   -28800.00
01048              10.00   -28800.00
01049               2.00   -28800.00
01050               6.00   -29600.00
01051               9.80   -29600.00
01052               3.80   -29600.00
01053               2.80   -30400.00
01054              13.00   -30400.00
01055               2.60   -30400.00
01056               2.00   -31200.00
01057              14.00   -31200.00
01058               3.40   -32000.00
01059              14.80   -32000.00
01060               5.00   -32000.00
01061               7.80   -32000.00
01062              11.80   -32800.00
01063               1.40   -32800.00
01064               8.40   -32800.00
01065               6.40   -32800.00
01066              11.00   -32800.00
01067               9.60   -32800.00
01068               9.80   -32800.00
01069              12.40   -32800.00
01070               6.80   -32800.00
01071              13.60   -33600.00
01072               7.00   -33600.00
01073               6.00   -32800.00
01074              12.40   -33600.00
01075               9.00   -32800.00
01076               7.80   -32800.00
01077              11.80   -32800.00
01078              13.80   -32800.00
01079               9.40   -32800.00
01080              10.40   -32800.00
01081               8.40   -32800.00
01082               6.80   -32800.00
01083              10.60   -32800.00
01084               4.20   -32800.00
01085               9.00   -32800.00
01086              11.60   -32000.00
01087               8.40   -32800.00
01088               8.60   -32000.00
01089               9.60   -32000.00
01090               6.60   -32000.00
01091               5.60   -32000.00
01092               6.80   -31200.00
01093               5.20   -31200.00
01094               7.20   -30400.00
01095               6.80   -30400.00
01096               6.80   -30400.00
01097               8.40   -29600.00
01098               5.80   -30400.00
01099               5.20   -28800.00
01100               5.80   -29600.00
01101               4.40   -28800.00
01102               3.00   -28800.00
01103               5.60   -28000.00
01104               5.00   -27200.00
01105               5.00   -27200.00
01106               6.20   -27200.00
01107               5.00   -26400.00
01108               3.80   -26400.00
01109               4.00   -25600.00
01110               2.60   -25600.00
01111               3.40   -25600.00
01112               4.00   -24000.00
01113               3.60   -24000.00
01114               3.60   -24000.00
01115               4.20   -24000.00
01116               3.00   -23200.00
01117               3.40   -23200.00
01118               3.20   -22400.00
01119               2.20   -22400.00
01120               2.60   -20800.00
01121               2.60   -20800.00
01122               2.00   -20000.00
01123               2.60   -20000.00
01124               2.80   -18400.00
01125               2.20   -18400.00
01126               2.80   -18400.00
01127               1.80   -17600.00
01128               1.20   -16800.00
01129               1.40   -16800.00
01130               1.00   -16000.00
01131               1.20   -16000.00
01132               1.00   -15200.00
01133               1.40   -14400.00
01134               1.80   -13600.00
01135               1.40   -13600.00
01136               1.00   -12800.00
01137               1.00   -12800.00
01138               1.00   -12000.00
01139               0.40   -11200.00
01140               1.20   -10400.00
01141               0.20   -10400.00
01142               0.40    -9600.00
01143               1.00    -9600.00
01144               0.20    -8000.00
01145               0.40    -7200.00
01146               0.20    -7200.00
01147               0.20    -6400.00
01148               0.40    -6400.00
01149              -0.40    -4800.00
01150              -0.20    -4800.00
01151               0.40    -3200.00
01152              -0.40    -3200.00
01153               0.20    -2400.00
01154               0.40    -1600.00
01155              -0.60    -1600.00
01156              -0.40     -800.00
01157               0.20        0.00
01158              -0.60      800.00
01159               0.20     1600.00
01160               2.20     1600.00
01161               1.00     2400.00
01162              -2.60     2400.00
01163               0.20     3200.00
01164               1.00     3200.00
01165              -1.40     4800.00
01166               6.00     5600.00
01167              25.00     6400.00
01168              -6.60     7200.00
01169             -25.00     8000.00
01170              11.40     8000.00
01171              18.00     8800.00
01172             -25.00     8800.00
01173              25.00     9600.00
01174              25.00    10400.00
01175             -25.00    10400.00
01176              25.00    12000.00
01177             -18.80    12000.00
01178             -25.00    12800.00
01179              25.00    12800.00
01180             -25.00    12800.00
01181              25.00    14400.00
01182               4.60    15200.00
01183             -25.00    16000.00
01184              25.00    16000.00
01185             -25.00    17600.00
01186             -15.40    17600.00
01187              25.00    17600.00
01188             -18.20    17600.00
01189             -25.00    18400.00
01190              25.00    19200.00
01191              -2.60    20000.00
01192             -25.00    20000.00
01193              25.00    21600.00
01194             -18.60    21600.00
01195              -9.00    21600.00
01196              17.00    22400.00
01197             -25.00    23200.00
01198               1.00    23200.00
01199               3.60    24000.00
01200             -11.80    24000.00
01201              -2.00    24800.00
01202               9.00    24800.00
01203             -19.80    25600.00
01204               2.20    26400.00
01205              -0.60    25600.00
01206             -15.80    27200.00
01207               3.80    27200.00
01208              -5.80    27200.00
01209              -7.40    28000.00
01210              -2.80    28000.00
01211              -4.40    28800.00
01212              -8.60    28800.00
01213              -4.40    28800.00
01214              -3.80    30400.00
01215              -9.40    29600.00
01216              -5.20    29600.00
01217              -5.20    30400.00
01218              -9.20    30400.00
01219              -3.40    32000.00
01220              -6.60    31200.00
01221              -8.60    32800.00
01222              -5.00    32000.00
01223              -9.40    32800.00
01224              -7.60    32800.00
01225              -8.40    32000.00
01226              -9.20    32800.00
01227              -6.80    32800.00
01228              -8.40    33600.00
01229              -8.60    32800.00
01230              -9.20    33600.00
01231              -9.40    33600.00
01232              -8.60    33600.00
01233             -10.00    33600.00
01234              -8.60    33600.00
01235             -10.20    33600.00
01236              -9.80    34400.00
01237              -9.40    33600.00
01238             -11.80    33600.00
01239              -9.40    33600.00
01240             -11.00    34400.00
01241             -10.60    34400.00
01242              -9.20    33600.00
01243             -11.80    33600.00
01244             -10.20    34400.00
01245             -10.20    33600.00
01246             -10.40    33600.00
01247             -10.20    33600.00
01248             -10.00    33600.00
01249              -9.60    33600.00
01250             -10.20    33600.00
01251              -8.40    33600.00
01252              -9.20    33600.00
01253              -9.80    33600.00
01254              -8.20    32800.00
01255              -9.20    32800.00
01256              -8.40    32000.00
01257              -8.60    32800.00
01258              -8.60    32800.00
01259              -6.80    31200.00
01260              -7.60    32000.00
01261              -7.60    31200.00
01262              -6.80    31200.00
01263              -7.40    31200.00
01264              -6.80    31200.00
01265              -6.60    30400.00
01266              -7.00    30400.00
01267              -6.60    30400.00
01268              -5.80    29600.00
01269              -5.40    28800.00
01270              -6.00    28800.00
01271              -5.40    28000.00
01272              -5.40    28000.00
01273              -5.20    28000.00
01274              -5.00    27200.00
01275              -6.00    27200.00
01276              -4.60    27200.00
01277              -4.40    26400.00
01278              -5.00    25600.00
01279              -3.80    25600.00
01280              -4.60    24800.00
01281              -4.40    24800.00
01282              -3.80    24000.00
01283              -4.40    24000.00
01284              -3.80    24000.00
01285              -3.80    22400.00
01286              -3.80    22400.00
01287              -2.80    21600.00
01288              -3.40    21600.00
01289              -3.40    20800.00
01290              -3.00    20800.00
01291              -2.80    20000.00
01292              -3.00    19200.00
01293              -2.80    18400.00
01294              -2.80    17600.00
01295              -3.00    17600.00
01296              -2.00    16800.00
01297              -2.20    16800.00
01298              -2.60    16000.00
01299              -2.20    16000.00
01300              -2.20    15200.00
01301              -2.00    14400.00
01302              -2.00    13600.00
01303              -2.80    12800.00
01304              -1.40    12800.00
01305              -1.80    12000.00
01306              -1.40    12000.00
01307              -1.80    11200.00
01308              -1.40    11200.00
01309              -1.40    10400.00
01310              -1.40     9600.00
01311              -1.20     8000.00
01312              -1.20     8000.00
01313              -1.40     8000.00
01314              -1.00     7200.00
01315              -0.80     6400.00
01316              -1.00     6400.00
01317              -1.20     4800.00
01318              -1.00     4000.00
01319              -0.60     3200.00
01320              -0.60     2400.00
01321              -1.00     2400.00
01322              -0.60     1600.00
01323               0.00     1600.00
01324              -0.20      800.00
01325               0.20        0.00
01326               1.20     -800.00
01327               3.80     -800.00
01328              -0.60    -1600.00
01329              -1.00    -1600.00
01330               1.40    -3200.00
01331               1.20    -3200.00
01332              -0.60    -3200.00
01333               4.60    -4800.00
01334              20.40    -5600.00
01335              18.60    -6400.00
01336             -25.00    -7200.00
01337             -14.80    -8000.00
01338              25.00    -8800.00
01339             -16.60    -8800.00
01340             -25.00    -8000.00
01341              25.00    -9600.00
01342               7.60   -10400.00
01343             -25.00   -11200.00
01344              25.00   -11200.00
01345             -16.60   -12800.00
01346             -25.00   -12800.00
01347              25.00   -12800.00
01348             -25.00   -13600.00
01349              23.80   -13600.00
01350              -8.00   -14400.00
01351             -15.00   -15200.00
01352              25.00   -16000.00
01353             -23.60   -16000.00
01354              -6.20   -17600.00
01355              25.00   -17600.00
01356             -10.20   -17600.00
01357             -18.60   -18400.00
01358              25.00   -19200.00
01359              -6.80   -20000.00
01360             -16.60   -20000.00
01361              25.00   -20000.00
01362             -11.00   -20800.00
01363              -2.40   -21600.00
01364              17.40   -22400.00
01365             -10.00   -22400.00
01366               3.00   -23200.00
01367              13.60   -23200.00
01368              -4.60   -24000.00
01369               4.60   -24000.00
01370              13.80   -25600.00
01371              -9.20   -25600.00
01372               9.40   -25600.00
01373               8.40   -26400.00
01374              -5.00   -26400.00
01375              10.60   -27200.00
01376               6.20   -27200.00
01377              -0.20   -27200.00
01378               7.00   -28000.00
01379               7.80   -28000.00
01380               1.20   -28800.00
01381               7.60   -28800.00
01382               7.80   -29600.00
01383               1.80   -29600.00
01384               8.40   -29600.00
01385               6.20   -30400.00
01386               3.40   -30400.00
01387               9.40   -30400.00
01388               5.20   -30400.00
01389               5.80   -31200.00
01390              10.00   -30400.00
01391               5.00   -32000.00
01392               6.80   -32000.00
01393               8.60   -32800.00
01394               6.00   -32000.00
01395               9.00   -32800.00
01396               8.60   -32800.00
01397               7.20   -32800.00
01398               9.00   -32800.00
01399               9.40   -32800.00
01400               8.20   -32800.00
01401               9.20   -32800.00
01402              10.60   -32800.00
01403               7.60   -32800.00
01404              10.20   -33600.00
01405              10.00   -32800.00
01406               8.40   -33600.00
01407              11.80   -33600.00
01408              10.20   -32800.00
01409              10.00   -32800.00
01410              10.60   -33600.00
01411               8.20   -32800.00
01412              10.00   -33600.00
01413              10.00   -33600.00
01414               9.00   -32800.00
01415               9.40   -32800.00
01416               9.40   -32800.00
01417               9.00   -32800.00
01418               8.80   -32800.00
01419               9.00   -32000.00
01420               7.40   -32800.00
01421               8.20   -32000.00
01422               8.40   -32000.00
01423               6.80   -32000.00
01424               7.60   -32000.00
01425               7.40   -32000.00
01426               7.00   -31200.00
01427               7.60   -30400.00
01428               6.20   -31200.00
01429               6.00   -29600.00
01430               6.20   -29600.00
01431               6.20   -29600.00
01432               5.80   -29600.00
01433               5.80   -28800.00
01434               6.60   -28800.00
01435               5.40   -28800.00
01436               5.00   -28800.00
01437               5.40   -28800.00
01438               4.20   -27200.00
01439               4.40   -27200.00
01440               4.60   -27200.00
01441               3.60   -26400.00
01442               4.40   -26400.00
01443               4.20   -26400.00
01444               3.60   -25600.00
01445               4.40   -24800.00
01446               3.80   -24000.00
01447               2.60   -24000.00
01448               3.40   -24000.00
01449               3.40   -24000.00
01450               2.60   -23200.00
01451               3.00   -22400.00
01452               3.00   -22400.00
01453               2.20   -20800.00
01454               2.40   -20800.00
01455               2.60   -20800.00
01456               2.00   -20000.00
01457               2.00   -18400.00
01458               2.20   -19200.00
01459               2.40   -18400.00
01460               1.80   -17600.00
01461               1.80   -17600.00
01462               1.80   -16800.00
01463               1.40   -16800.00
01464               1.40   -16000.00
01465               1.80   -16000.00
01466               1.20   -15200.00
01467               1.00   -14400.00
01468               1.20   -14400.00
01469               1.40   -12800.00
01470               0.60   -12800.00
01471               0.60   -11200.00
01472               1.60   -11200.00
01473               0.60   -10400.00
01474               0.40    -9600.00
01475               0.60    -9600.00
01476               0.60    -9600.00
01477               0.60    -8000.00
01478               0.40    -8000.00
01479               0.40    -7200.00
01480               0.40    -6400.00
01481               0.40    -6400.00
01482               0.20    -4800.00
01483              -0.40    -4800.00
01484              -0.20    -4000.00
01485               0.20    -3200.00
01486               0.20    -3200.00
01487              -0.20    -1600.00
01488               0.20    -1600.00
01489              -0.40     -800.00
01490              -0.60     -800.00
01491               0.20      800.00
01492               0.20        0.00
01493              -0.40     1600.00
01494               3.80     1600.00
01495              -0.40     2400.00
01496              -2.40     3200.00
01497               1.40     3200.00
01498               0.60     4000.00
01499              -2.00     4800.00
01500              14.00     5600.00
01501              25.00     8000.00
01502             -25.00     8000.00
01503             -25.00     8000.00
01504              25.00     8000.00
01505             -10.80     8800.00
01506             -25.00     8800.00
01507              25.00     9600.00
01508             -25.00     9600.00
01509             -20.20    11200.00
01510              25.00    12000.00
01511             -25.00    12000.00
01512              25.00    13600.00
01513              14.00    13600.00
01514             -25.00    14400.00
01515              25.00    14400.00
01516             -25.00    15200.00
01517              10.80    16000.00
01518              25.00    15200.00
01519             -25.00    17600.00
01520              25.00    16800.00
01521              20.40    17600.00
01522             -25.00    18400.00
01523              -8.80    18400.00
01524              25.00    19200.00
01525             -25.00    20000.00
01526              -2.80    20800.00
01527              25.00    21600.00
01528             -25.00    22400.00
01529              13.40    22400.00
01530              -2.80    22400.00
01531             -19.40    23200.00
01532               6.80    24000.00
01533              -2.20    24000.00
01534             -11.80    24800.00
01535               7.80    25600.00
01536              -5.00    25600.00
01537             -17.40    25600.00
01538              11.00    26400.00
01539             -13.40    26400.00
01540              -6.00    27200.00
01541               3.60    28000.00
01542             -10.60    28000.00
01543              -5.00    28000.00
01544              -2.00    28000.00
01545              -7.40    28800.00
01546              -9.00    28800.00
01547              -0.40    29600.00
01548              -6.60    30400.00
01549              -9.40    30400.00
01550              -3.40    30400.00
01551              -7.40    31200.00
01552              -8.20    30400.00
01553              -3.40    31200.00
01554              -9.20    32800.00
01555              -6.20    31200.00
01556              -6.60    32000.00
01557              -9.20    32800.00
01558              -6.20    32800.00
01559              -9.00    32000.00
01560              -7.80    32800.00
01561              -7.60    32800.00
01562              -9.20    33600.00
01563              -8.60    32800.00
01564              -9.80    33600.00
01565              -8.80    33600.00
01566              -9.00    33600.00
01567              -9.00    33600.00
01568              -9.20    33600.00
01569             -11.40    33600.00
01570              -9.20    33600.00
01571             -10.80    33600.00
01572             -10.80    33600.00
01573              -9.00    33600.00
01574             -12.00    34400.00
01575              -9.40    33600.00
01576             -10.60    33600.00
01577             -11.80    33600.00
01578              -9.80    33600.00
01579             -10.80    33600.00
01580              -9.80    33600.00
01581             -10.60    33600.00
01582             -11.00    33600.00
01583              -9.80    33600.00
01584              -9.20    33600.00
01585              -9.20    33600.00
01586              -9.40    33600.00
01587              -8.60    33600.00
01588              -8.60    32800.00
01589              -8.80    32800.00
01590              -7.80    32000.00
01591              -9.00    32800.00
01592              -7.80    32000.00
01593              -6.60    32800.00
01594              -7.60    31200.00
01595              -7.40    32000.00
01596              -7.00    31200.00
01597              -7.00    31200.00
01598              -6.60    31200.00
01599              -7.00    30400.00
01600              -6.20    30400.00
01601              -6.00    29600.00
01602              -6.00    28800.00
01603              -5.40    28800.00
01604              -5.80    28800.00
01605              -5.80    28800.00
01606              -5.20    28000.00
01607              -4.60    28000.00
01608              -5.20    27200.00
01609              -5.40    27200.00
01610              -4.40    26400.00
01611              -4.60    26400.00
01612              -4.40    25600.00
01613              -4.00    25600.00
01614              -4.60    24800.00
01615              -4.40    24000.00
01616              -3.80    24000.00
01617              -3.40    24000.00
01618              -3.80    23200.00
01619              -3.60    22400.00
01620              -3.00    22400.00
01621              -3.40    22400.00
01622              -3.40    21600.00
01623              -3.40    20800.00
01624              -3.40    20800.00
01625              -2.80    19200.00
01626              -2.80    19200.00
01627              -2.80    18400.00
01628              -2.20    18400.00
01629              -2.60    17600.00
01630              -2.60    17600.00
01631              -2.20    16000.00
01632              -2.20    16000.00
01633              -2.60    15200.00
01634              -2.00    15200.00
01635              -1.40    14400.00
01636              -2.40    14400.00
01637              -2.00    12800.00
01638              -1.40    12800.00
01639              -2.20    12000.00
01640              -1.40    11200.00
01641              -1.20    11200.00
01642              -1.60    10400.00
01643              -1.80     9600.00
01644              -1.20     8800.00
01645              -1.40     8800.00
01646              -1.00     8000.00
01647              -1.00     7200.00
01648              -1.00     6400.00
01649              -1.00     5600.00
01650              -1.00     4800.00
01651              -1.20     4800.00
01652              -0.60     4000.00
01653              -0.60     3200.00
01654              -1.20     2400.00
01655              -0.60     1600.00
01656              -1.00     1600.00
01657              -0.40      800.00
01658               0.40        0.00
01659               0.20        0.00
01660               1.20     -800.00
01661               3.80    -1600.00
01662              -1.80    -1600.00
01663               0.20    -2400.00
01664               2.00    -2400.00
01665               0.20    -3200.00
01666               0.40    -4000.00
01667               9.80    -4000.00
01668              25.00    -6400.00
01669              -8.20    -7200.00
01670             -25.00    -8000.00
01671              10.80    -8000.00
01672              21.20    -8800.00
01673             -25.00    -8800.00
01674               1.00    -8800.00
01675              25.00   -10400.00
01676             -25.00   -10400.00
01677              -1.20   -11200.00
01678              25.00   -11200.00
01679             -25.00   -12000.00
01680              21.80   -12800.00
01681              17.00   -12800.00
01682             -20.00   -13600.00
01683              25.00   -14400.00
01684             -25.00   -15200.00
01685              18.00   -16000.00
01686              22.80   -16000.00
01687             -25.00   -16800.00
01688              17.80   -17600.00
01689              22.00   -17600.00
01690             -25.00   -18400.00
01691               1.60   -18400.00
01692              25.00   -20000.00
01693             -25.00   -19200.00
01694              11.20   -20800.00
01695              25.00   -20000.00
01696             -22.00   -21600.00
01697              13.40   -22400.00
01698               7.40   -22400.00
01699              -9.40   -22400.00
01700               9.80   -23200.00
01701               9.20   -23200.00
01702              -6.60   -24000.00
01703              13.40   -24000.00
01704               3.40   -24800.00
01705              -5.40   -25600.00
01706              15.00   -26400.00
01707              -1.60   -26400.00
01708               1.80   -26400.00
01709              10.00   -26400.00
01710               1.20   -27200.00
01711               4.60   -27200.00
01712               9.20   -28000.00
01713               3.40   -28000.00
01714               3.60   -28800.00
01715               7.80   -28800.00
01716               3.00   -29600.00
01717               5.20   -29600.00
01718               8.80   -29600.00
01719               3.80   -30400.00
01720               6.00   -30400.00
01721               9.00   -30400.00
01722               4.40   -31200.00
01723               7.60   -31200.00
01724               7.80   -32000.00
01725               6.20   -32000.00
01726               7.80   -32000.00
01727               7.40   -32000.00
01728               8.40   -32000.00
01729               8.40   -32000.00
01730               7.80   -32800.00
01731               8.40   -32800.00
01732               8.40   -32800.00
01733               8.40   -32800.00
01734               8.40   -32800.00
01735               9.80   -32800.00
01736               9.00   -32800.00
01737               9.00   -32800.00
01738              11.00   -32800.00
01739               9.20   -32800.00
01740               9.80   -32800.00
01741              10.80   -32800.00
01742               9.40   -33600.00
01743              11.00   -33600.00
01744               9.80   -32800.00
01745               9.40   -32800.00
01746              10.20   -32800.00
01747               9.80   -32800.00
01748               9.20   -32800.00
01749               9.40   -32800.00
01750               9.80   -32800.00
01751               8.40   -32800.00
01752               9.00   -32000.00
01753               9.00   -32000.00
01754               7.60   -32000.00
01755               8.60   -32000.00
01756               8.00   -32000.00
01757               7.20   -32000.00
01758               7.80   -31200.00
01759               7.00   -32000.00
01760               7.40   -30400.00
01761               6.80   -30400.00
01762               6.20   -30400.00
01763               6.60   -30400.00
01764               6.80   -29600.00
01765               5.60   -29600.00
01766               5.60   -29600.00
01767               6.00   -28800.00
01768               5.40   -28800.00
01769               4.60   -28800.00
01770               5.60   -28800.00
01771               4.60   -28000.00
01772               4.60   -27200.00
01773               5.20   -27200.00
01774               5.00   -27200.00
01775               4.00   -26400.00
01776               3.80   -26400.00
01777               3.60   -25600.00
01778               4.20   -25600.00
01779               3.80   -24800.00
01780               3.60   -24000.00
01781               3.60   -24800.00
01782               2.80   -24000.00
01783               2.80   -23200.00
01784               3.40   -23200.00
01785               2.80   -22400.00
01786               2.60   -22400.00
01787               2.80   -21600.00
01788               2.40   -20800.00
01789               2.20   -20800.00
01790               2.00   -20000.00
01791               2.20   -19200.00
01792               2.20   -18400.00
01793               2.20   -18400.00
01794               1.60   -17600.00
01795               1.40   -17600.00
01796               1.80   -16800.00
01797               1.40   -16000.00
01798               1.80   -16000.00
01799               1.40   -15200.00
01800               1.00   -14400.00
01801               1.20   -14400.00
01802               1.20   -13600.00
01803               1.20   -12800.00
01804               0.60   -12800.00
01805               1.20   -12000.00
01806               1.40   -11200.00
01807               0.40   -10400.00
01808               0.60    -9600.00
01809               1.00    -9600.00
01810               0.60    -9600.00
01811               0.40    -8000.00
01812               0.40    -7200.00
01813               0.60    -7200.00
01814               0.40    -6400.00
01815              -0.40    -6400.00
01816               1.00    -5600.00
01817               0.40    -4000.00
01818              -0.60    -4000.00
01819               0.40    -3200.00
01820               0.40    -2400.00
01821              -0.60    -1600.00
01822              -0.20    -1600.00
01823               0.20     -800.00
01824              -0.60        0.00
01825              -0.40        0.00
01826               0.60      800.00
01827               1.20     1600.00
01828               2.60     2400.00
01829              -2.60     2400.00
01830              -0.60     3200.00
01831               1.20     3200.00
01832              -1.20     3200.00
01833               3.40     4800.00
01834              25.00     6400.00
01835              11.00     7200.00
01836             -25.00     8000.00
01837              -2.60     8800.00
01838              25.00     8000.00
01839             -25.00     8000.00
01840              17.00     9600.00
01841              25.00    10400.00
01842             -25.00    11200.00
01843              25.00    11200.00
01844              22.80    11200.00
01845             -25.00    12000.00
01846              25.00    12800.00
01847             -25.00    12800.00
01848              19.80    14400.00
01849              25.00    14400.00
01850             -25.00    15200.00
01851              25.00    16000.00
01852             -11.80    16000.00
01853             -25.00    16800.00
01854              25.00    17600.00
01855              -6.40    18400.00
01856             -25.00    18400.00
01857              15.40    19200.00
01858              13.60    19200.00
01859             -25.00    20800.00
01860              25.00    20800.00
01861              -2.00    21600.00
01862             -21.60    21600.00
01863              22.20    21600.00
01864             -21.40    23200.00
01865              -5.60    23200.00
01866               6.20    24000.00
01867              -9.20    24000.00
01868              -6.80    24800.00
01869              11.40    24800.00
01870             -16.20    25600.00
01871              -4.60    25600.00
01872               5.00    25600.00
01873             -17.20    27200.00
01874               2.20    27200.00
01875              -2.60    27200.00
01876              -8.80    28000.00
01877              -2.80    28000.00
01878              -3.80    28800.00
01879              -8.40    28800.00
01880              -4.40    28800.00
01881              -2.80    29600.00
01882              -9.20    30400.00
01883              -5.40    30400.00
01884              -4.40    30400.00
01885              -9.40    30400.00
01886              -4.20    31200.00
01887              -5.40    31200.00
01888              -9.60    31200.00
01889              -4.40    32000.00
01890              -9.00    32000.00
01891              -8.20    32800.00
01892              -6.60    32000.00
01893              -9.40    33600.00
01894              -6.60    32800.00
01895              -7.80    33600.00
01896              -8.60    33600.00
01897              -9.20    33600.00
01898              -9.60    33600.00
01899              -8.60    33600.00
01900              -9.80    33600.00
01901              -8.60    33600.00
01902             -10.20    33600.00
01903             -10.20    33600.00
01904              -8.80    33600.00
01905             -11.80    33600.00
01906              -9.40    33600.00
01907             -10.80    33600.00
01908             -11.40    33600.00
01909              -9.00    33600.00
01910             -12.20    33600.00
01911             -10.60    33600.00
01912              -9.80    33600.00
01913             -10.80    33600.00
01914              -9.40    33600.00
01915             -11.00    33600.00
01916             -10.00    33600.00
01917             -10.00    33600.00
01918              -9.00    33600.00
01919              -9.20    33600.00
01920              -9.40    33600.00
01921              -8.40    33600.00
01922              -9.00    32800.00
01923              -8.20    32000.00
01924              -8.00    32800.00
01925              -8.80    32800.00
01926              -7.00    32000.00
01927              -7.40    32000.00
01928              -7.80    32000.00
01929              -6.80    31200.00
01930              -7.60    31200.00
01931              -6.60    31200.00
01932              -6.60    30400.00
01933              -7.00    30400.00
01934              -6.00    30400.00
01935              -6.00    29600.00
01936              -6.20    29600.00
01937              -5.40    28800.00
01938              -5.80    28800.00
01939              -5.40    28000.00
01940              -5.20    28000.00
01941              -4.80    27200.00
01942              -5.00    27200.00
01943              -5.00    27200.00
01944              -4.60    27200.00
01945              -4.40    26400.00
01946              -4.20    25600.00
01947              -4.40    25600.00
01948              -4.40    24800.00
01949              -3.80    24800.00
01950              -4.20    24000.00
01951              -3.40    24000.00
01952              -3.80    22400.00
01953              -3.60    22400.00
01954              -2.80    21600.00
01955              -3.60    21600.00
01956              -3.00    21600.00
01957              -3.40    20800.00
01958              -2.80    20000.00
01959              -2.40    19200.00
01960              -3.40    19200.00
01961              -2.80    18400.00
01962              -2.40    17600.00
01963              -2.80    17600.00
01964              -2.00    16800.00
01965              -2.40    16000.00
01966              -2.60    16000.00
01967              -2.00    15200.00
01968              -2.00    15200.00
01969              -2.20    14400.00
01970              -2.00    13600.00
01971              -2.20    12800.00
01972              -1.80    12000.00
01973              -1.40    12000.00
01974              -2.00    11200.00
01975              -2.00    11200.00
01976              -1.40     9600.00
01977              -1.80     9600.00
01978              -1.20     8800.00
01979              -1.20     8000.00
01980              -1.60     8000.00
01981              -1.20     7200.00
01982              -0.80     6400.00
01983              -1.00     5600.00
01984              -1.20     5600.00
01985              -0.80     4000.00
01986              -0.60     4000.00
01987              -0.60     3200.00
01988              -1.00     3200.00
01989              -0.60     1600.00
01990              -0.60      800.00
01991              -0.40      800.00
01992               0.20        0.00
01993               0.40        0.00
01994               3.00     -800.00
01995               0.80    -1600.00
01996              -1.80    -1600.00
01997               1.40    -1600.00
01998               1.60    -3200.00
01999              -0.20    -3200.00
02000               3.40    -4000.00
02001              16.20    -4800.00
02002              25.00    -6400.00
02003             -25.00    -7200.00
02004             -25.00    -8000.00
02005              25.00    -8000.00
02006              -2.00    -9600.00
02007             -25.00    -8000.00
02008              25.00    -9600.00
02009              25.00   -10400.00
02010             -25.00   -10400.00
02011              25.00   -11200.00
02012              18.20   -12000.00
02013             -25.00   -12800.00
02014              25.00   -12800.00
02015             -23.60   -13600.00
02016              11.20   -14400.00
02017              10.60   -14400.00
02018             -25.00   -15200.00
02019              25.00   -16000.00
02020             -10.20   -16000.00
02021             -18.00   -16800.00
02022              25.00   -17600.00
02023               0.40   -17600.00
02024             -23.80   -18400.00
02025              23.80   -19200.00
02026               7.00   -19200.00
02027             -25.00   -20000.00
02028              25.00   -20800.00
02029              -0.60   -20800.00
02030             -11.00   -21600.00
02031              21.00   -22400.00
02032              -7.00   -23200.00
02033              -2.00   -22400.00
02034              14.60   -24000.00
02035              -0.60   -24000.00
02036              -1.00   -24000.00
02037              16.20   -24800.00
02038              -6.00   -25600.00
02039               3.00   -25600.00
02040              11.60   -25600.00
02041              -4.80   -25600.00
02042               7.80   -26400.00
02043               7.60   -27200.00
02044               1.20   -27200.00
02045               5.80   -27200.00
02046               7.40   -28000.00
02047               2.60   -28800.00
02048               6.20   -28800.00
02049               7.80   -28800.00
02050               2.20   -29600.00
02051               7.20   -29600.00
02052               7.00   -29600.00
02053               3.00   -30400.00
02054               8.40   -30400.00
02055               7.40   -31200.00
02056               4.20   -30400.00
02057               9.00   -31200.00
02058               6.60   -31200.00
02059               6.00   -32000.00
02060               8.20   -32000.00
02061               7.60   -32000.00
02062               8.60   -32000.00
02063               7.80   -32800.00
02064               8.20   -32000.00
02065               8.20   -32800.00
02066               8.60   -32800.00
02067               9.20   -32800.00
02068               8.80   -32800.00
02069              10.20   -32800.00
02070               9.00   -32800.00
02071               9.80   -33600.00
02072              10.60   -32800.00
02073               8.60   -32800.00
02074              11.00   -33600.00
02075              10.20   -33600.00
02076              10.00   -32800.00
02077              10.60   -33600.00
02078               9.80   -32800.00
02079              10.20   -32800.00
02080              10.00   -32800.00
02081               9.80   -32800.00
02082               9.80   -32800.00
02083               9.20   -32800.00
02084               9.00   -32800.00
02085               8.40   -32800.00
02086               8.60   -32800.00
02087               8.40   -32000.00
02088               8.20   -32000.00
02089               8.40   -31200.00
02090               7.40   -32000.00
02091               7.60   -32000.00
02092               7.40   -31200.00
02093               6.80   -31200.00
02094               7.60   -30400.00
02095               6.80   -30400.00
02096               6.20   -30400.00
02097               6.60   -29600.00
02098               6.60   -29600.00
02099               5.80   -29600.00
02100               5.40   -29600.00
02101               5.80   -28800.00
02102               5.20   -28800.00
02103               5.00   -28800.00
02104               5.40   -28000.00
02105               4.40   -28800.00
02106               4.40   -27200.00
02107               4.40   -27200.00
02108               4.20   -26400.00
02109               4.60   -26400.00
02110               3.60   -25600.00
02111               4.20   -25600.00
02112               4.20   -25600.00
02113               3.00   -24800.00
02114               3.40   -24800.00
02115               3.40   -24000.00
02116               3.20   -24000.00
02117               3.00   -23200.00
02118               3.00   -22400.00
02119               2.60   -22400.00
02120               2.20   -21600.00
02121               2.80   -20800.00
02122               2.60   -20000.00
02123               2.00   -20000.00
02124               2.60   -20000.00
02125               2.00   -19200.00
02126               2.20   -18400.00
02127               2.40   -18400.00
02128               1.80   -17600.00
02129               2.00   -17600.00
02130               1.80   -16800.00
02131               1.80   -16000.00
02132               1.40   -16000.00
02133               1.20   -14400.00
02134               1.40   -14400.00
02135               1.00   -13600.00
02136               1.00   -12800.00
02137               1.40   -12800.00
02138               1.00   -12000.00
02139               1.20   -11200.00
02140               1.40   -11200.00
02141               0.60    -9600.00
02142               1.00    -9600.00
02143               0.40    -8800.00
02144               0.60    -8000.00
02145               0.60    -7200.00
02146               0.40    -7200.00
02147               0.60    -6400.00
02148               0.20    -6400.00
02149              -0.20    -5600.00
02150               0.80    -4800.00
02151              -0.20    -4000.00
02152               0.00    -3200.00
02153               0.60    -3200.00
02154              -0.20    -1600.00
02155              -0.60    -1600.00
02156              -0.20     -800.00
02157              -0.20     -800.00
02158               0.00        0.00
02159              -0.20        0.00
02160               0.40     1600.00
02161               2.80     1600.00
02162               0.20     2400.00
02163              -2.20     2400.00
02164               1.00     3200.00
02165               0.20     3200.00
02166              -1.20     4800.00
02167               9.80     5600.00
02168              25.00     7200.00
02169             -25.00     8000.00
02170             -25.00     8000.00
02171              21.20     8800.00
02172               4.20     8800.00
02173             -25.00     8000.00
02174              25.00     9600.00
02175              -2.60     9600.00
02176             -25.00    11200.00
02177              25.00    11200.00
02178             -25.00    12000.00
02179              -2.80    12800.00
02180              25.00    12800.00
02181             -25.00    14400.00
02182              25.00    14400.00
02183             -25.00    14400.00
02184             -25.00    15200.00
02185              25.00    16000.00
02186             -25.00    16000.00
02187               6.80    17600.00
02188              25.00    17600.00
02189             -25.00    18400.00
02190             -18.80    19200.00
02191              25.00    19200.00
02192             -19.60    20000.00
02193             -20.80    20800.00
02194              25.00    20800.00
02195             -25.00    21600.00
02196               3.80    22400.00
02197               8.20    22400.00
02198             -24.40    23200.00
02199               6.00    24000.00
02200               2.00    24000.00
02201             -13.40    24000.00
02202               2.60    24800.00
02203               3.80    24800.00
02204             -20.80    25600.00
02205               7.60    25600.00
02206              -6.20    26400.00
02207             -11.60    27200.00
02208               5.00    27200.00
02209              -8.20    27200.00
02210              -7.00    28000.00
02211              -2.20    28800.00
02212              -5.00    28800.00
02213              -8.60    28800.00
02214              -2.40    29600.00
02215              -6.20    28800.00
02216              -9.00    30400.00
02217              -2.80    30400.00
02218              -7.00    30400.00
02219              -9.00    31200.00
02220              -1.80    31200.00
02221              -9.00    32000.00
02222              -7.80    31200.00
02223              -4.60    32000.00
02224             -10.20    32800.00
02225              -7.00    32000.00
02226              -7.60    32000.00
02227              -8.60    32800.00
02228              -6.80    32800.00
02229              -8.60    33600.00
02230              -9.00    33600.00
02231              -9.40    33600.00
02232              -9.00    33600.00
02233              -9.20    33600.00
02234              -9.40    33600.00
02235              -8.60    33600.00
02236             -11.20    33600.00
02237              -8.80    33600.00
02238             -10.20    33600.00
02239             -11.80    33600.00
02240              -9.40    33600.00
02241             -12.20    33600.00
02242              -9.80    33600.00
02243             -10.00    33600.00
02244             -12.60    33600.00
02245             -10.00    34400.00
02246             -10.20    34400.00
02247             -10.20    33600.00
02248             -10.20    33600.00
02249             -10.60    33600.00
02250              -9.40    33600.00
02251              -9.80    32800.00
02252              -9.20    33600.00
02253              -9.40    32800.00
02254              -9.00    33600.00
02255              -8.60    32800.00
02256              -9.00    32800.00
02257              -7.80    32800.00
02258              -9.20    32800.00
02259              -7.80    32000.00
02260              -6.60    32000.00
02261              -7.80    31200.00
02262              -7.00    31200.00
02263              -7.00    31200.00
02264              -7.40    31200.00
02265              -6.20    31200.00
02266              -6.60    30400.00
02267              -6.80    30400.00
02268              -6.20    30400.00
02269              -5.80    29600.00
02270              -5.80    28800.00
02271              -6.00    28800.00
02272              -5.20    28000.00
02273              -5.40    28000.00
02274              -5.20    27200.00
02275              -4.60    27200.00
02276              -5.40    27200.00
02277              -4.60    27200.00
02278              -4.40    25600.00
02279              -4.40    25600.00
02280              -4.20    25600.00
02281              -4.40    24800.00
02282              -4.40    24800.00
02283              -3.80    24000.00
02284              -3.60    24000.00
02285              -3.60    23200.00
02286              -3.80    23200.00
02287              -3.40    22400.00
02288              -3.60    21600.00
02289              -3.40    21600.00
02290              -3.40    21600.00
02291              -3.40    20800.00
02292              -2.60    20000.00
02293              -2.80    19200.00
02294              -2.80    19200.00
02295              -2.20    18400.00
02296              -2.60    17600.00
02297              -2.20    17600.00
02298              -2.40    16000.00
02299              -2.60    16000.00
02300              -2.20    15200.00
02301              -2.20    14400.00
02302              -2.40    14400.00
02303              -2.00    13600.00
02304              -2.40    12800.00
02305              -2.00    12800.00
02306              -1.80    12000.00
02307              -1.80    12000.00
02308              -1.80    11200.00
02309              -1.20    10400.00
02310              -2.00     9600.00
02311              -1.20     8800.00
02312              -1.00     8000.00
02313              -1.40     8000.00
02314              -1.40     7200.00
02315              -0.80     6400.00
02316              -1.20     5600.00
02317              -1.00     5600.00
02318              -1.20     4800.00
02319              -0.60     4000.00
02320              -1.00     3200.00
02321              -1.00     2400.00
02322              -1.00     2400.00
02323               0.20     1600.00
02324              -0.20      800.00
02325              -0.40        0.00
02326               0.40     -800.00
02327               1.00     -800.00
02328               4.20    -1600.00
02329              -0.40    -1600.00
02330              -0.60    -2400.00
02331               1.40    -3200.00
02332               1.00    -3200.00
02333              -0.40    -3200.00
02334               7.00    -4000.00
02335              24.60    -5600.00
02336               6.80    -7200.00
02337             -25.00    -7200.00
02338              -1.20    -8000.00
02339              25.00    -8000.00
02340             -25.00    -8800.00
02341             -18.80    -8800.00
02342              25.00    -9600.00
02343             -25.00   -10400.00
02344             -25.00   -10400.00
02345              25.00   -11200.00
02346             -25.00   -12000.00
02347              -4.00   -12800.00
02348              25.00   -13600.00
02349             -25.00   -13600.00
02350              25.00   -14400.00
02351             -23.20   -14400.00
02352               1.00   -16000.00
02353              25.00   -16000.00
02354             -25.00   -16800.00
02355               6.00   -17600.00
02356              25.00   -17600.00
02357             -18.60   -17600.00
02358              -9.60   -18400.00
02359              25.00   -19200.00
02360             -20.20   -20000.00
02361              -2.80   -20000.00
02362              25.00   -20800.00
02363             -18.40   -20800.00
02364               7.00   -21600.00
02365              12.20   -22400.00
02366             -11.60   -22400.00
02367               7.40   -23200.00
02368              11.80   -24000.00
02369              -6.60   -24000.00
02370               9.20   -24000.00
02371               9.00   -24800.00
02372              -9.00   -25600.00
02373              12.40   -25600.00
02374               3.80   -26400.00
02375              -1.80   -26400.00
02376              10.80   -27200.00
02377               3.60   -27200.00
02378               1.40   -27200.00
02379               7.60   -28000.00
02380               5.40   -28800.00
02381               2.60   -28800.00
02382               8.40   -28800.00
02383               5.20   -29600.00
02384               2.80   -29600.00
02385               8.60   -29600.00
02386               5.00   -30400.00
02387               5.00   -30400.00
02388              10.00   -30400.00
02389               5.20   -31200.00
02390               6.00   -31200.00
02391               9.00   -31200.00
02392               5.80   -32000.00
02393               7.00   -32000.00
02394               8.40   -32000.00
02395               8.20   -32800.00
02396               8.20   -32000.00
02397               8.20   -32800.00
02398               8.40   -32800.00
02399               7.80   -32800.00
02400               9.20   -32800.00
02401               9.20   -32800.00
02402               9.20   -32800.00
02403              10.00   -32800.00
02404               8.80   -32800.00
02405              11.00   -33600.00
02406               9.40   -32800.00
02407               9.20   -32800.00
02408              11.60   -33600.00
02409               9.40   -32800.00
02410              10.20   -32800.00
02411              10.80   -32800.00
02412               9.20   -32800.00
02413              10.60   -32800.00
02414              10.20   -33600.00
02415               9.20   -32800.00
02416               9.40   -32800.00
02417              10.00   -32800.00
02418               8.80   -32800.00
02419               8.40   -32000.00
02420               9.20   -32000.00
02421               8.20   -32000.00
02422               9.00   -32800.00
02423               7.80   -32000.00
02424               7.00   -32000.00
02425               8.20   -32000.00
02426               6.60   -32000.00
02427               7.00   -31200.00
02428               7.60   -30400.00
02429               5.80   -30400.00
02430               6.20   -30400.00
02431               6.80   -30400.00
02432               5.40   -29600.00
02433               5.20   -29600.00
02434               6.20   -28800.00
02435               5.80   -28800.00
02436               4.60   -28800.00
02437               4.80   -28800.00
02438               5.40   -27200.00
02439               4.20   -27200.00
02440               4.40   -27200.00
02441               5.20   -27200.00
02442               3.80   -26400.00
02443               3.60   -26400.00
02444               3.80   -25600.00
02445               4.40   -25600.00
02446               3.40   -25600.00
02447               3.60   -24000.00
02448               3.80   -24000.00
02449               2.60   -24000.00
02450               3.00   -23200.00
02451               3.00   -23200.00
02452               2.60   -22400.00
02453               3.20   -21600.00
02454               2.60   -21600.00
02455               2.40   -20800.00
02456               2.80   -20000.00
02457               1.80   -20000.00
02458               2.40   -19200.00
02459               2.60   -18400.00
02460               2.00   -18400.00
02461               1.80   -17600.00
02462               2.00   -17600.00
02463               2.00   -17600.00
02464               1.80   -16000.00
02465               1.40   -16000.00
02466               1.80   -15200.00
02467               1.80   -15200.00
02468               1.00   -14400.00
02469               1.20   -14400.00
02470               1.80   -13600.00
02471               0.40   -12800.00
02472               1.20   -12000.00
02473               2.00   -11200.00
02474               0.40   -11200.00
02475               1.00   -10400.00
02476               1.00    -9600.00
02477               0.40    -8800.00
02478               1.00    -8000.00
02479               0.40    -8000.00
02480               0.40    -7200.00
02481               1.00    -6400.00
02482              -0.40    -6400.00
02483               0.40    -5600.00
02484               0.60    -4800.00
02485              -0.20    -4000.00
02486               0.00    -3200.00
02487               0.00    -2400.00
02488              -0.20    -2400.00
02489              -0.20    -1600.00
02490              -1.00     -800.00
02491               0.20     -800.00
02492               0.20      800.00
02493              -0.60      800.00
02494               1.20     1600.00
02495               3.60     1600.00
02496              -3.00     2400.00
02497              -1.00     3200.00
02498               1.40     4000.00
02499              -1.40     4000.00
02500               1.00     5600.00
02501              19.40     6400.00
02502              25.00     7200.00
02503             -25.00     8000.00
02504             -19.00     8800.00
02505              25.00     8800.00
02506             -25.00     8800.00
02507              -9.20     9600.00
02508              25.00    10400.00
02509             -25.00    10400.00
02510              21.80    11200.00
02511              25.00    11200.00
02512             -25.00    12800.00
02513              25.00    12800.00
02514             -22.20    12800.00
02515             -16.60    14400.00
02516              25.00    14400.00
02517             -25.00    15200.00
02518              25.00    15200.00
02519              19.00    16000.00
02520             -25.00    16800.00
02521              25.00    17600.00
02522               6.80    18400.00
02523             -25.00    18400.00
02524               3.60    19200.00
02525              24.00    19200.00
02526             -25.00    20000.00
02527              15.20    20800.00
02528              15.40    21600.00
02529             -25.00    22400.00
02530              22.60    22400.00
02531             -13.40    23200.00
02532             -14.20    23200.00
02533               8.20    24000.00
02534              -5.20    24000.00
02535             -11.80    24800.00
02536              11.80    24800.00
02537              -9.20    25600.00
02538             -13.00    25600.00
02539               9.20    25600.00
02540             -15.80    26400.00
02541              -1.80    27200.00
02542               1.20    27200.00
02543             -10.00    28000.00
02544              -3.80    28000.00
02545              -3.00    28800.00
02546              -7.20    28800.00
02547              -6.60    28800.00
02548              -2.80    28800.00
02549              -7.60    30400.00
02550              -7.40    30400.00
02551              -3.80    30400.00
02552              -8.00    31200.00
02553              -6.20    31200.00
02554              -4.40    31200.00
02555              -8.60    31200.00
02556              -5.80    32000.00
02557              -9.00    32800.00
02558              -7.20    32000.00
02559              -6.80    32800.00
02560             -10.60    32000.00
02561              -6.20    32800.00
02562              -7.80    33600.00
02563              -9.40    33600.00
02564              -8.00    33600.00
02565             -10.00    33600.00
02566              -9.00    33600.00
02567              -9.20    33600.00
02568              -9.40    33600.00
02569              -9.80    33600.00
02570             -10.60    33600.00
02571              -8.60    33600.00
02572             -11.40    33600.00
02573             -10.00    33600.00
02574             -10.60    33600.00
02575             -12.20    33600.00
02576              -9.20    33600.00
02577             -11.80    33600.00
02578             -10.80    33600.00
02579              -9.60    33600.00
02580             -11.00    33600.00
02581             -10.00    33600.00
02582             -10.80    33600.00
02583             -10.20    33600.00
02584              -9.80    34400.00
02585              -9.40    33600.00
02586              -9.20    33600.00
02587              -9.40    32800.00
02588              -8.40    33600.00
02589              -8.40    32800.00
02590              -8.20    32800.00
02591              -7.60    32800.00
02592              -8.60    32800.00
02593              -7.60    32000.00
02594              -7.60    32000.00
02595              -7.80    32000.00
02596              -7.00    31200.00
02597              -6.80    31200.00
02598              -6.80    30400.00
02599              -6.20    30400.00
02600              -6.20    30400.00
02601              -6.20    30400.00
02602              -6.60    28800.00
02603              -5.40    28800.00
02604              -6.00    28800.00
02605              -6.60    28800.00
02606              -5.00    28000.00
02607              -5.40    28000.00
02608              -5.00    28000.00
02609              -4.40    27200.00
02610              -5.20    27200.00
02611              -4.60    25600.00
02612              -4.60    26400.00
02613              -4.60    25600.00
02614              -4.40    25600.00
02615              -4.20    24800.00
02616              -3.80    24000.00
02617              -3.80    24000.00
02618              -3.40    24000.00
02619              -3.80    23200.00
02620              -3.80    22400.00
02621              -2.80    22400.00
02622              -3.60    21600.00
02623              -3.80    20800.00
02624              -3.60    20800.00
02625              -3.00    19200.00
02626              -2.80    19200.00
02627              -2.80    18400.00
02628              -2.60    18400.00
02629              -2.80    17600.00
02630              -2.80    17600.00
02631              -2.20    17600.00
02632              -2.80    16000.00
02633              -2.40    16000.00
02634              -2.00    15200.00
02635              -2.60    14400.00
02636              -1.80    14400.00
02637              -2.20    13600.00
02638              -2.20    12800.00
02639              -2.20    12800.00
02640              -1.80    12000.00
02641              -1.40    11200.00
02642              -1.40    11200.00
02643              -2.20     9600.00
02644              -1.20     9600.00
02645              -1.40     8800.00
02646              -1.20     8000.00
02647              -0.80     8000.00
02648              -0.80     8000.00
02649              -1.40     6400.00
02650              -1.00     5600.00
02651              -1.20     5600.00
02652              -0.60     4800.00
02653              -1.00     3200.00
02654              -0.80     3200.00
02655              -0.60     2400.00
02656              -1.20     1600.00
02657              -0.60     1600.00
02658              -0.20        0.00
02659               0.20        0.00
02660              -0.20     -800.00
02661               2.80     -800.00
02662               2.60    -1600.00
02663              -2.00    -1600.00
02664               1.00    -2400.00
02665               2.00    -3200.00
02666              -0.20    -3200.00
02667               2.00    -4000.00
02668              12.20    -4800.00
02669              25.00    -6400.00
02670             -23.00    -8000.00
02671             -25.00    -8000.00
02672              21.40    -8000.00
02673              11.40    -8000.00
02674             -25.00    -8800.00
02675              24.20    -9600.00
02676              25.00   -10400.00
02677             -25.00    -9600.00
02678              25.00   -11200.00
02679              25.00   -11200.00
02680             -25.00   -12000.00
02681              25.00   -13600.00
02682              -5.80   -13600.00
02683              -4.00   -13600.00
02684              23.80   -14400.00
02685             -25.00   -14400.00
02686              25.00   -16000.00
02687               5.80   -16000.00
02688             -25.00   -16800.00
02689              25.00   -16800.00
02690              10.60   -17600.00
02691             -25.00   -18400.00
02692              14.00   -18400.00
02693              19.60   -19200.00
02694             -25.00   -20000.00
02695              24.20   -20000.00
02696              11.00   -20800.00
02697             -17.40   -20800.00
02698              19.40   -22400.00
02699              -2.00   -22400.00
02700              -6.60   -23200.00
02701              13.20   -23200.00
02702               3.60   -24000.00
02703              -4.40   -24000.00
02704              15.80   -24800.00
02705              -1.80   -24800.00
02706              -2.20   -25600.00
02707              13.80   -25600.00
02708              -3.80   -26400.00
02709               5.20   -26400.00
02710               9.40   -27200.00
02711               1.40   -27200.00
02712               4.00   -27200.00
02713               8.20   -27200.00
02714               2.60   -28800.00
02715               4.60   -28800.00
02716               8.80   -29600.00
02717               2.60   -28800.00
02718               5.80   -29600.00
02719               8.60   -30400.00
02720               3.60   -30400.00
02721               7.20   -30400.00
02722               9.00   -31200.00
02723               3.80   -30400.00
02724               8.20   -31200.00
02725               7.80   -32000.00
02726               5.80   -32000.00
02727               8.20   -32000.00
02728               8.20   -32000.00
02729               8.40   -32800.00
02730               8.20   -32800.00
02731               8.20   -32000.00
02732               7.80   -32000.00
02733               8.40   -32800.00
02734               9.20   -32800.00
02735               8.40   -32800.00
02736              10.20   -32800.00
02737               9.60   -32800.00
02738               9.20   -32800.00
02739              11.20   -32800.00
02740               9.00   -32800.00
02741              10.00   -32800.00
02742              10.60   -33600.00
02743               9.60   -33600.00
02744              10.80   -33600.00
02745               9.80   -32800.00
02746              10.20   -33600.00
02747              10.60   -32800.00
02748               9.60   -33600.00
02749               9.40   -32000.00
02750               9.00   -32800.00
02751               9.20   -32800.00
02752               8.40   -32800.00
02753               8.60   -32800.00
02754               8.40   -32000.00
02755               7.80   -32800.00
02756               9.00   -32000.00
02757               7.60   -32000.00
02758               7.40   -32000.00
02759               7.40   -31200.00
02760               6.60   -31200.00
02761               6.80   -32000.00
02762               6.60   -30400.00
02763               6.00   -30400.00
02764               6.80   -30400.00
02765               6.60   -30400.00
02766               5.80   -29600.00
02767               5.40   -29600.00
02768               5.40   -29600.00
02769               5.20   -28800.00
02770               5.20   -28800.00
02771               5.40   -28800.00
02772               4.20   -28000.00
02773               4.40   -27200.00
02774               4.40   -27200.00
02775               4.40   -27200.00
02776               4.40   -26400.00
02777               3.80   -25600.00
02778               3.60   -26400.00
02779               4.20   -25600.00
02780               3.40   -24800.00
02781               3.60   -24000.00
02782               3.60   -24000.00
02783               3.20   -23200.00
02784               3.00   -23200.00
02785               3.40   -23200.00
02786               2.60   -22400.00
02787               2.80   -22400.00
02788               2.80   -20800.00
02789               2.80   -20800.00
02790               2.60   -20000.00
02791               2.20   -20000.00
02792               2.20   -19200.00
02793               2.20   -18400.00
02794               2.60   -18400.00
02795               1.80   -17600.00
02796               2.00   -17600.00
02797               2.00   -16800.00
02798               1.80   -16000.00
02799               1.60   -16000.00
02800               1.40   -14400.00
02801               1.80   -14400.00
02802               1.40   -13600.00
02803               1.20   -13600.00
02804               1.20   -12800.00
02805               0.60   -12800.00
02806               1.20   -11200.00
02807               1.20   -11200.00
02808               0.60   -11200.00
02809               1.00    -9600.00
02810               0.40    -9600.00
02811               0.60    -8000.00
02812               0.40    -8000.00
02813               0.40    -7200.00
02814               0.60    -7200.00
02815               0.40    -6400.00
02816               0.40    -4800.00
02817               0.40    -4800.00
02818               0.00    -4000.00
02819              -0.20    -4000.00
02820               0.20    -3200.00
02821              -0.20    -2400.00
02822              -0.40    -1600.00
02823              -0.20     -800.00
02824              -0.40     -800.00
02825              -0.60        0.00
02826              -0.20        0.00
02827               0.20     1600.00
02828               2.00     1600.00
02829               1.40     2400.00
02830              -2.60     2400.00
02831              -0.20     3200.00
02832               1.00     3200.00
02833              -1.80     4800.00
02834               6.00     4800.00
02835              25.00     7200.00
02836              -7.00     8000.00
02837             -25.00     8000.00
02838              10.80     8800.00
02839              17.40     8800.00
02840             -25.00     8800.00
02841              25.00    10400.00
02842              25.00     9600.00
02843             -25.00    11200.00
02844              25.00    12000.00
02845             -19.00    12000.00
02846             -25.00    12800.00
02847              25.00    12800.00
02848             -25.00    13600.00
02849              25.00    14400.00
02850               4.60    15200.00
02851             -25.00    15200.00
02852              25.00    16000.00
02853             -25.00    16800.00
02854             -15.40    16800.00
02855              25.00    16800.00
02856             -17.40    18400.00
02857             -25.00    19200.00
02858              25.00    19200.00
02859              -1.80    19200.00
02860             -25.00    20800.00
02861              25.00    20800.00
02862             -18.80    21600.00
02863              -9.00    22400.00
02864              17.20    22400.00
02865             -24.60    22400.00
02866               1.00    23200.00
02867               4.40    24000.00
02868             -12.20    24000.00
02869              -2.40    24800.00
02870               8.60    24800.00
02871             -19.80    25600.00
02872               2.60    27200.00
02873              -0.40    26400.00
02874             -15.60    27200.00
02875               4.40    27200.00
02876              -6.00    27200.00
02877              -7.60    28000.00
02878              -2.20    28000.00
02879              -5.00    28000.00
02880              -8.60    28800.00
02881              -3.20    29600.00
02882              -5.00    30400.00
02883              -9.40    30400.00
02884              -4.20    30400.00
02885              -6.00    30400.00
02886              -9.20    31200.00
02887              -3.00    31200.00
02888              -7.60    31200.00
02889              -8.40    32000.00
02890              -5.00    32800.00
02891              -9.60    31200.00
02892              -7.00    32800.00
02893              -8.00    32800.00
02894              -9.00    32800.00
02895              -6.60    33600.00
02896              -9.00    33600.00
02897              -8.60    32800.00
02898              -9.40    33600.00
02899             -10.00    33600.00
02900              -8.60    33600.00
02901              -9.80    34400.00
02902              -9.20    33600.00
02903             -11.00    33600.00
02904              -9.80    33600.00
02905              -9.20    33600.00
02906             -12.40    33600.00
02907              -9.20    33600.00
02908             -11.00    33600.00
02909             -10.80    33600.00
02910              -9.00    33600.00
02911             -12.20    33600.00
02912             -10.00    33600.00
02913             -10.60    33600.00
02914             -10.40    33600.00
02915              -9.80    33600.00
02916             -11.00    33600.00
02917              -9.40    33600.00
02918              -9.40    33600.00
02919              -9.00    33600.00
02920             -10.00    32800.00
02921              -8.80    32800.00
02922              -7.60    32800.00
02923              -9.00    33600.00
02924              -7.80    32000.00
02925              -8.40    32800.00
02926              -8.40    32000.00
02927              -6.80    32800.00
02928              -7.60    32800.00
02929              -7.00    31200.00
02930              -7.00    31200.00
02931              -7.40    31200.00
02932              -6.20    31200.00
02933              -6.20    30400.00
02934              -6.60    30400.00
02935              -6.00    30400.00
02936              -6.00    29600.00
02937              -5.40    28800.00
02938              -6.00    28800.00
02939              -5.40    28000.00
02940              -5.00    28000.00
02941              -5.20    28000.00
02942              -4.40    27200.00
02943              -5.40    27200.00
02944              -5.20    26400.00
02945              -3.80    26400.00
02946              -4.60    25600.00
02947              -4.00    25600.00
02948              -4.40    25600.00
02949              -4.80    24800.00
02950              -4.40    24000.00
02951              -3.80    24000.00
02952              -3.80    24000.00
02953              -3.80    22400.00
02954              -3.40    22400.00
02955              -3.40    21600.00
02956              -3.60    21600.00
02957              -3.40    21600.00
02958              -3.60    20000.00
02959              -2.60    19200.00
02960              -2.80    19200.00
02961              -3.00    18400.00
02962              -2.60    18400.00
02963              -3.00    17600.00
02964              -2.60    17600.00
02965              -2.20    16800.00
02966              -2.60    16000.00
02967              -2.20    16000.00
02968              -2.20    15200.00
02969              -2.20    14400.00
02970              -1.80    13600.00
02971              -2.80    13600.00
02972              -1.40    12800.00
02973              -1.80    12800.00
02974              -2.00    11200.00
02975              -1.40    11200.00
02976              -1.40    10400.00
02977              -2.20     9600.00
02978              -1.20     9600.00
02979              -1.20     8000.00
02980              -1.20     8000.00
02981              -1.20     7200.00
02982              -1.40     7200.00
02983              -1.00     5600.00
02984              -0.60     5600.00
02985              -1.80     4800.00
02986              -0.20     4800.00
02987              -0.60     3200.00
02988              -1.20     3200.00
02989              -0.60     2400.00
02990              -0.60     1600.00
02991              -0.40      800.00
02992               0.00        0.00
02993               0.20        0.00
02994               0.80     -800.00
02995               4.00     -800.00
02996              -0.60    -1600.00
02997              -0.60    -2400.00
02998               1.80    -3200.00
02999               0.80    -2400.00
03000               0.20    -4000.00
03001               5.40    -4000.00
03002              19.80    -4800.00
03003              18.80    -6400.00
03004             -25.00    -8000.00
03005             -15.00    -8000.00
03006              25.00    -8800.00
03007             -16.60    -8800.00
03008             -25.00    -8000.00
03009              25.00    -9600.00
03010               7.60   -10400.00
03011             -25.00   -10400.00
03012              25.00   -11200.00
03013             -17.00   -11200.00
03014             -25.00   -12800.00
03015              25.00   -13600.00
03016             -25.00   -13600.00
03017              24.20   -14400.00
03018              -7.20   -14400.00
03019             -15.40   -16000.00
03020              25.00   -16000.00
03021             -23.00   -16800.00
03022              -7.00   -17600.00
03023              25.00   -17600.00
03024             -10.60   -17600.00
03025             -18.20   -18400.00
03026              25.00   -18400.00
03027              -7.00   -20000.00
03028             -15.80   -20000.00
03029              25.00   -20000.00
03030             -11.80   -20800.00
03031              -1.80   -22400.00
03032              17.20   -22400.00
03033             -10.60   -22400.00
03034               3.00   -23200.00
03035              13.20   -23200.00
03036              -4.60   -24000.00
03037               4.40   -24000.00
03038              14.00   -24800.00
03039              -8.60   -24800.00
03040               8.40   -25600.00
03041               7.80   -25600.00
03042              -4.40   -27200.00
03043               9.80   -26400.00
03044               5.40   -27200.00
03045               1.40   -27200.00
03046               7.20   -28800.00
03047               6.80   -28800.00
03048               2.20   -28800.00
03049               7.60   -28800.00
03050               6.20   -28800.00
03051               2.00   -29600.00
03052               8.40   -29600.00
03053               6.20   -29600.00
03054               4.20   -29600.00
03055               9.80   -30400.00
03056               6.20   -30400.00
03057               5.00   -30400.00
03058               9.20   -31200.00
03059               5.80   -32000.00
03060               6.20   -31200.00
03061               8.60   -32000.00
03062               7.80   -32000.00
03063               8.40   -32000.00
03064               8.40   -32000.00
03065               8.40   -32000.00
03066               8.20   -32000.00
03067               9.00   -32800.00
03068               8.60   -32800.00
03069               9.20   -32800.00
03070              10.20   -32800.00
03071               8.40   -32800.00
03072              10.80   -32800.00
03073              10.20   -32800.00
03074               9.00   -32800.00
03075              11.40   -33600.00
03076               9.80   -33600.00
03077              10.20   -32800.00
03078              10.80   -33600.00
03079               9.00   -32800.00
03080              10.20   -32800.00
03081              10.00   -32800.00
03082               9.20   -33600.00
03083               9.40   -32800.00
03084               9.20   -32800.00
03085               8.60   -32800.00
03086               8.40   -32800.00
03087               9.00   -32800.00
03088               7.60   -32000.00
03089               8.20   -32800.00
03090               8.40   -32000.00
03091               6.80   -32000.00
03092               7.60   -32000.00
03093               7.00   -31200.00
03094               6.80   -30400.00
03095               7.60   -31200.00
03096               6.00   -30400.00
03097               6.00   -31200.00
03098               6.60   -29600.00
03099               5.80   -30400.00
03100               5.60   -29600.00
03101               6.00   -28800.00
03102               5.80   -28800.00
03103               4.60   -28800.00
03104               5.40   -28800.00
03105               5.40   -28000.00
03106               4.40   -27200.00
03107               4.80   -27200.00
03108               4.40   -27200.00
03109               4.00   -27200.00
03110               4.20   -26400.00
03111               4.00   -26400.00
03112               4.60   -25600.00
03113               4.20   -25600.00
03114               3.40   -25600.00
03115               3.40   -24000.00
03116               3.40   -24000.00
03117               3.00   -24000.00
03118               3.40   -23200.00
03119               3.00   -23200.00
03120               3.40   -22400.00
03121               2.60   -21600.00
03122               3.00   -20800.00
03123               2.40   -20800.00
03124               2.20   -20000.00
03125               2.80   -19200.00
03126               2.00   -18400.00
03127               2.60   -18400.00
03128               2.20   -17600.00
03129               1.80   -17600.00
03130               1.80   -16800.00
03131               1.80   -16000.00
03132               1.40   -16000.00
03133               1.20   -15200.00
03134               1.40   -14400.00
03135               1.60   -14400.00
03136               1.00   -13600.00
03137               1.80   -12800.00
03138               1.40   -12800.00
03139               0.60   -11200.00
03140               1.40   -10400.00
03141               0.60   -11200.00
03142               0.40   -10400.00
03143               1.00    -9600.00
03144               0.40    -8800.00
03145               0.60    -8000.00
03146               0.40    -8000.00
03147               0.20    -7200.00
03148               0.20    -6400.00
03149               0.40    -6400.00
03150               0.00    -5600.00
03151               0.20    -4800.00
03152              -0.20    -4000.00
03153              -0.20    -3200.00
03154               0.20    -3200.00
03155              -0.40    -1600.00
03156              -0.60    -1600.00
03157              -0.40     -800.00
03158              -0.60     -800.00
03159              -0.60        0.00
03160              -0.20      800.00
03161               0.20     1600.00
03162               3.40     1600.00
03163              -1.20     2400.00
03164              -1.80     3200.00
03165               1.00     3200.00
03166              -0.20     4000.00
03167              -0.60     4800.00
03168              13.80     5600.00
03169              25.00     7200.00
03170             -25.00     8000.00
03171             -25.00     8000.00
03172              25.00     8800.00
03173             -11.20     8000.00
03174             -25.00     8800.00
03175              25.00    10400.00
03176             -25.00     9600.00
03177             -19.40    11200.00
03178              25.00    12000.00
03179             -25.00    12000.00
03180              25.00    12800.00
03181              14.60    12800.00
03182             -25.00    14400.00
03183              25.00    14400.00
03184             -25.00    15200.00
03185              10.60    16000.00
03186              25.00    16000.00
03187             -25.00    16000.00
03188              24.40    17600.00
03189              19.60    17600.00
03190             -25.00    18400.00
03191              -8.40    19200.00
03192              25.00    19200.00
03193             -25.00    20800.00
03194              -2.40    20800.00
03195              25.00    20800.00
03196             -25.00    22400.00
03197              15.40    22400.00
03198              -4.40    23200.00
03199             -19.80    23200.00
03200               8.20    24000.00
03201              -2.20    24000.00
03202             -12.40    24800.00
03203               7.80    24800.00
03204              -3.40    24800.00
03205             -17.40    25600.00
03206               9.80    25600.00
03207             -12.40    27200.00
03208              -6.20    27200.00
03209               3.40    28000.00
03210             -10.60    27200.00
03211              -4.60    28000.00
03212              -2.60    28000.00
03213              -7.40    28800.00
03214              -7.20    28800.00
03215              -1.20    29600.00
03216              -7.80    29600.00
03217              -8.40    30400.00
03218              -3.40    30400.00
03219              -8.40    31200.00
03220              -7.00    31200.00
03221              -3.20    31200.00
03222              -9.80    32000.00
03223              -5.80    32000.00
03224              -7.60    32000.00
03225             -10.00    32800.00
03226              -5.40    32000.00
03227             -10.60    32800.00
03228              -7.60    33600.00
03229              -6.00    32800.00
03230             -10.20    32800.00
03231              -8.60    33600.00
03232              -9.00    33600.00
03233              -9.40    33600.00
03234              -9.60    33600.00
03235              -8.60    33600.00
03236              -9.20    33600.00
03237             -11.40    33600.00
03238              -8.40    34400.00
03239             -10.80    33600.00
03240             -11.00    33600.00
03241             -10.00    33600.00
03242             -11.60    33600.00
03243              -8.80    34400.00
03244             -11.00    33600.00
03245             -11.60    34400.00
03246              -9.60    34400.00
03247             -11.20    33600.00
03248             -10.20    33600.00
03249             -10.00    34400.00
03250             -10.20    33600.00
03251              -9.20    33600.00
03252              -9.40    33600.00
03253              -9.20    33600.00
03254              -9.80    33600.00
03255              -8.40    33600.00
03256              -9.20    33600.00
03257              -8.40    32000.00
03258              -7.60    32800.00
03259              -9.20    32000.00
03260              -7.00    32800.00
03261              -6.60    32000.00
03262              -7.80    31200.00
03263              -7.00    31200.00
03264              -7.00    31200.00
03265              -6.80    31200.00
03266              -6.20    30400.00
03267              -6.80    30400.00
03268              -6.20    30400.00
03269              -5.80    29600.00
03270              -6.20    28800.00
03271              -5.40    28800.00
03272              -5.80    28800.00
03273              -5.80    28000.00
03274              -5.00    28000.00
03275              -4.60    28000.00
03276              -5.20    27200.00
03277              -5.00    27200.00
03278              -4.60    26400.00
03279              -5.00    26400.00
03280              -4.20    25600.00
03281              -4.60    25600.00
03282              -4.40    24800.00
03283              -3.80    24800.00
03284              -4.40    24000.00
03285              -3.40    24000.00
03286              -3.80    23200.00
03287              -4.40    22400.00
03288              -2.80    21600.00
03289              -3.60    21600.00
03290              -3.80    21600.00
03291              -2.80    20800.00
03292              -3.40    20800.00
03293              -3.40    19200.00
03294              -2.60    18400.00
03295              -3.00    18400.00
03296              -2.80    18400.00
03297              -2.20    17600.00
03298              -2.20    17600.00
03299              -2.60    16000.00
03300              -2.20    16000.00
03301              -2.60    15200.00
03302              -2.00    14400.00
03303              -1.40    14400.00
03304              -2.60    13600.00
03305              -2.20    12800.00
03306              -1.40    12800.00
03307              -2.60    12800.00
03308              -1.40    11200.00
03309              -1.20    11200.00
03310              -1.80    10400.00
03311              -1.20     9600.00
03312              -1.20     8800.00
03313              -2.00     8000.00
03314              -1.00     8000.00
03315              -1.20     7200.00
03316              -0.80     6400.00
03317              -0.60     5600.00
03318              -1.00     5600.00
03319              -0.60     4800.00
03320              -0.60     4000.00
03321              -0.80     3200.00
03322              -0.80     2400.00
03323              -0.60     1600.00
03324              -0.60     1600.00
03325              -0.40      800.00
03326               0.60        0.00
03327               0.40        0.00
03328               1.80     -800.00
03329               3.60     -800.00
03330              -1.60    -1600.00
03331               0.20    -1600.00
03332               1.40    -3200.00
03333               0.40    -3200.00
03334               0.60    -4000.00
03335               9.20    -4000.00
03336              25.00    -6400.00
03337              -7.80    -7200.00
03338             -25.00    -8000.00
03339              11.60    -8000.00
03340              21.00    -8800.00
03341             -25.00    -8000.00
03342               1.20    -9600.00
03343              25.00   -10400.00
03344             -25.00   -10400.00
03345              -0.20   -11200.00
03346              25.00   -12000.00
03347             -25.00   -12000.00
03348              22.00   -13600.00
03349              15.00   -12800.00
03350             -19.20   -13600.00
03351              25.00   -14400.00
03352             -25.00   -15200.00
03353              17.80   -16000.00
03354              21.80   -16000.00
03355             -25.00   -16800.00
03356              18.00   -16800.00
03357              20.20   -17600.00
03358             -24.40   -19200.00
03359               1.80   -18400.00
03360              25.00   -19200.00
03361             -25.00   -20000.00
03362              11.60   -20000.00
03363              22.00   -20800.00
03364             -20.40   -21600.00
03365              14.80   -22400.00
03366               5.80   -22400.00
03367             -10.20   -22400.00
03368              10.20   -23200.00
03369               8.40   -24000.00
03370              -6.00   -24000.00
03371              13.20   -24000.00
03372               3.80   -24800.00
03373              -6.20   -25600.00
03374              13.40   -25600.00
03375              -0.60   -26400.00
03376               2.60   -26400.00
03377              10.60   -27200.00
03378               2.00   -27200.00
03379               2.80   -28000.00
03380               8.20   -28800.00
03381               3.60   -28800.00
03382               3.80   -28800.00
03383               9.60   -28800.00
03384               3.20   -29600.00
03385               4.60   -29600.00
03386               9.80   -29600.00
03387               2.60   -30400.00
03388               6.00   -30400.00
03389              10.80   -30400.00
03390               3.20   -31200.00
03391               6.80   -31200.00
03392               9.20   -32000.00
03393               5.80   -32000.00
03394               7.00   -32000.00
03395               8.60   -32000.00
03396               8.40   -32800.00
03397               7.40   -32000.00
03398               8.40   -32000.00
03399               9.40   -33600.00
03400               7.60   -32800.00
03401               9.00   -33600.00
03402               9.00   -32800.00
03403               9.20   -32800.00
03404               9.20   -32800.00
03405               9.40   -33600.00
03406              11.00   -33600.00
03407               8.40   -32800.00
03408               9.60   -33600.00
03409              12.20   -32800.00
03410               9.00   -32800.00
03411              10.20   -32800.00
03412              11.00   -32800.00
03413               8.60   -32800.00
03414              10.00   -33600.00
03415              10.80   -32800.00
03416               8.60   -33600.00
03417               8.00   -32800.00
03418              11.40   -32800.00
03419               9.20   -32800.00
03420               6.80   -32800.00
03421               9.00   -32800.00
03422               8.60   -32000.00
03423               7.60   -32000.00
03424               6.80   -32000.00
03425               8.40   -32800.00
03426               8.40   -32000.00
03427               5.20   -32000.00
03428               7.40   -31200.00
03429               7.00   -31200.00
03430               5.40   -31200.00
03431               6.60   -30400.00
03432               8.20   -29600.00
03433               5.40   -30400.00
03434               4.00   -29600.00
03435               6.60   -29600.00
03436               6.40   -28800.00
03437               3.40   -28800.00
03438               5.80   -28800.00
03439               5.80   -28000.00
03440               3.00   -27200.00
03441               3.40   -27200.00
03442               5.80   -26400.00
03443               4.60   -26400.00
03444               3.80   -26400.00
03445               5.00   -25600.00
03446               4.40   -25600.00
03447               2.80   -24000.00
03448               3.40   -24800.00
03449               3.40   -24000.00
03450               3.00   -24000.00
03451               3.60   -24000.00
03452               3.60   -22400.00
03453               2.80   -22400.00
03454               2.60   -21600.00
03455               2.80   -21600.00
03456               3.20   -20800.00
03457               2.20   -20800.00
03458               1.80   -20000.00
03459               2.20   -19200.00
03460               2.60   -18400.00
03461               2.80   -18400.00
03462               1.80   -17600.00
03463               2.00   -17600.00
03464               2.00   -16800.00
03465               1.40   -16000.00
03466               1.40   -16000.00
03467               1.80   -16000.00
03468               1.40   -14400.00
03469               1.40   -14400.00
03470               0.80   -13600.00
03471               1.00   -12800.00
03472               1.00   -12800.00
03473               1.20   -12000.00
03474               1.20   -11200.00
03475               0.80   -11200.00
03476               0.60   -10400.00
03477               0.40    -9600.00
03478               0.60    -8800.00
03479               0.60    -8000.00
03480               0.20    -8000.00
03481               0.40    -6400.00
03482               0.40    -6400.00
03483              -0.20    -6400.00
03484               0.20    -4800.00
03485              -0.20    -4800.00
03486              -0.40    -4000.00
03487               0.20    -3200.00
03488              -0.20    -3200.00
03489              -0.20    -1600.00
03490              -0.20    -1600.00
03491              -0.60    -1600.00
03492              -0.40        0.00
03493              -0.40        0.00
03494               0.00     1600.00
03495               1.40      800.00
03496               2.20     1600.00
03497              -3.00     2400.00
03498              -0.40     3200.00
03499               1.20     3200.00
03500              -1.40     4000.00
03501               3.60     4800.00
03502              25.00     6400.00
03503              10.20     8000.00
03504             -25.00     8000.00
03505              -2.20     8000.00
03506              25.00     8000.00
03507             -25.00     8800.00
03508              17.40     9600.00
03509              25.00    10400.00
03510             -25.00    10400.00
03511              25.00    11200.00
03512              21.80    12000.00
03513             -25.00    12800.00
03514              25.00    12800.00
03515             -25.00    12800.00
03516              20.20    14400.00
03517              25.00    15200.00
03518             -25.00    15200.00
03519              25.00    16000.00
03520             -12.20    16000.00
03521             -25.00    16800.00
03522              25.00    17600.00
03523              -6.60    17600.00
03524             -25.00    18400.00
03525              16.20    19200.00
03526              13.20    20000.00
03527             -25.00    20800.00
03528              25.00    21600.00
03529              -2.60    21600.00
03530             -21.60    22400.00
03531              22.60    21600.00
03532             -22.20    22400.00
03533              -5.80    23200.00
03534               6.60    24000.00
03535              -9.80    24000.00
03536              -6.80    24800.00
03537              11.60    24800.00
03538             -16.60    25600.00
03539              -4.60    25600.00
03540               5.20    25600.00
03541             -17.40    27200.00
03542               2.20    27200.00
03543              -3.00    27200.00
03544              -9.20    28000.00
03545              -3.00    27200.00
03546              -4.20    28800.00
03547              -9.00    28800.00
03548              -4.60    28800.00
03549              -3.20    29600.00
03550              -9.40    30400.00
03551              -5.80    30400.00
03552              -4.60    30400.00
03553             -10.20    31200.00
03554              -3.60    31200.00
03555              -5.40    31200.00
03556             -10.20    31200.00
03557              -4.40    32000.00
03558              -8.60    32800.00
03559              -8.60    32000.00
03560              -7.20    32800.00
03561              -9.20    32800.00
03562              -6.60    32800.00
03563              -8.40    33600.00
03564              -9.00    33600.00
03565              -9.00    33600.00
03566              -9.80    33600.00
03567              -9.00    33600.00
03568              -9.80    33600.00
03569              -7.80    33600.00
03570             -11.40    33600.00
03571             -10.20    33600.00
03572              -7.00    33600.00
03573             -13.20    33600.00
03574             -10.60    33600.00
03575              -9.20    33600.00
03576             -11.80    33600.00
03577              -9.60    33600.00
03578             -11.00    34400.00
03579             -10.40    33600.00
03580              -9.40    33600.00
03581             -12.20    33600.00
03582             -10.60    33600.00
03583              -8.40    33600.00
03584             -11.40    33600.00
03585             -10.40    33600.00
03586              -6.80    33600.00
03587             -10.20    33600.00
03588             -10.40    32800.00
03589              -5.80    33600.00
03590             -10.00    32800.00
03591              -9.80    32000.00
03592              -6.60    32800.00
03593              -9.00    32000.00
03594              -7.80    31200.00
03595              -5.40    32000.00
03596              -7.60    31200.00
03597              -6.80    31200.00
03598              -7.60    31200.00
03599              -7.40    31200.00
03600              -6.00    30400.00
03601              -6.80    30400.00
03602              -6.00    30400.00
03603              -5.40    29600.00
03604              -5.80    28800.00
03605              -5.80    28800.00
03606              -5.20    28800.00
03607              -6.00    28800.00
03608              -5.80    28000.00
03609              -4.60    27200.00
03610              -5.80    27200.00
03611              -5.20    27200.00
03612              -4.20    26400.00
03613              -4.80    25600.00
03614              -3.40    25600.00
03615              -4.40    24800.00
03616              -5.20    25600.00
03617              -4.40    24000.00
03618              -4.60    24000.00
03619              -3.40    24000.00
03620              -3.40    23200.00
03621              -3.80    22400.00
03622              -2.60    22400.00
03623              -3.60    21600.00
03624              -3.60    20800.00
03625              -3.60    20000.00
03626              -3.60    19200.00
03627              -2.80    19200.00
03628              -3.00    19200.00
03629              -2.60    18400.00
03630              -2.60    17600.00
03631              -2.20    17600.00
03632              -1.40    17600.00
03633              -2.20    16000.00
03634              -2.80    15200.00
03635              -2.80    15200.00
03636              -2.20    14400.00
03637              -2.20    14400.00
03638              -2.60    13600.00
03639              -1.20    12800.00
03640              -1.40    12800.00
03641              -2.00    11200.00
03642              -1.40    12000.00
03643              -1.80    10400.00
03644              -2.20     9600.00
03645              -1.20     8800.00
03646              -1.00     8800.00
03647              -0.60     8000.00
03648              -1.00     8000.00
03649              -1.20     7200.00
03650              -0.60     6400.00
03651              -0.40     5600.00
03652              -1.40     5600.00
03653              -0.40     4000.00
03654              -0.60     3200.00
03655              -1.00     3200.00
03656              -0.80     2400.00
03657              -0.20     1600.00
03658              -0.40      800.00
03659               0.00        0.00
03660               0.60        0.00
03661               0.20     -800.00
03662               3.20    -1600.00
03663               0.60    -1600.00
03664              -1.80    -1600.00
03665               1.60    -3200.00
03666               1.80    -3200.00
03667              -0.40    -4000.00
03668               3.00    -4000.00
03669              16.00    -4800.00
03670              25.00    -6400.00
03671             -25.00    -7200.00
03672             -25.00    -8000.00
03673              25.00    -8000.00
03674              -2.20    -9600.00
03675             -25.00    -8000.00
03676              25.00    -9600.00
03677              25.00   -10400.00
03678             -25.00   -10400.00
03679              25.00   -11200.00
03680              17.20   -11200.00
03681             -25.00   -12800.00
03682              25.00   -12800.00
03683             -24.20   -13600.00
03684              11.60   -14400.00
03685               9.40   -14400.00
03686             -25.00   -15200.00
03687              25.00   -16000.00
03688             -11.00   -16000.00
03689             -17.60   -16800.00
03690              25.00   -17600.00
03691              -0.40   -17600.00
03692             -23.40   -18400.00
03693              24.20   -18400.00
03694               6.80   -19200.00
03695             -25.00   -20000.00
03696              25.00   -20000.00
03697              -1.00   -20800.00
03698             -10.80   -22400.00
03699              20.20   -22400.00
03700              -7.00   -22400.00
03701              -2.00   -23200.00
03702              13.80   -23200.00
03703              -0.40   -24000.00
03704              -0.40   -24000.00
03705              15.80   -24800.00
03706              -6.00   -25600.00
03707               3.60   -25600.00
03708              11.20   -25600.00
03709              -4.60   -26400.00
03710               8.20   -27200.00
03711               7.60   -27200.00
03712               1.20   -28000.00
03713               5.40   -27200.00
03714               7.40   -28800.00
03715               2.00   -28800.00
03716               6.20   -28800.00
03717               7.60   -29600.00
03718               2.20   -29600.00
03719               7.20   -29600.00
03720               7.40   -29600.00
03721               3.40   -30400.00
03722               9.00   -30400.00
03723               7.40   -30400.00
03724               4.20   -32000.00
03725               9.40   -32000.00
03726               6.80   -32000.00
03727               6.00   -31200.00
03728               8.60   -32000.00
03729               7.80   -32000.00
03730               8.40   -32000.00
03731               7.80   -32800.00
03732               8.40   -32000.00
03733               7.80   -32800.00
03734               8.60   -32800.00
03735               9.00   -33600.00
03736               9.00   -32800.00
03737              10.20   -32800.00
03738               8.40   -32800.00
03739              10.20   -32800.00
03740              10.60   -32800.00
03741               8.40   -32800.00
03742              10.80   -32800.00
03743              10.20   -33600.00
03744               9.60   -32800.00
03745              10.80   -33600.00
03746               9.20   -32800.00
03747              10.00   -32800.00
03748              10.00   -32800.00
03749               9.00   -33600.00
03750               9.80   -32800.00
03751               9.20   -32800.00
03752               8.60   -32800.00
03753               8.80   -32800.00
03754               8.60   -32000.00
03755               7.80   -32000.00
03756               8.40   -32800.00
03757               9.00   -32000.00
03758               7.20   -32000.00
03759               7.80   -32000.00
03760               7.40   -32000.00
03761               6.60   -31200.00
03762               7.40   -31200.00
03763               6.60   -30400.00
03764               6.00   -30400.00
03765               6.80   -29600.00
03766               6.00   -29600.00
03767               6.00   -29600.00
03768               6.00   -29600.00
03769               5.80   -28800.00
03770               5.40   -28800.00
03771               5.00   -28800.00
03772               5.40   -28000.00
03773               4.60   -27200.00
03774               5.00   -27200.00
03775               4.40   -27200.00
03776               4.20   -26400.00
03777               4.60   -26400.00
03778               3.60   -26400.00
03779               4.20   -25600.00
03780               4.40   -25600.00
03781               3.40   -24000.00
03782               3.60   -24000.00
03783               3.80   -23200.00
03784               3.40   -24000.00
03785               3.40   -23200.00
03786               2.80   -23200.00
03787               3.40   -22400.00
03788               2.60   -22400.00
03789               2.80   -20800.00
03790               2.60   -20800.00
03791               2.20   -20000.00
03792               2.20   -20000.00
03793               2.20   -18400.00
03794               2.00   -18400.00
03795               2.60   -18400.00
03796               1.80   -17600.00
03797               1.80   -16800.00
03798               1.60   -16800.00
03799               1.20   -16000.00
03800               1.60   -16000.00
03801               1.40   -15200.00
03802               1.40   -14400.00
03803               1.40   -13600.00
03804               1.40   -13600.00
03805               1.00   -12800.00
03806               0.80   -12800.00
03807               1.20   -11200.00
03808               1.00   -11200.00
03809               0.60   -10400.00
03810               0.00    -9600.00
03811               1.20    -9600.00
03812               0.20    -8000.00
03813               0.20    -8000.00
03814               0.60    -8000.00
03815               0.40    -7200.00
03816              -0.60    -6400.00
03817               0.60    -5600.00
03818               0.80    -4800.00
03819              -1.20    -4800.00
03820               0.40    -4000.00
03821               0.20    -3200.00
03822              -1.20    -2400.00
03823               0.20    -1600.00
03824               0.00     -800.00
03825              -1.00     -800.00
03826               0.20        0.00
03827               0.00        0.00
03828              -0.20     1600.00
03829               3.40     1600.00
03830               0.20     2400.00
03831              -2.80     2400.00
03832               1.00     3200.00
03833               0.40     4800.00
03834              -1.80     4800.00
03835              10.00     4800.00
03836              25.00     7200.00
03837             -25.00     8000.00
03838             -25.00     8000.00
03839              21.40     8800.00
03840               4.00     8800.00
03841             -25.00     8800.00
03842              25.00     9600.00
03843              -3.80    10400.00
03844             -25.00    11200.00
03845              25.00    11200.00
03846             -25.00    12000.00
03847              -1.20    12800.00
03848              25.00    12800.00
03849             -25.00    14400.00
03850              25.00    14400.00
03851             -25.00    15200.00
03852             -25.00    15200.00
03853              25.00    16000.00
03854             -25.00    16000.00
03855               7.00    17600.00
03856              25.00    18400.00
03857             -25.00    18400.00
03858             -18.80    18400.00
03859              25.00    19200.00
03860             -20.00    20000.00
03861             -20.40    20800.00
03862              25.00    21600.00
03863             -25.00    21600.00
03864               4.20    22400.00
03865               7.40    22400.00
03866             -24.20    23200.00
03867               6.00    23200.00
03868               1.20    24000.00
03869             -13.40    24000.00
03870               2.60    24800.00
03871               3.00    25600.00
03872             -20.40    25600.00
03873               7.40    26400.00
03874              -6.60    26400.00
03875             -11.40    27200.00
03876               4.20    27200.00
03877              -9.00    27200.00
03878              -6.00    28000.00
03879              -2.80    28000.00
03880              -6.00    28800.00
03881              -8.20    28800.00
03882              -2.60    28800.00
03883              -6.20    29600.00
03884              -9.00    30400.00
03885              -4.20    30400.00
03886              -7.00    30400.00
03887              -8.60    31200.00
03888              -2.60    31200.00
03889              -8.60    32000.00
03890              -7.60    32000.00
03891              -5.60    32000.00
03892             -10.00    32000.00
03893              -6.60    32800.00
03894              -8.40    32800.00
03895              -8.40    32800.00
03896              -6.80    32800.00
03897              -8.80    33600.00
03898              -8.80    33600.00
03899              -9.80    33600.00
03900              -8.60    33600.00
03901              -9.20    33600.00
03902              -9.60    33600.00
03903              -8.60    33600.00
03904             -11.00    33600.00
03905              -9.00    34400.00
03906              -9.80    33600.00
03907             -11.80    33600.00
03908              -9.20    33600.00
03909             -11.80    33600.00
03910              -9.80    34400.00
03911              -9.80    33600.00
03912             -11.80    33600.00
03913              -9.80    33600.00
03914             -10.60    33600.00
03915             -10.20    33600.00
03916             -10.20    33600.00
03917             -10.60    33600.00
03918              -9.80    34400.00
03919              -9.80    33600.00
03920              -8.60    33600.00
03921              -9.40    33600.00
03922              -9.00    32800.00
03923              -8.40    33600.00
03924              -9.00    32800.00
03925              -7.60    32800.00
03926              -8.60    32800.00
03927              -8.20    32000.00
03928              -6.80    32000.00
03929              -7.60    31200.00
03930              -7.60    31200.00
03931              -7.00    31200.00
03932              -7.00    30400.00
03933              -6.40    30400.00
03934              -7.00    30400.00
03935              -6.60    30400.00
03936              -6.20    30400.00
03937              -6.00    29600.00
03938              -5.80    28800.00
03939              -5.40    28800.00
03940              -5.40    28000.00
03941              -5.40    28000.00
03942              -4.60    27200.00
03943              -5.00    27200.00
03944              -6.00    27200.00
03945              -4.40    27200.00
03946              -4.40    25600.00
03947              -5.00    25600.00
03948              -3.40    25600.00
03949              -5.00    24800.00
03950              -4.40    24800.00
03951              -3.40    24000.00
03952              -4.20    24000.00
03953              -3.00    23200.00
03954              -3.60    22400.00
03955              -3.40    22400.00
03956              -2.80    21600.00
03957              -3.60    20800.00
03958              -3.40    20800.00
03959              -3.20    20000.00
03960              -2.80    19200.00
03961              -2.80    19200.00
03962              -2.60    18400.00
03963              -2.80    18400.00
03964              -2.60    17600.00
03965              -2.00    17600.00
03966              -2.60    16800.00
03967              -2.20    16000.00
03968              -2.00    15200.00
03969              -2.60    14400.00
03970              -2.00    14400.00
03971              -1.80    13600.00
03972              -2.20    12800.00
03973              -1.40    12800.00
03974              -1.80    12800.00
03975              -1.40    12000.00
03976              -1.40    11200.00
03977              -1.20    10400.00
03978              -1.40     9600.00
03979              -1.20     8800.00
03980              -1.20     8000.00
03981              -1.00     8000.00
03982              -1.20     7200.00
03983              -0.80     6400.00
03984              -0.60     5600.00
03985              -0.80     5600.00
03986              -1.20     4800.00
03987              -0.40     4800.00
03988              -0.60     3200.00
03989              -1.00     2400.00
03990              -0.60     2400.00
03991              -0.60     1600.00
03992              -0.40      800.00
03993              -0.40        0.00
03994               0.40     -800.00
03995               1.00     -800.00
03996               3.80     -800.00
03997              -1.20    -1600.00
03998              -0.60    -3200.00
03999               1.80    -3200.00
04000               1.00    -3200.00
04001              -0.20    -4000.00
04002               7.00    -4000.00
04003              24.40    -5600.00
04004               6.60    -7200.00
04005             -25.00    -8000.00
04006              -1.20    -8000.00
04007              25.00    -8800.00
04008             -25.00    -8800.00
04009             -18.20    -8800.00
04010              25.00   -10400.00
04011             -25.00   -10400.00
04012             -25.00   -11200.00
04013              25.00   -12800.00
04014             -25.00   -12000.00
04015              -3.00   -12800.00
04016              25.00   -12800.00
04017             -25.00   -13600.00
04018              25.00   -14400.00
04019             -24.40   -14400.00
04020               1.80   -15200.00
04021              25.00   -16000.00
04022             -25.00   -16800.00
04023               6.20   -17600.00
04024              25.00   -17600.00
04025             -18.60   -19200.00
04026              -9.20   -18400.00
04027              25.00   -19200.00
04028             -20.20   -20000.00
04029              -1.80   -20000.00
04030              25.00   -20800.00
04031             -18.20   -20800.00
04032               7.80   -22400.00
04033              11.40   -23200.00
04034             -11.60   -23200.00
04035               7.80   -23200.00
04036              11.60   -23200.00
04037              -6.20   -24000.00
04038               9.80   -24000.00
04039              10.20   -24800.00
04040              -8.40   -25600.00
04041              12.40   -25600.00
04042               3.80   -26400.00
04043              -2.20   -27200.00
04044              10.00   -26400.00
04045               2.80   -27200.00
04046               1.40   -27200.00
04047               7.80   -27200.00
04048               5.80   -28000.00
04049               4.40   -28800.00
04050               9.40   -28800.00
04051               5.00   -29600.00
04052               3.40   -29600.00
04053               7.60   -29600.00
04054               3.60   -30400.00
04055               4.40   -29600.00
04056               9.80   -30400.00
04057               5.00   -30400.00
04058               7.00   -31200.00
04059               9.40   -31200.00
04060               5.80   -32000.00
04061               7.40   -32000.00
04062               8.00   -32000.00
04063               7.40   -32000.00
04064               7.60   -32800.00
04065               7.40   -32800.00
04066               8.20   -32800.00
04067               8.40   -32800.00
04068               9.60   -32800.00
04069               9.40   -32800.00
04070               9.80   -33600.00
04071               9.60   -32800.00
04072               8.20   -32800.00
04073               9.80   -33600.00
04074               8.40   -33600.00
04075               9.00   -33600.00
04076              10.80   -33600.00
04077               9.80   -32800.00
04078              11.60   -32800.00
04079              10.60   -33600.00
04080               9.40   -32800.00
04081              10.60   -32800.00
04082               9.00   -32800.00
04083               8.80   -32800.00
04084               9.20   -32800.00
04085               9.00   -33600.00
04086               9.00   -32000.00
04087               9.20   -32800.00
04088               9.00   -32000.00
04089               7.80   -32000.00
04090               8.40   -32800.00
04091               7.80   -32000.00
04092               6.80   -32000.00
04093               7.60   -32000.00
04094               6.60   -32000.00
04095               6.80   -30400.00
04096               7.80   -31200.00
04097               6.60   -30400.00
04098               6.40   -29600.00
04099               6.80   -30400.00
04100               6.20   -30400.00
04101               5.80   -29600.00
04102               5.20   -28800.00
04103               5.40   -28800.00
04104               4.80   -28800.00
04105               4.80   -28000.00
04106               5.40   -28000.00
04107               5.20   -28000.00
04108               5.00   -27200.00
04109               5.00   -27200.00
04110               4.20   -27200.00
04111               3.80   -26400.00
04112               3.40   -25600.00
04113               4.40   -25600.00
04114               4.00   -25600.00
04115               3.40   -24000.00
04116               3.80   -24000.00
04117               3.40   -24000.00
04118               3.40   -24000.00
04119               3.40   -23200.00
04120               2.80   -22400.00
04121               2.60   -22400.00
04122               2.20   -22400.00
04123               2.60   -20800.00
04124               2.20   -20800.00
04125               2.40   -20000.00
04126               2.60   -20000.00
04127               2.40   -18400.00
04128               2.60   -18400.00
04129               1.80   -17600.00
04130               1.20   -17600.00
04131               1.80   -16800.00
04132               1.20   -16800.00
04133               1.40   -16000.00
04134               2.00   -15200.00
04135               1.00   -14400.00
04136               1.60   -14400.00
04137               1.80   -13600.00
04138               0.60   -12800.00
04139               0.80   -12800.00
04140               1.20   -12000.00
04141               0.60   -11200.00
04142               0.40   -10400.00
04143               0.80   -10400.00
04144               0.60    -9600.00
04145               1.20    -8800.00
04146               0.20    -8000.00
04147               0.40    -7200.00
04148               0.40    -7200.00
04149              -0.20    -6400.00
04150               0.20    -5600.00
04151               1.00    -4800.00
04152               0.20    -4800.00
04153              -0.20    -4000.00
04154               0.40    -3200.00
04155               0.20    -2400.00
04156              -0.20    -1600.00
04157               0.00    -1600.00
04158              -0.40     -800.00
04159              -0.40     -800.00
04160              -0.20        0.00
04161              -0.20      800.00
04162               1.00     1600.00
04163               3.40     1600.00
04164              -2.20     2400.00
04165              -0.80     3200.00
04166               1.00     3200.00
04167              -0.60     4800.00
04168               1.00     4800.00
04169              19.60     5600.00
04170              25.00     7200.00
04171             -25.00     8000.00
04172             -18.20     8000.00
04173              25.00     8800.00
04174             -25.00     8800.00
04175              -8.20     9600.00
04176              25.00    10400.00
04177             -25.00    10400.00
04178              23.40    11200.00
04179              25.00    11200.00
04180             -25.00    12000.00
04181              25.00    13600.00
04182             -22.80    12800.00
04183             -16.20    14400.00
04184              25.00    14400.00
04185             -25.00    15200.00
04186              25.00    16000.00
04187              18.60    16000.00
04188             -25.00    16000.00
04189              25.00    17600.00
04190               6.20    17600.00
04191             -25.00    17600.00
04192               4.20    19200.00
04193              23.80    19200.00
04194             -25.00    20000.00
04195              15.20    21600.00
04196              14.60    21600.00
04197             -25.00    22400.00
04198              22.00    21600.00
04199             -15.00    22400.00
04200             -13.00    22400.00
04201               8.20    24000.00
04202              -6.20    24800.00
04203             -10.40    24000.00
04204              10.80    24800.00
04205             -10.40    24800.00
04206             -12.40    25600.00
04207               9.00    26400.00
04208             -16.40    26400.00
04209              -1.40    27200.00
04210               0.40    28000.00
04211              -9.60    28000.00
04212              -3.60    28000.00
04213              -3.40    28000.00
04214              -7.80    28800.00
04215              -6.00    28800.00
04216              -2.20    28800.00
04217              -9.00    30400.00
04218              -6.80    30400.00
04219              -3.80    30400.00
04220              -9.80    30400.00
04221              -5.20    30400.00
04222              -3.80    30400.00
04223             -10.20    31200.00
04224              -4.60    32000.00
04225              -7.80    32000.00
04226              -9.40    32800.00
04227              -6.40    32800.00
04228              -9.40    32800.00
04229              -7.40    32800.00
04230              -7.00    32800.00
04231              -9.00    33600.00
04232              -8.60    33600.00
04233              -9.40    33600.00
04234              -8.80    33600.00
04235              -9.80    32800.00
04236              -8.80    33600.00
04237             -10.00    33600.00
04238             -10.80    33600.00
04239              -8.60    33600.00
04240             -11.60    33600.00
04241             -10.20    33600.00
04242             -10.00    33600.00
04243             -11.80    33600.00
04244              -8.60    34400.00
04245             -11.40    34400.00
04246             -11.40    33600.00
04247              -9.40    34400.00
04248             -10.80    33600.00
04249             -10.00    33600.00
04250             -10.20    33600.00
04251             -10.20    33600.00
04252             -10.20    33600.00
04253              -9.40    33600.00
04254              -9.00    33600.00
04255             -10.00    32800.00
04256              -8.40    33600.00
04257              -8.60    32800.00
04258              -9.00    32000.00
04259              -7.80    32800.00
04260              -9.00    32000.00
04261              -7.60    32800.00
04262              -7.00    32000.00
04263              -7.60    31200.00
04264              -7.00    31200.00
04265              -7.60    31200.00
04266              -6.80    30400.00
04267              -6.20    31200.00
04268              -7.00    30400.00
04269              -6.80    30400.00
04270              -6.00    29600.00
04271              -6.00    28800.00
04272              -6.00    28800.00
04273              -5.40    28800.00
04274              -5.20    28000.00
04275              -5.80    28000.00
04276              -4.60    28000.00
04277              -5.00    27200.00
04278              -5.40    26400.00
04279              -4.40    27200.00
04280              -4.40    26400.00
04281              -4.40    25600.00
04282              -4.00    24800.00
04283              -4.60    24800.00
04284              -3.80    24000.00
04285              -3.80    24000.00
04286              -3.60    23200.00
04287              -3.60    23200.00
04288              -3.80    22400.00
04289              -3.00    22400.00
04290              -3.60    21600.00
04291              -3.40    20800.00
04292              -3.20    20800.00
04293              -2.80    20000.00
04294              -2.60    19200.00
04295              -2.80    19200.00
04296              -2.80    18400.00
04297              -2.80    18400.00
04298              -2.20    17600.00
04299              -2.20    16800.00
04300              -2.40    16000.00
04301              -2.20    16000.00
04302              -2.00    14400.00
04303              -2.20    14400.00
04304              -1.40    14400.00
04305              -2.60    13600.00
04306              -1.40    12800.00
04307              -1.20    12800.00
04308              -2.00    12000.00
04309              -1.20    11200.00
04310              -1.20    10400.00
04311              -2.20     9600.00
04312              -1.00     9600.00
04313              -0.60     8800.00
04314              -1.40     8000.00
04315              -1.20     8000.00
04316              -1.40     7200.00
04317              -1.00     6400.00
04318              -1.00     5600.00
04319              -1.20     4800.00
04320              -1.00     4800.00
04321              -0.60     4000.00
04322              -0.60     3200.00
04323              -1.00     2400.00
04324              -0.20     1600.00
04325              -0.60     1600.00
04326              -0.20      800.00
04327               1.00        0.00
04328              -0.60     -800.00
04329               2.60     -800.00
04330               3.00    -1600.00
04331              -2.00    -1600.00
04332               0.40    -3200.00
04333               1.40    -4000.00
04334              -0.40    -3200.00
04335               2.60    -4000.00
04336              12.20    -4800.00
04337              25.00    -6400.00
04338             -23.40    -7200.00
04339             -25.00    -8000.00
04340              21.20    -8000.00
04341              11.60    -8800.00
04342             -25.00    -8000.00
04343              24.40    -8800.00
04344              25.00   -10400.00
04345             -25.00    -9600.00
04346              25.00   -11200.00
04347              25.00   -12000.00
04348             -25.00   -12800.00
04349              25.00   -13600.00
04350              -6.60   -13600.00
04351              -3.40   -13600.00
04352              23.40   -14400.00
04353             -25.00   -15200.00
04354              25.00   -16000.00
04355               5.40   -16000.00
04356             -25.00   -16800.00
04357              25.00   -17600.00
04358              10.60   -16800.00
04359             -25.00   -18400.00
04360              13.80   -18400.00
04361              19.60   -20000.00
04362             -25.00   -20000.00
04363              23.40   -20800.00
04364              10.80   -20800.00
04365             -16.60   -21600.00
04366              19.00   -22400.00
04367              -2.00   -22400.00
04368              -6.00   -22400.00
04369              12.60   -23200.00
04370               4.20   -24000.00
04371              -4.00   -24000.00
04372              16.20   -24000.00
04373              -1.60   -24800.00
04374              -1.80   -25600.00
04375              13.80   -26400.00
04376              -3.60   -26400.00
04377               5.40   -26400.00
04378               9.60   -27200.00
04379               1.40   -27200.00
04380               3.80   -27200.00
04381               8.20   -28800.00
04382               2.60   -28800.00
04383               5.00   -28800.00
04384               9.00   -28800.00
04385               2.60   -29600.00
04386               5.80   -29600.00
04387               8.40   -30400.00
04388               3.00   -30400.00
04389               7.40   -30400.00
04390               8.80   -30400.00
04391               3.60   -30400.00
04392               8.40   -31200.00
04393               7.40   -31200.00
04394               5.20   -32000.00
04395               8.20   -32000.00
04396               7.80   -32000.00
04397               8.20   -32000.00
04398               8.20   -32800.00
04399               8.20   -32800.00
04400               7.80   -32800.00
04401               8.40   -32800.00
04402               9.40   -32800.00
04403               8.60   -32800.00
04404              10.00   -32800.00
04405               9.20   -33600.00
04406               9.20   -32800.00
04407              10.60   -33600.00
04408               9.00   -33600.00
04409              10.20   -32800.00
04410              10.20   -33600.00
04411              10.00   -32800.00
04412              10.80   -33600.00
04413               9.60   -32800.00
04414               9.80   -33600.00
04415              10.40   -32800.00
04416               9.80   -32800.00
04417               8.60   -32800.00
04418               9.40   -32800.00
04419              10.00   -32800.00
04420               7.60   -32800.00
04421               9.40   -32000.00
04422               8.60   -32000.00
04423               7.00   -32800.00
04424               9.40   -32000.00
04425               7.40   -32000.00
04426               7.20   -32000.00
04427               8.20   -32000.00
04428               6.60   -32000.00
04429               6.80   -30400.00
04430               7.40   -30400.00
04431               5.80   -30400.00
04432               6.80   -29600.00
04433               7.20   -29600.00
04434               5.20   -29600.00
04435               6.40   -29600.00
04436               6.20   -29600.00
04437               4.20   -28800.00
04438               5.40   -28800.00
04439               5.60   -28000.00
04440               3.60   -28000.00
04441               5.20   -27200.00
04442               5.00   -27200.00
04443               3.60   -27200.00
04444               4.40   -26400.00
04445               3.60   -26400.00
04446               3.00   -25600.00
04447               4.60   -25600.00
04448               4.00   -25600.00
04449               3.20   -24000.00
04450               4.20   -24000.00
04451               3.00   -24000.00
04452               2.60   -23200.00
04453               3.00   -22400.00
04454               2.60   -22400.00
04455               2.40   -22400.00
04456               2.80   -21600.00
04457               2.80   -20800.00
04458               2.60   -20800.00
04459               2.20   -20000.00
04460               2.00   -20000.00
04461               2.00   -18400.00
04462               2.20   -17600.00
04463               1.40   -17600.00
04464               1.80   -16800.00
04465               2.00   -16800.00
04466               1.80   -16000.00
04467               1.40   -16000.00
04468               1.40   -16000.00
04469               1.40   -14400.00
04470               1.00   -14400.00
04471               1.00   -13600.00
04472               1.20   -12800.00
04473               0.40   -12800.00
04474               1.40   -12000.00
04475               1.40   -11200.00
04476               0.40   -11200.00
04477               1.00    -9600.00
04478               1.00    -9600.00
04479               0.40    -8800.00
04480               0.40    -8000.00
04481               0.40    -7200.00
04482               0.20    -7200.00
04483               0.20    -6400.00
04484               0.80    -5600.00
04485               0.80    -4800.00
04486               0.20    -4800.00
04487               0.40    -4000.00
04488               0.20    -3200.00
04489              -0.60    -2400.00
04490              -0.40    -1600.00
04491              -0.20    -1600.00
04492              -0.40     -800.00
04493               0.40        0.00
04494               0.20        0.00
04495               0.40     1600.00
04496               2.60     1600.00
04497               1.40     2400.00
04498              -2.60     2400.00
04499               0.00     3200.00
04500               0.60     3200.00
04501              -1.80     4800.00
04502               6.20     4800.00
04503              25.00     6400.00
04504              -7.60     8000.00
04505             -25.00     8000.00
04506              11.60     8000.00
04507              17.00     8000.00
04508             -25.00     8800.00
04509              25.00     9600.00
04510              25.00     9600.00
04511             -25.00    10400.00
04512              25.00    11200.00
04513             -20.20    11200.00
04514             -25.00    12000.00
04515              25.00    12800.00
04516             -25.00    12800.00
04517              25.00    14400.00
04518               3.40    15200.00
04519             -25.00    15200.00
04520              25.00    16000.00
04521             -25.00    16800.00
04522             -14.20    17600.00
04523              25.00    17600.00
04524             -18.60    18400.00
04525             -25.00    18400.00
04526              25.00    19200.00
04527              -3.00    19200.00
04528             -25.00    20800.00
04529              25.00    20800.00
04530             -19.60    21600.00
04531              -9.00    22400.00
04532              17.00    22400.00
04533             -24.80    23200.00
04534               1.20    24000.00
04535               4.20    24000.00
04536             -12.20    24000.00
04537              -2.80    24800.00
04538               8.40    24800.00
04539             -20.20    25600.00
04540               2.60    25600.00
04541              -0.40    26400.00
04542             -15.40    27200.00
04543               4.20    27200.00
04544              -6.20    28000.00
04545              -7.60    28000.00
04546              -2.60    28800.00
04547              -5.00    28800.00
04548              -8.60    28800.00
04549              -3.80    28800.00
04550              -5.00    28800.00
04551              -9.20    30400.00
04552              -4.40    30400.00
04553              -5.60    30400.00
04554              -9.20    30400.00
04555              -2.20    31200.00
04556              -7.80    31200.00
04557              -9.20    31200.00
04558              -4.40    32000.00
04559             -10.00    32800.00
04560              -7.00    32000.00
04561              -7.00    32800.00
04562              -9.20    32000.00
04563              -6.60    32800.00
04564              -8.40    32800.00
04565              -8.60    33600.00
04566              -9.60    32800.00
04567              -9.40    33600.00
04568              -9.00    33600.00
04569              -9.80    33600.00
04570              -8.60    33600.00
04571             -10.40    33600.00
04572              -9.20    34400.00
04573              -9.40    34400.00
04574             -11.60    33600.00
04575              -9.40    33600.00
04576             -11.80    33600.00
04577             -10.60    34400.00
04578              -9.40    33600.00
04579             -12.40    33600.00
04580             -10.00    33600.00
04581             -10.20    33600.00
04582             -10.60    34400.00
04583             -10.00    33600.00
04584             -10.80    33600.00
04585             -10.00    33600.00
04586              -9.80    33600.00
04587              -9.20    33600.00
04588              -9.40    32800.00
04589              -9.00    32800.00
04590              -8.40    32000.00
04591              -9.00    32800.00
04592              -7.60    32800.00
04593              -8.60    32000.00
04594              -8.60    32000.00
04595              -6.80    32000.00
04596              -8.20    31200.00
04597              -7.60    31200.00
04598              -6.60    31200.00
04599              -7.60    31200.00
04600              -6.60    30400.00
04601              -6.40    30400.00
04602              -7.00    30400.00
04603              -6.20    30400.00
04604              -5.80    29600.00
04605              -5.80    28800.00
04606              -5.80    28800.00
04607              -5.20    28000.00
04608              -5.80    28000.00
04609              -5.40    28000.00
04610              -4.60    27200.00
04611              -5.80    27200.00
04612              -5.00    26400.00
04613              -4.20    25600.00
04614              -4.80    25600.00
04615              -3.80    25600.00
04616              -4.60    24800.00
04617              -4.40    24800.00
04618              -3.60    24000.00
04619              -3.80    24000.00
04620              -3.80    23200.00
04621              -3.60    22400.00
04622              -3.40    22400.00
04623              -3.40    22400.00
04624              -3.60    21600.00
04625              -3.20    20800.00
04626              -3.40    20000.00
04627              -2.60    20000.00
04628              -2.60    19200.00
04629              -2.80    18400.00
04630              -2.60    18400.00
04631              -2.60    17600.00
04632              -2.20    17600.00
04633              -2.20    16800.00
04634              -2.60    16000.00
04635              -2.00    16000.00
04636              -2.20    15200.00
04637              -2.20    14400.00
04638              -1.80    14400.00
04639              -2.60    13600.00
04640              -2.00    12800.00
04641              -1.40    12800.00
04642              -1.40    11200.00
04643              -2.20    11200.00
04644              -1.80    11200.00
04645              -1.60    10400.00
04646              -1.60     8800.00
04647              -1.00     8800.00
04648              -1.00     8000.00
04649              -1.40     8000.00
04650              -1.00     7200.00
04651              -0.80     5600.00
04652              -1.00     5600.00
04653              -1.20     4800.00
04654              -0.60     4800.00
04655              -0.60     3200.00
04656              -1.00     3200.00
04657              -0.80     2400.00
04658              -0.60     1600.00
04659              -0.40      800.00
04660              -0.40      800.00
04661               0.40        0.00
04662               0.60     -800.00
04663               3.80     -800.00
04664              -0.40    -1600.00
04665              -1.40    -2400.00
04666               1.40    -2400.00
04667               1.40    -3200.00
04668              -0.40    -4000.00
04669               4.80    -4800.00
04670              20.40    -5600.00
04671              18.00    -6400.00
04672             -25.00    -7200.00
04673             -14.80    -8800.00
04674              25.00    -8000.00
04675             -17.00    -9600.00
04676             -25.00    -8800.00
04677              25.00    -9600.00
04678               7.00   -10400.00
04679             -25.00   -10400.00
04680              25.00   -11200.00
04681             -17.20   -12000.00
04682             -25.00   -12800.00
04683              25.00   -13600.00
04684             -25.00   -13600.00
04685              24.20   -14400.00
04686              -7.80   -14400.00
04687             -14.80   -15200.00
04688              25.00   -16000.00
04689             -23.00   -16800.00
04690              -6.00   -16800.00
04691              25.00   -17600.00
04692             -10.60   -17600.00
04693             -17.60   -18400.00
04694              25.00   -19200.00
04695              -7.60   -20000.00
04696             -15.40   -20000.00
04697              25.00   -20800.00
04698             -11.60   -20800.00
04699              -1.60   -22400.00
04700              18.00   -22400.00
04701             -10.60   -22400.00
04702               3.00   -24000.00
04703              13.80   -24000.00
04704              -4.60   -24000.00
04705               4.20   -24800.00
04706              13.80   -24800.00
04707              -8.60   -25600.00
04708               9.00   -25600.00
04709               8.20   -25600.00
04710              -4.20   -26400.00
04711              10.00   -27200.00
04712               5.20   -27200.00
04713               1.00   -27200.00
04714               6.80   -27200.00
04715               6.60   -28800.00
04716               2.00   -28800.00
04717               7.40   -28800.00
04718               6.20   -29600.00
04719               2.00   -28800.00
04720               8.20   -29600.00
04721               6.20   -30400.00
04722               3.80   -30400.00
04723               9.80   -30400.00
04724               5.80   -30400.00
04725               5.20   -30400.00
04726               9.20   -31200.00
04727               5.80   -32000.00
04728               6.80   -32000.00
04729               8.60   -32000.00
04730               7.60   -32000.00
04731               8.60   -32800.00
04732               8.20   -32000.00
04733               8.00   -32800.00
04734               8.20   -32800.00
04735               9.00   -32800.00
04736               9.00   -32800.00
04737               9.00   -32800.00
04738              10.20   -32800.00
04739               8.40   -32800.00
04740              10.00   -32800.00
04741              10.20   -33600.00
04742               8.80   -33600.00
04743              11.20   -32800.00
04744               9.80   -32800.00
04745              10.20   -33600.00
04746              10.60   -33600.00
04747               9.40   -32800.00
04748              10.20   -32800.00
04749              10.00   -32800.00
04750               9.80   -32800.00
04751               9.20   -32800.00
04752               9.40   -32800.00
04753               9.00   -32800.00
04754               8.40   -32000.00
04755               9.20   -32800.00
04756               8.40   -32000.00
04757               8.00   -32000.00
04758               8.20   -32800.00
04759               7.40   -32000.00
04760               7.40   -31200.00
04761               7.60   -32000.00
04762               6.80   -31200.00
04763               7.40   -31200.00
04764               7.00   -30400.00
04765               5.60   -30400.00
04766               6.20   -30400.00
04767               6.80   -29600.00
04768               5.40   -29600.00
04769               5.80   -29600.00
04770               6.00   -28800.00
04771               4.80   -28800.00
04772               5.20   -28800.00
04773               5.20   -28000.00
04774               4.40   -28000.00
04775               5.00   -27200.00
04776               4.40   -27200.00
04777               4.00   -27200.00
04778               4.40   -25600.00
04779               3.00   -26400.00
04780               4.40   -25600.00
04781               4.60   -25600.00
04782               2.60   -25600.00
04783               3.00   -24000.00
04784               3.60   -24000.00
04785               2.60   -23200.00
04786               2.80   -23200.00
04787               3.40   -22400.00
04788               3.00   -22400.00
04789               2.60   -22400.00
04790               2.60   -20800.00
04791               2.20   -20800.00
04792               2.00   -20800.00
04793               2.00   -20000.00
04794               2.00   -18400.00
04795               2.40   -18400.00
04796               1.40   -18400.00
04797               1.60   -17600.00
04798               1.80   -16800.00
04799               1.40   -16800.00
04800               2.00   -16000.00
04801               1.20   -15200.00
04802               1.20   -15200.00
04803               1.40   -14400.00
04804               1.00   -14400.00
04805               1.60   -13600.00
04806               1.20   -12800.00
04807               1.00   -12000.00
04808               1.20   -11200.00
04809               0.40   -11200.00
04810               1.20   -10400.00
04811               0.20    -9600.00
04812               0.60    -8800.00
04813               1.20    -8800.00
04814               0.20    -8000.00
04815               0.20    -7200.00
04816               1.00    -6400.00
04817              -0.20    -6400.00
04818               0.20    -6400.00
04819               0.80    -4800.00
04820              -0.40    -4000.00
04821               0.20    -3200.00
04822               1.00    -3200.00
04823              -0.60    -2400.00
04824              -0.20    -1600.00
04825               0.20     -800.00
04826              -1.00        0.00
04827               0.20        0.00
04828               0.40      800.00
04829              -0.40     1600.00
04830               3.60     1600.00
04831              -0.60     2400.00
04832              -2.20     3200.00
04833               1.20     3200.00
04834               0.40     3200.00
04835              -1.80     4800.00
04836              14.40     5600.00
04837              25.00     7200.00
04838             -25.00     8000.00
04839             -25.00     8000.00
04840              25.00     8800.00
04841             -12.60     8800.00
04842             -25.00     9600.00
04843              25.00     9600.00
04844             -25.00    10400.00
04845             -18.20    11200.00
04846              25.00    12000.00
04847             -25.00    12000.00
04848              25.00    12800.00
04849              13.20    12800.00
04850             -25.00    13600.00
04851              25.00    14400.00
04852             -25.00    14400.00
04853              11.40    16000.00
04854              25.00    15200.00
04855             -25.00    16800.00
04856              25.00    17600.00
04857              20.20    17600.00
04858             -25.00    18400.00
04859              -8.40    18400.00
04860              25.00    19200.00
04861             -25.00    20000.00
04862              -1.80    20800.00
04863              25.00    20800.00
04864             -25.00    21600.00
04865              16.20    22400.00
04866              -4.60    22400.00
04867             -19.60    22400.00
04868               8.40    24000.00
04869              -2.60    24000.00
04870             -12.60    24000.00
04871               8.00    24800.00
04872              -3.60    25600.00
04873             -17.60    25600.00
04874              10.00    25600.00
04875             -12.40    26400.00
04876              -6.20    27200.00
04877               3.40    27200.00
04878             -10.20    28000.00
04879              -5.20    28000.00
04880              -2.40    28000.00
04881              -7.00    28000.00
04882              -7.40    28800.00
04883              -1.20    28800.00
04884              -7.40    30400.00
04885              -8.40    30400.00
04886              -3.00    30400.00
04887              -8.60    30400.00
04888              -7.40    31200.00
04889              -2.60    31200.00
04890              -9.80    31200.00
04891              -6.20    32000.00
04892              -6.20    32000.00
04893             -10.00    32800.00
04894              -6.00    32800.00
04895              -8.80    32000.00
04896              -7.80    32800.00
04897              -6.80    32800.00
04898              -8.80    33600.00
04899              -9.20    33600.00
04900              -9.20    33600.00
04901              -8.80    33600.00
04902              -9.80    33600.00
04903              -9.20    33600.00
04904              -9.40    33600.00
04905             -11.00    33600.00
04906              -8.60    33600.00
04907             -11.00    33600.00
04908             -10.80    33600.00
04909              -9.40    33600.00
04910             -12.40    33600.00
04911              -9.00    33600.00
04912             -10.80    33600.00
04913             -12.20    33600.00
04914              -9.20    33600.00
04915             -11.00    33600.00
04916             -10.80    33600.00
04917             -10.20    33600.00
04918             -10.60    33600.00
04919             -10.20    33600.00
04920              -9.80    33600.00
04921              -9.00    33600.00
04922              -9.40    32800.00
04923              -8.60    32800.00
04924              -8.60    32800.00
04925              -8.40    32800.00
04926              -8.20    32000.00
04927              -8.80    32800.00
04928              -7.20    32000.00
04929              -7.40    31200.00
04930              -8.20    32000.00
04931              -6.60    31200.00
04932              -7.40    31200.00
04933              -7.20    31200.00
04934              -5.80    31200.00
04935              -7.00    30400.00
04936              -6.80    30400.00
04937              -5.80    29600.00
04938              -6.00    28800.00
04939              -5.80    28800.00
04940              -5.40    28800.00
04941              -5.40    28800.00
04942              -5.40    28000.00
04943              -4.60    27200.00
04944              -5.20    27200.00
04945              -5.80    27200.00
04946              -3.80    26400.00
04947              -4.20    26400.00
04948              -4.60    25600.00
04949              -4.00    25600.00
04950              -4.20    24800.00
04951              -4.40    24800.00
04952              -3.60    24000.00
04953              -3.40    24000.00
04954              -4.40    23200.00
04955              -3.60    22400.00
04956              -2.40    21600.00
04957              -4.00    22400.00
04958              -3.40    21600.00
04959              -3.00    20000.00
04960              -3.60    20000.00
04961              -2.80    19200.00
04962              -2.80    19200.00
04963              -2.40    18400.00
04964              -2.80    17600.00
04965              -2.80    17600.00
04966              -2.00    16800.00
04967              -2.60    16000.00
04968              -3.00    16000.00
04969              -2.00    15200.00
04970              -2.20    15200.00
04971              -2.60    14400.00
04972              -2.00    13600.00
04973              -2.00    12800.00
04974              -2.00    12000.00
04975              -2.00    12000.00
04976              -1.80    11200.00
04977              -1.80    11200.00
04978              -1.40    10400.00
04979              -1.80     9600.00
04980              -1.20     8800.00
04981              -1.40     8800.00
04982              -1.20     8000.00
04983              -1.20     7200.00
04984              -0.60     7200.00
04985              -1.20     5600.00
04986              -1.20     5600.00
04987              -1.20     4800.00
04988              -0.60     4000.00
04989              -0.60     3200.00
04990              -1.00     2400.00
04991              -1.00     2400.00
04992              -0.40     1600.00
04993              -0.60      800.00
04994               0.40        0.00
04995               0.00     -800.00
04996               1.80     -800.00
04997               3.80    -1600.00
04998              -2.60    -1600.00
04999               0.40    -3200.00
05000               2.00    -3200.00
