Unit:(mV)
                     CH1         CH2
Frequency              ? 299.887 kHz
00001              12.80    -6400.00
00002             -25.00    -7200.00
00003             -11.00    -8000.00
00004              25.00    -8000.00
00005             -25.00    -8800.00
00006             -25.00    -8000.00
00007              25.00    -9600.00
00008              -9.00   -10400.00
00009             -25.00   -10400.00
00010              25.00   -12000.00
00011             -25.00   -11200.00
00012             -22.00   -12800.00
00013              25.00   -13600.00
00014             -25.00   -13600.00
00015              25.00   -14400.00
00016             -23.00   -14400.00
00017              -5.80   -14400.00
00018              25.00   -16000.00
00019             -25.00   -16000.00
00020              -0.60   -16800.00
00021              25.00   -16800.00
00022             -25.00   -17600.00
00023             -15.40   -18400.00
00024              25.00   -19200.00
00025             -19.40   -19200.00
00026             -11.60   -20000.00
00027              25.00   -20000.00
00028             -19.20   -20800.00
00029              -0.60   -20800.00
00030               9.40   -22400.00
00031             -15.80   -22400.00
00032               6.00   -22400.00
00033               3.60   -23200.00
00034              -8.60   -24000.00
00035               9.00   -24000.00
00036               1.20   -24000.00
00037             -13.00   -24000.00
00038              12.40   -24800.00
00039              -4.40   -25600.00
00040              -9.20   -25600.00
00041              11.60   -26400.00
00042              -5.40   -26400.00
00043              -4.20   -27200.00
00044               6.60   -27200.00
00045              -2.80   -28000.00
00046              -3.00   -28000.00
00047               4.40   -28000.00
00048              -3.80   -28800.00
00049              -3.00   -28800.00
00050               2.80   -28800.00
00051              -3.80   -29600.00
00052              -0.60   -29600.00
00053               2.40   -29600.00
00054              -3.80   -29600.00
00055               0.40   -30400.00
00056               0.60   -30400.00
00057              -4.20   -31200.00
00058               1.00   -31200.00
00059              -0.60   -32000.00
00060              -2.20   -31200.00
00061               1.20   -32000.00
00062              -1.60   -32000.00
00063              -1.80   -32000.00
00064              -0.20   -32800.00
00065              -1.40   -32000.00
00066              -1.20   -32000.00
00067               0.20   -32000.00
00068              -1.00   -32800.00
00069              -1.80   -32000.00
00070               0.40   -32000.00
00071              -1.40   -32800.00
00072              -1.40   -32800.00
00073               0.40   -32800.00
00074              -2.00   -32000.00
00075              -0.20   -32000.00
00076              -0.40   -32800.00
00077              -2.00   -32800.00
00078              -0.20   -32000.00
00079              -0.60   -32800.00
00080              -1.20   -32000.00
00081              -1.00   -32800.00
00082              -0.60   -32000.00
00083              -1.00   -32000.00
00084              -0.60   -32000.00
00085              -0.40   -32000.00
00086              -1.20   -32000.00
00087              -0.60   -31200.00
00088              -0.40   -31200.00
00089              -1.20   -31200.00
00090              -0.60   -30400.00
00091              -1.00   -30400.00
00092              -0.80   -30400.00
00093              -0.40   -30400.00
00094              -1.20   -29600.00
00095              -0.60   -29600.00
00096              -0.40   -29600.00
00097              -1.20   -29600.00
00098              -1.20   -28800.00
00099              -0.60   -28800.00
00100              -0.60   -28000.00
00101              -0.60   -28000.00
00102              -0.60   -28000.00
00103              -1.00   -27200.00
00104              -0.60   -27200.00
00105              -0.60   -26400.00
00106              -0.60   -26400.00
00107              -0.40   -26400.00
00108              -0.60   -26400.00
00109              -1.40   -25600.00
00110              -0.40   -24800.00
00111              -0.60   -24000.00
00112              -1.00   -24000.00
00113              -0.20   -24000.00
00114              -1.00   -24000.00
00115              -1.00   -23200.00
00116              -0.60   -22400.00
00117              -1.00   -22400.00
00118              -1.00   -22400.00
00119              -0.60   -20800.00
00120              -0.60   -20000.00
00121              -0.80   -20000.00
00122              -1.00   -20000.00
00123              -1.20   -18400.00
00124              -1.00   -18400.00
00125              -0.60   -17600.00
00126              -1.00   -17600.00
00127              -1.00   -17600.00
00128              -0.60   -16000.00
00129              -1.00   -16000.00
00130              -0.60   -16000.00
00131              -0.40   -15200.00
00132              -0.80   -15200.00
00133              -0.60   -13600.00
00134              -0.60   -13600.00
00135              -0.60   -12800.00
00136              -0.60   -12800.00
00137              -0.60   -11200.00
00138              -0.40   -11200.00
00139              -0.60   -10400.00
00140              -0.60   -10400.00
00141              -0.60    -9600.00
00142              -0.60    -8800.00
00143              -0.60    -8000.00
00144              -0.60    -8000.00
00145              -0.80    -7200.00
00146              -0.40    -6400.00
00147              -0.40    -5600.00
00148              -0.60    -4800.00
00149              -0.20    -4800.00
00150              -0.20    -4000.00
00151              -1.00    -3200.00
00152              -0.20    -2400.00
00153              -0.40    -1600.00
00154              -0.60    -1600.00
00155              -0.40    -1600.00
00156               0.00        0.00
00157              -1.00        0.00
00158               0.60     1600.00
00159               1.00     1600.00
00160               3.20     1600.00
00161              -2.20     2400.00
00162              -0.60     2400.00
00163               1.40     3200.00
00164               0.40     4000.00
00165               0.60     4800.00
00166              18.80     5600.00
00167              25.00     7200.00
00168             -25.00     8000.00
00169             -19.40     8000.00
00170              25.00     8000.00
00171             -24.20     8800.00
00172              -9.80     8800.00
00173              25.00    10400.00
00174             -25.00     9600.00
00175              18.80    11200.00
00176              25.00    11200.00
00177             -25.00    11200.00
00178              25.00    12800.00
00179             -22.60    12800.00
00180             -14.80    13600.00
00181              25.00    13600.00
00182             -25.00    14400.00
00183              25.00    16000.00
00184              25.00    16000.00
00185             -25.00    16000.00
00186              25.00    16800.00
00187              12.20    17600.00
00188             -25.00    17600.00
00189              12.40    18400.00
00190              25.00    19200.00
00191             -25.00    19200.00
00192              17.00    20800.00
00193              20.00    20800.00
00194             -25.00    20800.00
00195              25.00    21600.00
00196             -15.60    22400.00
00197              -7.40    22400.00
00198              15.80    23200.00
00199             -11.80    24000.00
00200              -0.60    24000.00
00201              17.20    24800.00
00202             -13.40    24800.00
00203              -4.60    24800.00
00204              18.20    25600.00
00205             -19.00    25600.00
00206               5.80    26400.00
00207               9.80    25600.00
00208             -11.00    27200.00
00209               4.40    28000.00
00210               3.40    28000.00
00211              -5.40    28000.00
00212               2.00    28000.00
00213               4.20    28800.00
00214              -4.60    28800.00
00215               2.20    28800.00
00216               1.80    30400.00
00217              -4.60    30400.00
00218               4.20    30400.00
00219               1.60    30400.00
00220              -3.60    30400.00
00221               5.00    31200.00
00222              -1.40    31200.00
00223              -2.20    31200.00
00224               3.60    32800.00
00225              -2.60    32000.00
00226               1.00    32000.00
00227               2.60    32800.00
00228              -1.40    32800.00
00229               0.60    32800.00
00230               0.40    33600.00
00231              -1.00    32800.00
00232               0.60    32000.00
00233               1.00    32800.00
00234              -0.60    33600.00
00235               0.20    33600.00
00236               2.00    32800.00
00237              -1.80    32800.00
00238               1.20    32800.00
00239               0.60    32800.00
00240              -1.40    32800.00
00241               2.60    32800.00
00242              -1.00    33600.00
00243              -0.60    33600.00
00244               1.60    33600.00
00245              -0.60    33600.00
00246               0.40    32800.00
00247               0.20    33600.00
00248              -0.20    33600.00
00249              -0.20    32000.00
00250               0.40    32800.00
00251               0.40    32800.00
00252              -0.60    32800.00
00253               0.40    32800.00
00254               0.40    32000.00
00255               0.20    32800.00
00256               0.20    32000.00
00257              -0.60    32000.00
00258               0.60    31200.00
00259               0.60    30400.00
00260              -0.60    31200.00
00261               0.40    30400.00
00262               0.40    30400.00
00263              -0.20    29600.00
00264               0.20    30400.00
00265              -0.20    29600.00
00266              -0.20    28800.00
00267              -0.20    28800.00
00268               0.60    28800.00
00269               0.20    28000.00
00270               0.20    28000.00
00271               0.40    27200.00
00272               0.20    27200.00
00273               0.40    27200.00
00274               0.20    26400.00
00275              -0.60    27200.00
00276               0.80    25600.00
00277               0.00    25600.00
00278              -0.40    25600.00
00279               0.60    24800.00
00280              -0.20    24800.00
00281              -0.20    24000.00
00282               0.40    24000.00
00283               0.40    23200.00
00284               0.20    22400.00
00285               0.20    21600.00
00286               0.40    21600.00
00287               0.20    20800.00
00288               0.20    20800.00
00289              -0.20    19200.00
00290               0.20    19200.00
00291               0.40    19200.00
00292              -0.40    18400.00
00293               0.20    17600.00
00294               0.00    17600.00
00295              -0.20    16000.00
00296               0.60    16000.00
00297              -0.20    16000.00
00298              -0.20    15200.00
00299               0.20    14400.00
00300              -0.40    14400.00
00301               0.20    13600.00
00302              -0.20    12800.00
00303              -0.40    12000.00
00304               0.40    12000.00
00305              -0.40    12000.00
00306              -0.60    11200.00
00307              -0.20    10400.00
00308               0.00     9600.00
00309              -0.60     8800.00
00310               0.20     8800.00
00311              -0.60     8000.00
00312              -0.40     7200.00
00313              -0.20     6400.00
00314               0.20     5600.00
00315              -0.20     5600.00
00316              -0.20     4800.00
00317              -0.60     4000.00
00318              -0.40     3200.00
00319              -0.40     2400.00
00320              -0.60     2400.00
00321              -0.20     1600.00
00322              -0.20     1600.00
00323              -0.40        0.00
00324               0.20        0.00
00325               0.20     -800.00
00326               2.20     -800.00
00327               1.40    -1600.00
00328              -2.00    -1600.00
00329               1.00    -2400.00
00330               1.00    -3200.00
00331              -0.60    -4000.00
00332               1.40    -4000.00
00333              12.20    -4800.00
00334              25.00    -6400.00
00335             -25.00    -7200.00
00336             -25.00    -8000.00
00337              19.80    -8000.00
00338               8.60    -8000.00
00339             -25.00    -8000.00
00340              25.00    -9600.00
00341              25.00   -10400.00
00342             -25.00   -10400.00
00343              25.00   -11200.00
00344              25.00   -11200.00
00345             -25.00   -12800.00
00346              25.00   -13600.00
00347             -11.20   -12800.00
00348               3.00   -14400.00
00349              15.60   -13600.00
00350             -25.00   -14400.00
00351              25.00   -16000.00
00352              -2.20   -16000.00
00353             -25.00   -16000.00
00354              25.00   -16800.00
00355               3.80   -17600.00
00356             -25.00   -18400.00
00357              18.40   -18400.00
00358              14.40   -19200.00
00359             -25.00   -20000.00
00360              22.80   -20000.00
00361               6.60   -20000.00
00362             -19.00   -21600.00
00363              16.20   -21600.00
00364              -8.60   -22400.00
00365              -5.40   -22400.00
00366               8.40   -23200.00
00367              -6.00   -24000.00
00368              -1.00   -24000.00
00369              10.60   -24000.00
00370             -12.60   -24800.00
00371               0.60   -25600.00
00372               9.00   -25600.00
00373             -14.80   -25600.00
00374               6.00   -26400.00
00375               4.20   -26400.00
00376              -8.60   -27200.00
00377               3.00   -27200.00
00378               1.80   -27200.00
00379              -5.80   -28000.00
00380               2.00   -28800.00
00381               1.40   -28800.00
00382              -5.20   -28800.00
00383               2.00   -28800.00
00384              -1.00   -29600.00
00385              -4.20   -29600.00
00386               2.60   -29600.00
00387              -1.20   -29600.00
00388              -3.00   -29600.00
00389               2.40   -31200.00
00390              -2.80   -30400.00
00391              -2.20   -30400.00
00392               1.40   -31200.00
00393              -2.40   -32000.00
00394              -0.20   -32000.00
00395               0.20   -32000.00
00396              -2.00   -32000.00
00397              -0.60   -32000.00
00398              -0.60   -32000.00
00399              -1.20   -32800.00
00400              -0.40   -32800.00
00401              -0.20   -32000.00
00402              -1.80   -32800.00
00403              -0.20   -32800.00
00404              -0.20   -32800.00
00405              -2.40   -32000.00
00406               0.20   -32000.00
00407              -0.80   -32800.00
00408              -1.40   -32800.00
00409               0.40   -32800.00
00410              -2.00   -32000.00
00411              -1.20   -32000.00
00412               0.20   -32000.00
00413              -1.00   -32800.00
00414              -1.20   -32800.00
00415              -0.60   -32800.00
00416              -1.00   -32000.00
00417              -1.00   -32000.00
00418              -0.40   -32000.00
00419              -1.20   -32000.00
00420              -0.60   -31200.00
00421              -0.40   -32000.00
00422              -1.20   -30400.00
00423              -0.80   -30400.00
00424              -0.60   -30400.00
00425              -1.00   -30400.00
00426              -0.20   -30400.00
00427              -0.60   -29600.00
00428              -1.40   -30400.00
00429              -0.60   -29600.00
00430              -0.60   -28800.00
00431              -1.00   -29600.00
00432              -0.60   -28800.00
00433              -0.60   -28800.00
00434              -1.20   -28800.00
00435              -1.00   -28000.00
00436              -0.40   -27200.00
00437              -1.20   -27200.00
00438              -0.60   -27200.00
00439              -0.60   -26400.00
00440              -1.60   -26400.00
00441              -0.40   -25600.00
00442              -1.20   -25600.00
00443              -1.40   -25600.00
00444              -0.20   -24800.00
00445              -0.60   -24000.00
00446              -1.00   -24000.00
00447              -0.60   -24000.00
00448              -1.20   -23200.00
00449              -1.20   -23200.00
00450              -0.80   -22400.00
00451              -0.60   -21600.00
00452              -1.20   -20800.00
00453              -0.60   -20800.00
00454              -0.60   -20000.00
00455              -1.20   -20000.00
00456              -0.40   -18400.00
00457              -0.40   -18400.00
00458              -1.00   -18400.00
00459              -0.60   -17600.00
00460              -1.00   -17600.00
00461              -0.60   -16000.00
00462              -1.20   -16000.00
00463              -0.60   -16000.00
00464               0.20   -15200.00
00465              -0.60   -14400.00
00466              -2.20   -14400.00
00467              -0.60   -13600.00
00468               0.40   -12800.00
00469              -1.60   -12800.00
00470              -1.20   -11200.00
00471               1.20   -11200.00
00472               0.00   -11200.00
00473              -2.40   -10400.00
00474               0.00    -9600.00
00475               0.40    -8800.00
00476              -1.80    -8000.00
00477              -0.60    -8000.00
00478               1.00    -7200.00
00479              -1.40    -7200.00
00480              -2.00    -6400.00
00481               1.40    -4800.00
00482               0.00    -4800.00
00483              -2.60    -4000.00
00484               1.20    -3200.00
00485               0.60    -3200.00
00486              -3.00    -2400.00
00487              -0.20    -1600.00
00488               1.00     -800.00
00489              -1.20     -800.00
00490               0.20        0.00
00491               1.00        0.00
00492              -0.60     1600.00
00493               2.60     1600.00
00494               0.60     1600.00
00495              -2.00     2400.00
00496               0.80     3200.00
00497               1.00     3200.00
00498              -1.00     4800.00
00499               8.20     5600.00
00500              25.00     6400.00
00501             -14.80     7200.00
00502             -25.00     8000.00
00503              15.80     8000.00
00504              11.60     8000.00
00505             -25.00     8800.00
00506              25.00     9600.00
00507              13.80     9600.00
00508             -25.00    10400.00
00509              25.00    11200.00
00510             -25.00    11200.00
00511             -12.60    12800.00
00512              25.00    12800.00
00513             -25.00    12800.00
00514              25.00    14400.00
00515             -19.60    14400.00
00516             -25.00    14400.00
00517              25.00    16000.00
00518             -25.00    16000.00
00519              -1.20    16000.00
00520              25.00    16800.00
00521             -25.00    17600.00
00522             -17.20    18400.00
00523              25.00    19200.00
00524             -13.00    19200.00
00525             -23.40    20800.00
00526              25.00    20800.00
00527             -24.40    21600.00
00528               5.00    21600.00
00529              13.80    22400.00
00530             -25.00    22400.00
00531              16.40    22400.00
00532              -0.60    23200.00
00533             -11.80    24000.00
00534              13.60    24000.00
00535               3.80    24000.00
00536             -19.00    24800.00
00537              17.80    25600.00
00538              -2.80    25600.00
00539             -13.00    25600.00
00540              16.60    27200.00
00541              -6.80    26400.00
00542              -3.80    27200.00
00543               7.60    27200.00
00544              -2.80    28000.00
00545              -3.20    28000.00
00546               6.00    28800.00
00547              -1.80    28800.00
00548              -2.60    28800.00
00549               4.60    30400.00
00550              -3.00    29600.00
00551              -0.60    30400.00
00552               5.20    30400.00
00553              -3.60    30400.00
00554               1.40    30400.00
00555               3.00    31200.00
00556              -4.40    31200.00
00557               2.60    32000.00
00558               0.40    32000.00
00559              -2.20    31200.00
00560               3.40    32800.00
00561               0.20    32000.00
00562              -1.00    32000.00
00563               1.00    32800.00
00564              -0.40    32800.00
00565               0.40    32800.00
00566               1.00    32800.00
00567               0.40    32800.00
00568              -1.00    33600.00
00569               1.40    33600.00
00570              -0.40    32800.00
00571              -1.00    32800.00
00572               1.80    32800.00
00573              -1.80    33600.00
00574               1.00    33600.00
00575               1.60    32800.00
00576              -2.00    33600.00
00577               1.20    33600.00
00578               0.40    32800.00
00579               0.00    32800.00
00580               0.60    32800.00
00581              -0.60    32000.00
00582               0.20    32800.00
00583               0.20    32800.00
00584               0.40    32800.00
00585              -0.40    32000.00
00586              -0.20    32000.00
00587               0.40    32000.00
00588               0.20    32800.00
00589               0.40    31200.00
00590              -0.60    31200.00
00591              -0.20    31200.00
00592               1.00    31200.00
00593              -0.20    31200.00
00594               0.00    30400.00
00595               0.40    30400.00
00596               0.20    30400.00
00597               0.40    30400.00
00598               0.20    29600.00
00599               0.20    28800.00
00600               0.20    28800.00
00601               0.00    28000.00
00602               0.20    28000.00
00603              -0.20    28000.00
00604               0.40    27200.00
00605               0.00    27200.00
00606               0.20    27200.00
00607               0.60    26400.00
00608              -0.60    26400.00
00609               0.20    25600.00
00610               0.40    25600.00
00611              -0.20    25600.00
00612               0.60    24800.00
00613              -0.20    24000.00
00614              -0.40    24000.00
00615               0.40    24000.00
00616               0.20    24000.00
00617               0.20    22400.00
00618              -0.20    22400.00
00619               0.20    21600.00
00620               0.20    21600.00
00621               0.20    20800.00
00622              -0.20    20800.00
00623              -0.20    20000.00
00624               0.60    19200.00
00625               0.20    19200.00
00626              -0.20    18400.00
00627               0.40    17600.00
00628              -0.40    17600.00
00629               0.40    16800.00
00630               0.20    16000.00
00631              -0.60    15200.00
00632              -0.20    14400.00
00633               0.20    14400.00
00634              -0.40    14400.00
00635              -0.20    12800.00
00636              -0.60    12800.00
00637               0.20    12800.00
00638              -0.20    12000.00
00639              -0.20    11200.00
00640              -0.40    10400.00
00641              -0.20    10400.00
00642              -0.60     9600.00
00643               0.00     8800.00
00644              -0.40     8000.00
00645              -0.20     8000.00
00646              -0.20     6400.00
00647              -0.20     6400.00
00648              -1.00     5600.00
00649               0.20     4800.00
00650              -0.60     4000.00
00651              -1.00     3200.00
00652               0.20     3200.00
00653              -0.40     2400.00
00654              -1.20     1600.00
00655               0.20     2400.00
00656              -0.60     1600.00
00657               0.20        0.00
00658               1.00        0.00
00659               0.40     -800.00
00660               4.20    -1600.00
00661              -1.20    -1600.00
00662              -1.20    -2400.00
00663               2.20    -3200.00
00664               0.40    -4000.00
00665              -1.80    -4000.00
00666               7.00    -4000.00
00667              22.60    -6400.00
00668               6.20    -7200.00
00669             -25.00    -8000.00
00670              -4.40    -8000.00
00671              24.40    -8800.00
00672             -25.00    -8000.00
00673             -21.40    -8800.00
00674              25.00    -9600.00
00675             -22.20   -10400.00
00676             -25.00   -10400.00
00677              25.00   -11200.00
00678             -25.00   -11200.00
00679             -10.20   -12800.00
00680              25.00   -13600.00
00681             -25.00   -13600.00
00682              25.00   -14400.00
00683             -25.00   -14400.00
00684               2.00   -15200.00
00685              25.00   -16000.00
00686             -25.00   -16000.00
00687               6.80   -16800.00
00688              25.00   -16800.00
00689             -25.00   -18400.00
00690             -10.80   -18400.00
00691              25.00   -19200.00
00692             -24.60   -19200.00
00693              -7.60   -20000.00
00694              25.00   -20800.00
00695             -20.40   -20800.00
00696               3.00   -20800.00
00697               6.80   -22400.00
00698             -14.00   -22400.00
00699               6.80   -23200.00
00700               1.40   -23200.00
00701              -7.80   -24000.00
00702               9.00   -24000.00
00703              -1.60   -24000.00
00704             -11.60   -24800.00
00705              12.60   -25600.00
00706              -6.60   -25600.00
00707              -6.40   -25600.00
00708              10.80   -26400.00
00709              -6.80   -27200.00
00710              -3.00   -27200.00
00711               5.00   -27200.00
00712              -3.80   -27200.00
00713              -2.20   -28000.00
00714               3.80   -28800.00
00715              -3.80   -28800.00
00716              -2.00   -28800.00
00717               2.40   -28800.00
00718              -4.40   -29600.00
00719               0.20   -29600.00
00720               2.40   -29600.00
00721              -4.20   -30400.00
00722               0.60   -30400.00
00723               0.40   -30400.00
00724              -3.80   -31200.00
00725               1.20   -30400.00
00726              -0.60   -31200.00
00727              -1.80   -32000.00
00728               1.20   -32000.00
00729              -1.60   -32000.00
00730              -1.40   -32000.00
00731               0.00   -32000.00
00732              -1.40   -32000.00
00733              -1.00   -32000.00
00734               0.20   -32800.00
00735              -1.20   -32800.00
00736              -1.40   -32800.00
00737               1.00   -32800.00
00738              -1.80   -32800.00
00739              -1.40   -32000.00
00740               0.60   -32800.00
00741              -2.00   -32000.00
00742              -0.20   -32800.00
00743              -0.40   -32800.00
00744              -2.00   -32000.00
00745               0.20   -32000.00
00746              -0.60   -32800.00
00747              -1.20   -32000.00
00748              -0.60   -32800.00
00749              -0.60   -32000.00
00750              -1.00   -32000.00
00751              -0.40   -32000.00
00752              -0.60   -32000.00
00753              -1.20   -31200.00
00754              -0.20   -32000.00
00755              -1.00   -32000.00
00756              -1.20   -30400.00
00757              -0.40   -30400.00
00758              -1.20   -29600.00
00759              -1.00   -30400.00
00760              -0.60   -30400.00
00761              -1.20   -29600.00
00762              -0.40   -29600.00
00763              -0.60   -29600.00
00764              -1.20   -28800.00
00765              -0.60   -28800.00
00766              -0.60   -28800.00
00767              -0.60   -28800.00
00768              -1.00   -28000.00
00769              -0.60   -28000.00
00770              -1.20   -27200.00
00771              -1.20   -27200.00
00772              -1.00   -27200.00
00773              -0.80   -26400.00
00774              -0.60   -26400.00
00775              -1.00   -25600.00
00776              -1.20   -25600.00
00777              -0.40   -24800.00
00778              -0.60   -24000.00
00779              -0.60   -24000.00
00780              -0.60   -24000.00
00781              -1.00   -23200.00
00782              -1.00   -23200.00
00783              -0.80   -23200.00
00784              -1.20   -22400.00
00785              -1.00   -21600.00
00786              -1.00   -21600.00
00787              -0.40   -20800.00
00788              -0.80   -20000.00
00789              -1.00   -20000.00
00790              -0.60   -18400.00
00791              -0.60   -18400.00
00792              -0.60   -18400.00
00793              -0.40   -17600.00
00794              -0.80   -17600.00
00795              -0.60   -16800.00
00796              -0.60   -16000.00
00797              -1.00   -15200.00
00798              -0.60   -14400.00
00799              -0.40   -14400.00
00800              -1.00   -13600.00
00801              -0.60   -12800.00
00802              -0.40   -12800.00
00803              -1.00   -12000.00
00804              -0.40   -11200.00
00805              -0.20   -11200.00
00806              -1.00   -10400.00
00807              -0.40    -9600.00
00808              -0.60    -9600.00
00809              -0.80    -8000.00
00810              -0.40    -8000.00
00811              -0.80    -8000.00
00812              -0.60    -7200.00
00813              -0.20    -6400.00
00814              -0.60    -5600.00
00815               0.00    -4800.00
00816              -0.20    -4800.00
00817              -1.00    -4000.00
00818              -0.20    -3200.00
00819               0.20    -2400.00
00820              -0.60    -1600.00
00821              -0.20    -1600.00
00822              -0.40     -800.00
00823              -0.60     -800.00
00824               0.20        0.00
00825               0.40      800.00
00826               1.20     1600.00
00827               3.20     1600.00
00828              -2.40     2400.00
00829              -0.60     2400.00
00830               1.40     3200.00
00831              -1.00     3200.00
00832               1.80     4800.00
00833              21.20     7200.00
00834              22.20     7200.00
00835             -25.00     8000.00
00836             -13.80     8000.00
00837              25.00     8000.00
00838             -25.00     8000.00
00839              -1.20     8800.00
00840              25.00    10400.00
00841             -25.00     9600.00
00842              25.00    11200.00
00843              25.00    11200.00
00844             -25.00    12000.00
00845              25.00    12000.00
00846             -25.00    12800.00
00847               1.40    13600.00
00848              25.00    14400.00
00849             -25.00    14400.00
00850              25.00    15200.00
00851              19.80    16000.00
00852             -25.00    16000.00
00853              25.00    17600.00
00854               5.20    17600.00
00855             -25.00    18400.00
00856              17.40    19200.00
00857              22.60    19200.00
00858             -25.00    19200.00
00859              23.40    20000.00
00860              13.00    20800.00
00861             -25.00    20800.00
00862              25.00    21600.00
00863             -19.80    21600.00
00864              -2.60    22400.00
00865              14.20    23200.00
00866             -13.00    23200.00
00867               2.20    24000.00
00868              16.60    24000.00
00869             -15.80    24800.00
00870              -0.40    25600.00
00871              16.60    25600.00
00872             -20.40    25600.00
00873               8.80    26400.00
00874               7.60    27200.00
00875             -10.80    27200.00
00876               5.80    27200.00
00877               2.20    28000.00
00878              -5.80    28000.00
00879               2.60    28000.00
00880               3.60    28800.00
00881              -5.00    29600.00
00882               3.00    28800.00
00883               0.60    29600.00
00884              -4.00    30400.00
00885               4.60    30400.00
00886               0.40    30400.00
00887              -2.60    31200.00
00888               5.00    31200.00
00889              -2.60    31200.00
00890              -1.20    32000.00
00891               3.60    31200.00
00892              -3.00    32000.00
00893               1.20    32800.00
00894               2.00    32000.00
00895              -1.80    32800.00
00896               0.60    32800.00
00897              -0.20    32800.00
00898              -0.60    32000.00
00899               0.60    32800.00
00900               1.00    32800.00
00901              -0.60    33600.00
00902               0.20    32800.00
00903               1.40    32800.00
00904              -1.40    33600.00
00905               1.00    32800.00
00906               0.20    33600.00
00907              -1.00    32800.00
00908               2.60    33600.00
00909              -1.20    33600.00
00910              -0.40    32000.00
00911               1.00    33600.00
00912              -0.20    33600.00
00913               1.00    33600.00
00914              -0.40    32800.00
00915              -0.20    32800.00
00916               0.40    32800.00
00917               0.40    32800.00
00918               0.20    32000.00
00919              -0.20    32800.00
00920               1.00    32000.00
00921               0.20    32000.00
00922               0.20    31200.00
00923               0.40    31200.00
00924              -0.40    31200.00
00925               0.60    31200.00
00926               0.60    31200.00
00927              -0.20    31200.00
00928               0.40    30400.00
00929               0.20    30400.00
00930               0.40    30400.00
00931               0.20    29600.00
00932              -0.20    28800.00
00933               0.20    28800.00
00934               0.20    28800.00
00935               0.40    28800.00
00936               0.40    28800.00
00937               0.20    28000.00
00938               0.40    27200.00
00939               0.20    27200.00
00940               0.40    26400.00
00941              -0.20    27200.00
00942              -0.40    26400.00
00943               0.40    25600.00
00944               0.20    25600.00
00945               0.60    24800.00
00946               0.40    24800.00
00947              -0.40    24800.00
00948               0.20    23200.00
00949              -0.20    23200.00
00950               0.40    22400.00
00951               0.20    22400.00
00952              -0.20    22400.00
00953               0.40    21600.00
00954               0.20    21600.00
00955              -0.40    20800.00
00956               0.20    19200.00
00957              -0.20    19200.00
00958              -0.40    19200.00
00959               0.00    17600.00
00960              -0.20    17600.00
00961              -0.40    17600.00
00962               0.40    16000.00
00963               0.20    16000.00
00964              -0.20    16000.00
00965               0.00    15200.00
00966              -0.40    14400.00
00967              -0.60    14400.00
00968              -0.20    13600.00
00969              -0.60    12800.00
00970               0.00    12800.00
00971               0.40    12000.00
00972              -0.40    11200.00
00973               0.00    11200.00
00974              -0.20    10400.00
00975              -1.00     9600.00
00976              -0.20     8800.00
00977              -0.20     8000.00
00978              -0.40     8000.00
00979               0.20     7200.00
00980              -0.60     7200.00
00981              -0.20     6400.00
00982               0.20     5600.00
00983              -0.80     4800.00
00984              -0.20     4800.00
00985              -0.60     3200.00
00986              -0.60     3200.00
00987              -0.40     2400.00
00988              -0.20     1600.00
00989              -0.40     1600.00
00990               0.20        0.00
00991               0.40        0.00
00992               0.40     -800.00
00993               3.00     -800.00
00994               0.60    -1600.00
00995              -1.80    -1600.00
00996               1.40    -3200.00
00997               1.00    -3200.00
00998              -0.60    -4000.00
00999               2.60    -3200.00
01000              13.20    -4800.00
01001              25.00    -6400.00
01002             -25.00    -8000.00
01003             -25.00    -8000.00
01004              23.00    -8000.00
01005               3.40    -8800.00
01006             -25.00    -8000.00
01007              25.00    -9600.00
01008              25.00   -10400.00
01009             -25.00   -10400.00
01010              25.00   -11200.00
01011              25.00   -11200.00
01012             -25.00   -12000.00
01013              25.00   -12800.00
01014             -18.00   -13600.00
01015               9.00   -13600.00
01016               9.20   -14400.00
01017             -25.00   -14400.00
01018              25.00   -16000.00
01019             -10.60   -16000.00
01020             -25.00   -16800.00
01021              25.00   -16800.00
01022              -2.20   -17600.00
01023             -25.00   -17600.00
01024              22.60   -17600.00
01025               8.60   -19200.00
01026             -25.00   -19200.00
01027              25.00   -20800.00
01028               1.40   -20800.00
01029             -16.60   -20800.00
01030              16.40   -20800.00
01031             -10.80   -22400.00
01032              -3.00   -23200.00
01033               7.80   -22400.00
01034              -7.40   -23200.00
01035               0.40   -24000.00
01036               9.80   -24800.00
01037             -13.60   -25600.00
01038               3.40   -24800.00
01039               7.40   -25600.00
01040             -14.80   -25600.00
01041               7.60   -25600.00
01042               2.60   -26400.00
01043              -8.40   -26400.00
01044               3.80   -27200.00
01045               1.00   -27200.00
01046              -5.80   -28800.00
01047               2.60   -28000.00
01048               0.40   -28800.00
01049              -5.20   -28800.00
01050               2.60   -29600.00
01051              -1.40   -29600.00
01052              -3.60   -30400.00
01053               3.40   -29600.00
01054              -2.00   -30400.00
01055              -2.80   -29600.00
01056               2.60   -30400.00
01057              -3.00   -30400.00
01058              -1.40   -30400.00
01059               1.60   -31200.00
01060              -2.40   -31200.00
01061               0.20   -32000.00
01062               0.20   -32000.00
01063              -2.20   -32000.00
01064              -0.60   -32000.00
01065              -0.60   -32000.00
01066              -1.20   -32000.00
01067              -0.60   -32000.00
01068              -0.20   -32000.00
01069              -1.80   -32800.00
01070               0.40   -32800.00
01071              -0.40   -32800.00
01072              -2.20   -32000.00
01073               0.60   -32000.00
01074              -1.00   -32800.00
01075              -1.20   -32800.00
01076               0.40   -32800.00
01077              -1.80   -32800.00
01078              -1.00   -32000.00
01079               0.20   -32000.00
01080              -1.20   -32000.00
01081              -0.60   -32000.00
01082              -1.00   -32800.00
01083              -1.20   -32000.00
01084              -0.60   -32000.00
01085              -0.40   -32000.00
01086              -1.20   -32000.00
01087              -0.60   -32000.00
01088              -0.60   -31200.00
01089              -1.40   -32000.00
01090              -0.60   -30400.00
01091              -1.00   -30400.00
01092              -1.40   -30400.00
01093              -0.20   -30400.00
01094              -1.00   -29600.00
01095              -1.40   -29600.00
01096              -0.40   -29600.00
01097              -1.20   -29600.00
01098              -1.20   -28800.00
01099              -0.60   -28800.00
01100              -1.00   -28800.00
01101              -1.20   -28000.00
01102              -1.00   -28000.00
01103              -0.60   -27200.00
01104              -0.80   -27200.00
01105              -0.80   -26400.00
01106              -0.60   -26400.00
01107              -1.20   -26400.00
01108              -0.80   -25600.00
01109              -1.80   -25600.00
01110              -0.60   -25600.00
01111              -0.40   -24800.00
01112              -1.20   -24000.00
01113              -0.40   -24000.00
01114              -1.20   -23200.00
01115              -1.40   -24000.00
01116              -0.20   -22400.00
01117              -1.00   -22400.00
01118              -1.00   -21600.00
01119              -0.60   -21600.00
01120              -0.60   -20800.00
01121              -1.00   -20000.00
01122              -1.20   -20000.00
01123              -0.60   -18400.00
01124              -0.60   -18400.00
01125              -0.80   -17600.00
01126              -0.60   -17600.00
01127              -0.60   -17600.00
01128              -1.00   -16800.00
01129              -0.60   -16000.00
01130              -0.40   -16000.00
01131              -0.60   -15200.00
01132              -0.60   -14400.00
01133              -0.40   -14400.00
01134              -0.60   -13600.00
01135              -0.60   -12800.00
01136              -0.60   -12800.00
01137              -0.60   -11200.00
01138              -0.40   -11200.00
01139              -0.40   -11200.00
01140              -0.80   -10400.00
01141              -0.60    -9600.00
01142              -1.00    -8800.00
01143              -0.60    -8000.00
01144              -0.60    -8000.00
01145              -0.80    -7200.00
01146              -0.40    -7200.00
01147              -0.60    -6400.00
01148              -0.60    -4800.00
01149              -0.40    -4800.00
01150              -0.60    -4000.00
01151              -0.60    -4000.00
01152              -0.40    -3200.00
01153              -0.60    -1600.00
01154              -0.60    -1600.00
01155              -0.80    -1600.00
01156              -0.60     -800.00
01157              -0.40        0.00
01158              -0.20      800.00
01159               0.20        0.00
01160               2.80     1600.00
01161              -0.40     1600.00
01162              -1.80     2400.00
01163               1.00     3200.00
01164               0.60     4000.00
01165              -1.20     4800.00
01166               9.40     5600.00
01167              25.00     7200.00
01168             -22.20     7200.00
01169             -25.00     8000.00
01170              20.20     8800.00
01171               6.00     8000.00
01172             -25.00     8000.00
01173              25.00     9600.00
01174              -1.20     9600.00
01175             -25.00    10400.00
01176              25.00    11200.00
01177             -25.00    12000.00
01178               3.00    12800.00
01179              25.00    12000.00
01180             -25.00    12800.00
01181              25.00    14400.00
01182             -25.00    14400.00
01183             -25.00    15200.00
01184              25.00    16000.00
01185             -25.00    16000.00
01186              10.40    16800.00
01187              25.00    17600.00
01188             -25.00    18400.00
01189             -12.60    18400.00
01190              25.00    18400.00
01191             -20.00    19200.00
01192             -16.40    20000.00
01193              25.00    20800.00
01194             -25.00    21600.00
01195              10.60    21600.00
01196               8.60    22400.00
01197             -22.80    22400.00
01198              18.40    23200.00
01199              -3.00    24000.00
01200             -10.00    23200.00
01201              15.40    24000.00
01202               0.80    24800.00
01203             -17.80    24800.00
01204              19.60    25600.00
01205              -6.80    25600.00
01206              -9.80    25600.00
01207              17.00    26400.00
01208              -8.40    27200.00
01209              -2.20    27200.00
01210               7.20    27200.00
01211              -3.20    28000.00
01212              -2.20    28000.00
01213               5.20    28800.00
01214              -1.80    28800.00
01215              -2.20    28800.00
01216               3.80    28800.00
01217              -3.00    30400.00
01218               0.20    29600.00
01219               3.80    30400.00
01220              -3.40    30400.00
01221               2.00    31200.00
01222               1.20    30400.00
01223              -3.80    31200.00
01224               3.40    31200.00
01225              -1.00    32000.00
01226              -1.20    32800.00
01227               2.80    32000.00
01228              -1.00    32800.00
01229              -0.60    32800.00
01230               0.40    32000.00
01231              -0.60    32800.00
01232               0.60    32800.00
01233               0.20    32800.00
01234               0.40    32800.00
01235              -0.60    32800.00
01236               1.00    33600.00
01237              -0.20    32800.00
01238              -0.40    33600.00
01239               1.20    33600.00
01240              -1.80    32800.00
01241               1.80    32800.00
01242               0.40    33600.00
01243              -1.40    33600.00
01244               2.00    32800.00
01245              -0.60    33600.00
01246               0.20    32800.00
01247               0.80    33600.00
01248              -1.00    32000.00
01249               0.20    32800.00
01250               0.20    32000.00
01251               0.00    32000.00
01252               0.40    32800.00
01253              -0.40    32800.00
01254               0.80    32000.00
01255               0.40    31200.00
01256              -0.20    32000.00
01257               0.20    32000.00
01258               0.40    31200.00
01259               0.40    31200.00
01260               0.20    31200.00
01261               0.40    31200.00
01262               0.20    30400.00
01263               0.20    30400.00
01264               0.40    30400.00
01265              -0.20    28800.00
01266               0.20    29600.00
01267              -0.20    28800.00
01268               0.20    28800.00
01269               0.60    28000.00
01270               0.20    28000.00
01271               0.40    28000.00
01272               0.20    27200.00
01273               0.20    27200.00
01274               0.40    27200.00
01275              -0.60    25600.00
01276               0.20    25600.00
01277               0.60    25600.00
01278              -0.40    25600.00
01279               0.40    24800.00
01280               0.20    24800.00
01281               0.20    24000.00
01282               0.20    24000.00
01283              -0.20    23200.00
01284              -0.40    22400.00
01285              -0.60    21600.00
01286              -0.20    21600.00
01287               0.60    20800.00
01288               0.40    20800.00
01289              -0.20    20000.00
01290              -0.20    19200.00
01291               0.20    19200.00
01292              -0.60    18400.00
01293              -0.40    18400.00
01294               0.20    17600.00
01295              -0.40    17600.00
01296               0.40    16000.00
01297              -0.40    16000.00
01298              -0.40    15200.00
01299              -0.20    14400.00
01300              -0.20    14400.00
01301               0.20    13600.00
01302              -0.40    12800.00
01303              -1.00    12800.00
01304               0.20    12000.00
01305              -0.60    12000.00
01306              -0.40    11200.00
01307               0.20    10400.00
01308               0.20     9600.00
01309              -0.60     8800.00
01310              -0.20     8800.00
01311              -0.20     8000.00
01312               0.00     8000.00
01313              -0.60     6400.00
01314               0.20     6400.00
01315              -0.20     5600.00
01316              -0.60     5600.00
01317              -0.60     4000.00
01318               0.20     4000.00
01319              -0.60     3200.00
01320              -0.60     2400.00
01321               0.00     1600.00
01322              -0.40     1600.00
01323              -0.60        0.00
01324               0.60      800.00
01325               0.40     -800.00
01326               1.00     -800.00
01327               3.40    -1600.00
01328              -1.40    -1600.00
01329              -0.20    -2400.00
01330               1.20    -3200.00
01331               0.40    -3200.00
01332              -0.40    -4000.00
01333               7.00    -4800.00
01334              24.20    -6400.00
01335               2.20    -7200.00
01336             -25.00    -7200.00
01337               0.60    -8000.00
01338              24.40    -8000.00
01339             -25.00    -8000.00
01340             -14.60    -8800.00
01341              25.00   -10400.00
01342             -25.00    -9600.00
01343             -25.00   -11200.00
01344              25.00   -11200.00
01345             -25.00   -12000.00
01346               0.20   -12800.00
01347              23.20   -12800.00
01348             -23.00   -13600.00
01349              25.00   -14400.00
01350             -25.00   -14400.00
01351               9.40   -15200.00
01352              25.00   -16000.00
01353             -25.00   -16000.00
01354              13.00   -16800.00
01355              25.00   -17600.00
01356             -25.00   -17600.00
01357              -5.40   -18400.00
01358              25.00   -18400.00
01359             -25.00   -19200.00
01360              -1.20   -20000.00
01361              25.00   -20800.00
01362             -22.20   -20800.00
01363               6.60   -20800.00
01364               3.80   -21600.00
01365             -13.00   -22400.00
01366               7.80   -22400.00
01367               0.40   -23200.00
01368              -7.60   -24000.00
01369              10.00   -24000.00
01370              -3.80   -24000.00
01371             -10.20   -24800.00
01372              13.00   -25600.00
01373              -8.60   -25600.00
01374              -4.20   -26400.00
01375              10.40   -26400.00
01376              -7.60   -27200.00
01377              -2.20   -26400.00
01378               5.20   -27200.00
01379              -4.20   -27200.00
01380              -1.40   -28800.00
01381               3.80   -28800.00
01382              -4.20   -28800.00
01383              -1.20   -28800.00
01384               2.00   -29600.00
01385              -4.40   -29600.00
01386               1.00   -29600.00
01387               2.00   -30400.00
01388              -4.20   -30400.00
01389               1.40   -30400.00
01390               0.40   -30400.00
01391              -3.80   -31200.00
01392               1.40   -31200.00
01393              -0.60   -31200.00
01394              -1.60   -32000.00
01395               1.20   -32000.00
01396              -1.40   -32000.00
01397              -1.40   -32000.00
01398              -0.20   -32000.00
01399              -1.00   -32000.00
01400              -1.00   -32000.00
01401               0.00   -32000.00
01402              -1.20   -32800.00
01403              -1.20   -32800.00
01404               0.40   -32800.00
01405              -2.00   -32800.00
01406              -0.80   -32800.00
01407               0.40   -32000.00
01408              -2.00   -32800.00
01409               0.40   -32800.00
01410              -0.60   -32800.00
01411              -2.00   -32800.00
01412               0.20   -32800.00
01413              -1.00   -32800.00
01414              -1.20   -32000.00
01415              -0.80   -32800.00
01416              -1.00   -32000.00
01417              -1.20   -32000.00
01418              -0.60   -32000.00
01419              -0.80   -32000.00
01420              -1.20   -32000.00
01421              -0.40   -30400.00
01422              -1.00   -31200.00
01423              -1.20   -30400.00
01424              -0.60   -31200.00
01425              -1.20   -31200.00
01426              -0.60   -31200.00
01427              -0.80   -30400.00
01428              -1.20   -29600.00
01429              -0.60   -29600.00
01430              -0.60   -29600.00
01431              -0.80   -28800.00
01432              -1.00   -29600.00
01433              -1.00   -28800.00
01434              -1.00   -28800.00
01435              -1.20   -28000.00
01436              -0.60   -27200.00
01437              -1.20   -27200.00
01438              -1.00   -27200.00
01439              -0.80   -26400.00
01440              -0.60   -26400.00
01441              -0.40   -25600.00
01442              -0.60   -25600.00
01443              -1.20   -25600.00
01444              -0.40   -24800.00
01445              -0.60   -24000.00
01446              -1.20   -24000.00
01447              -0.60   -24000.00
01448              -1.00   -23200.00
01449              -1.00   -22400.00
01450              -1.00   -22400.00
01451              -1.00   -21600.00
01452              -0.80   -22400.00
01453              -0.60   -20800.00
01454              -0.40   -20800.00
01455              -1.00   -20000.00
01456              -1.00   -20000.00
01457              -0.60   -18400.00
01458              -0.60   -18400.00
01459              -0.40   -17600.00
01460              -0.60   -17600.00
01461              -1.20   -16800.00
01462              -0.40   -16800.00
01463              -0.80   -16000.00
01464              -1.00   -15200.00
01465              -0.20   -14400.00
01466              -0.60   -14400.00
01467              -1.40   -13600.00
01468               0.40   -13600.00
01469              -1.00   -12800.00
01470              -1.40   -12800.00
01471               0.40   -11200.00
01472              -0.60   -11200.00
01473              -1.00   -10400.00
01474              -0.40    -9600.00
01475              -0.60    -9600.00
01476              -1.20    -8800.00
01477              -0.60    -8000.00
01478              -0.60    -7200.00
01479              -0.80    -7200.00
01480              -0.60    -6400.00
01481              -0.60    -5600.00
01482              -0.40    -5600.00
01483              -0.60    -4000.00
01484              -0.80    -4000.00
01485               0.20    -3200.00
01486              -0.60    -3200.00
01487              -0.60    -2400.00
01488              -0.20    -1600.00
01489              -0.80     -800.00
01490              -0.60        0.00
01491               0.40        0.00
01492              -0.20        0.00
01493               0.60     1600.00
01494               3.00     2400.00
01495              -2.60     2400.00
01496              -0.60     3200.00
01497               1.40     3200.00
01498              -1.00     4000.00
01499               2.60     4800.00
01500              24.20     5600.00
01501              16.60     7200.00
01502             -25.00     8000.00
01503              -7.40     8000.00
01504              25.00     8800.00
01505             -25.00     8000.00
01506               9.80     9600.00
01507              25.00     9600.00
01508             -25.00     9600.00
01509              25.00    11200.00
01510              25.00    12000.00
01511             -25.00    12000.00
01512              25.00    12800.00
01513             -25.00    12800.00
01514              17.40    14400.00
01515              25.00    14400.00
01516             -25.00    14400.00
01517              25.00    16000.00
01518               4.20    16000.00
01519             -25.00    16000.00
01520              25.00    16800.00
01521              -3.40    17600.00
01522             -25.00    18400.00
01523              22.20    18400.00
01524              17.20    19200.00
01525             -25.00    20000.00
01526              25.00    19200.00
01527               5.80    20800.00
01528             -20.60    21600.00
01529              25.00    21600.00
01530             -22.80    22400.00
01531               2.00    22400.00
01532              11.80    23200.00
01533             -13.60    23200.00
01534               4.60    24000.00
01535              15.40    24800.00
01536             -17.80    24800.00
01537               3.60    25600.00
01538              13.60    25600.00
01539             -20.60    25600.00
01540              11.40    27200.00
01541               5.00    27200.00
01542             -10.00    27200.00
01543               6.40    27200.00
01544               1.20    27200.00
01545              -5.40    28000.00
01546               3.20    28000.00
01547               2.80    28800.00
01548              -4.60    28800.00
01549               3.60    28800.00
01550               0.00    30400.00
01551              -3.60    29600.00
01552               5.20    30400.00
01553              -0.60    30400.00
01554              -2.40    30400.00
01555               4.40    31200.00
01556              -3.40    31200.00
01557              -0.60    31200.00
01558               2.80    31200.00
01559              -3.20    32000.00
01560               1.80    31200.00
01561               1.80    32000.00
01562              -1.80    32000.00
01563               0.60    32800.00
01564               0.20    32800.00
01565              -0.40    32800.00
01566               0.60    32800.00
01567               1.00    32800.00
01568              -0.80    33600.00
01569               0.40    32800.00
01570               1.40    32800.00
01571              -1.60    33600.00
01572               1.00    32800.00
01573              -0.20    32800.00
01574              -1.00    32800.00
01575               2.40    33600.00
01576              -1.40    33600.00
01577               0.20    33600.00
01578               1.20    32800.00
01579              -0.40    33600.00
01580               0.60    33600.00
01581              -0.20    33600.00
01582              -0.40    32800.00
01583               0.40    32800.00
01584               0.80    32000.00
01585              -0.40    32800.00
01586               0.20    32000.00
01587               1.00    32800.00
01588              -0.40    32000.00
01589               0.80    32000.00
01590               0.60    31200.00
01591              -0.80    32000.00
01592               1.20    31200.00
01593               0.60    30400.00
01594              -0.20    31200.00
01595               1.00    30400.00
01596              -0.20    30400.00
01597               0.40    30400.00
01598               0.40    30400.00
01599              -0.20    30400.00
01600               0.20    28800.00
01601               0.00    29600.00
01602               0.20    28800.00
01603               0.80    28800.00
01604               0.00    28000.00
01605              -0.40    27200.00
01606               0.80    27200.00
01607               0.20    27200.00
01608              -0.60    26400.00
01609               0.20    25600.00
01610               0.40    25600.00
01611               0.40    24800.00
01612              -0.40    24800.00
01613               0.00    24800.00
01614               0.40    24000.00
01615              -1.20    24000.00
01616               0.60    23200.00
01617               0.80    22400.00
01618              -1.20    22400.00
01619               0.60    22400.00
01620               1.00    21600.00
01621              -2.20    20800.00
01622               0.20    20800.00
01623               1.00    20800.00
01624              -1.20    19200.00
01625               1.20    18400.00
01626               0.20    18400.00
01627              -1.40    17600.00
01628               0.80    16800.00
01629              -0.40    16800.00
01630              -0.60    16000.00
01631               0.40    15200.00
01632              -0.40    15200.00
01633              -1.00    15200.00
01634              -0.40    14400.00
01635              -0.20    13600.00
01636              -1.00    12800.00
01637               0.60    12800.00
01638              -0.20    12000.00
01639              -0.60    11200.00
01640               0.20    11200.00
01641              -0.60    10400.00
01642              -0.60     9600.00
01643               0.40     8800.00
01644              -0.40     8800.00
01645              -0.40     8000.00
01646              -0.20     7200.00
01647              -0.60     6400.00
01648              -0.40     6400.00
01649               0.20     5600.00
01650              -0.20     4800.00
01651              -0.40     4000.00
01652               0.00     3200.00
01653              -0.40     3200.00
01654              -0.60     2400.00
01655              -0.40     1600.00
01656              -0.60     1600.00
01657               0.20        0.00
01658               0.40        0.00
01659               0.40     -800.00
01660               3.40     -800.00
01661               0.40    -1600.00
01662              -1.40    -1600.00
01663               1.20    -3200.00
01664               1.00    -3200.00
01665              -0.60    -3200.00
01666               2.60    -4000.00
01667              15.00    -4800.00
01668              24.20    -6400.00
01669             -25.00    -8000.00
01670             -25.00    -8000.00
01671              25.00    -8000.00
01672              -2.40    -9600.00
01673             -25.00    -8000.00
01674              25.00    -9600.00
01675              25.00   -10400.00
01676             -25.00    -9600.00
01677              25.00   -11200.00
01678              17.60   -12000.00
01679             -25.00   -12800.00
01680              25.00   -12800.00
01681             -23.80   -12800.00
01682              15.00   -14400.00
01683               1.80   -14400.00
01684             -25.00   -15200.00
01685              25.00   -16000.00
01686             -19.00   -16000.00
01687             -23.20   -16800.00
01688              25.00   -16800.00
01689              -8.40   -17600.00
01690             -25.00   -17600.00
01691              25.00   -18400.00
01692               2.00   -19200.00
01693             -25.00   -20000.00
01694              25.00   -20000.00
01695              -3.80   -20800.00
01696             -13.40   -20800.00
01697              15.80   -22400.00
01698             -12.40   -21600.00
01699              -1.20   -23200.00
01700               7.00   -22400.00
01701              -8.20   -23200.00
01702               2.20   -23200.00
01703               8.60   -24000.00
01704             -14.20   -24800.00
01705               5.80   -24800.00
01706               5.00   -25600.00
01707             -14.20   -26400.00
01708               8.60   -26400.00
01709               0.40   -27200.00
01710              -7.40   -27200.00
01711               4.40   -27200.00
01712               0.20   -27200.00
01713              -5.20   -28000.00
01714               3.40   -28800.00
01715              -0.20   -28800.00
01716              -4.40   -28800.00
01717               3.00   -29600.00
01718              -1.80   -29600.00
01719              -2.80   -29600.00
01720               3.60   -29600.00
01721              -2.20   -29600.00
01722              -2.20   -30400.00
01723               2.60   -30400.00
01724              -3.00   -31200.00
01725              -1.00   -31200.00
01726               1.00   -30400.00
01727              -2.60   -32000.00
01728               1.00   -31200.00
01729              -0.40   -32000.00
01730              -2.00   -32000.00
01731              -0.40   -32000.00
01732              -0.60   -32000.00
01733              -1.20   -32000.00
01734              -0.40   -32000.00
01735              -0.40   -32800.00
01736              -1.60   -32800.00
01737               0.40   -32800.00
01738              -1.00   -32800.00
01739              -2.20   -32800.00
01740               0.40   -32800.00
01741              -1.40   -32800.00
01742              -1.20   -32000.00
01743               0.20   -32800.00
01744              -2.00   -32800.00
01745              -0.60   -32800.00
01746              -0.40   -32000.00
01747              -1.40   -32800.00
01748              -1.20   -32000.00
01749              -0.40   -32000.00
01750              -1.20   -32000.00
01751              -1.00   -32000.00
01752              -0.60   -32000.00
01753              -1.20   -32000.00
01754              -0.60   -30400.00
01755              -0.60   -31200.00
01756              -1.40   -32000.00
01757              -0.60   -31200.00
01758              -1.20   -30400.00
01759              -1.60   -30400.00
01760              -0.20   -29600.00
01761              -0.60   -29600.00
01762              -1.40   -29600.00
01763              -0.40   -28800.00
01764              -1.20   -28800.00
01765              -1.40   -28800.00
01766              -0.60   -28800.00
01767              -0.60   -28800.00
01768              -1.20   -28000.00
01769              -0.80   -28000.00
01770              -0.60   -27200.00
01771              -1.00   -27200.00
01772              -1.00   -27200.00
01773              -0.40   -27200.00
01774              -1.00   -26400.00
01775              -0.60   -25600.00
01776              -1.00   -25600.00
01777              -0.60   -25600.00
01778              -0.20   -24000.00
01779              -1.00   -24800.00
01780              -0.60   -24000.00
01781              -0.60   -23200.00
01782              -1.00   -23200.00
01783              -1.00   -23200.00
01784              -0.60   -22400.00
01785              -0.60   -21600.00
01786              -1.00   -21600.00
01787              -0.60   -20800.00
01788              -0.60   -20000.00
01789              -1.20   -19200.00
01790              -0.60   -19200.00
01791              -0.60   -18400.00
01792              -0.60   -18400.00
01793              -0.40   -17600.00
01794              -1.00   -17600.00
01795              -0.60   -16800.00
01796              -0.60   -16000.00
01797              -0.60   -16000.00
01798              -0.60   -14400.00
01799              -0.60   -14400.00
01800              -0.40   -14400.00
01801              -0.60   -13600.00
01802              -1.00   -13600.00
01803              -0.60   -12800.00
01804              -0.80   -12000.00
01805              -0.60   -11200.00
01806              -0.60   -10400.00
01807              -0.60    -9600.00
01808              -1.20   -10400.00
01809              -1.00    -9600.00
01810              -0.40    -8000.00
01811              -1.00    -8000.00
01812              -1.00    -7200.00
01813              -0.40    -6400.00
01814              -0.60    -6400.00
01815              -0.60    -4800.00
01816              -0.60    -4800.00
01817              -1.00    -4000.00
01818              -0.60    -3200.00
01819              -0.20    -3200.00
01820              -0.60    -3200.00
01821              -0.60    -1600.00
01822              -0.60     -800.00
01823              -0.80     -800.00
01824              -0.20        0.00
01825              -0.20        0.00
01826               0.20      800.00
01827               3.40     1600.00
01828              -0.60     1600.00
01829              -2.00     3200.00
01830               1.00     3200.00
01831               0.40     4000.00
01832              -0.80     4800.00
01833              11.40     5600.00
01834              25.00     7200.00
01835             -25.00     8000.00
01836             -25.00     8000.00
01837              23.60     8000.00
01838              -0.40     8000.00
01839             -25.00     8800.00
01840              25.00     9600.00
01841             -17.40     9600.00
01842             -25.00    11200.00
01843              25.00    11200.00
01844             -25.00    12000.00
01845              18.00    12800.00
01846              25.00    12800.00
01847             -25.00    12800.00
01848              25.00    14400.00
01849             -25.00    14400.00
01850             -10.20    16000.00
01851              25.00    15200.00
01852             -25.00    16000.00
01853              21.40    17600.00
01854              25.00    17600.00
01855             -25.00    17600.00
01856              -7.40    18400.00
01857              25.00    19200.00
01858             -25.00    19200.00
01859              -9.20    19200.00
01860              25.00    20800.00
01861             -25.00    21600.00
01862              15.80    21600.00
01863               2.60    22400.00
01864             -20.20    22400.00
01865              19.00    22400.00
01866              -5.40    24000.00
01867              -7.80    24000.00
01868              16.20    24000.00
01869              -2.60    24000.00
01870             -15.60    24800.00
01871              20.60    25600.00
01872             -10.20    25600.00
01873              -6.20    26400.00
01874              15.80    26400.00
01875             -10.20    27200.00
01876              -0.40    27200.00
01877               6.40    28000.00
01878              -4.40    28800.00
01879              -1.40    28000.00
01880               5.40    28000.00
01881              -3.60    28800.00
01882              -1.20    28800.00
01883               3.80    29600.00
01884              -4.20    29600.00
01885               1.40    30400.00
01886               4.00    30400.00
01887              -4.40    30400.00
01888               2.60    30400.00
01889               1.20    31200.00
01890              -4.20    31200.00
01891               3.40    31200.00
01892              -1.00    32000.00
01893              -1.20    31200.00
01894               3.00    32000.00
01895              -1.00    32000.00
01896              -0.40    32800.00
01897               0.60    32000.00
01898              -0.40    32800.00
01899               0.40    32800.00
01900               0.40    32000.00
01901               0.40    32800.00
01902              -0.80    32800.00
01903               1.40    32800.00
01904              -0.40    32800.00
01905              -0.40    32800.00
01906               1.80    32800.00
01907              -1.80    32800.00
01908               2.00    32800.00
01909               0.60    32800.00
01910              -1.20    33600.00
01911               1.60    33600.00
01912               0.40    32000.00
01913               0.40    33600.00
01914               0.40    32800.00
01915              -0.20    32800.00
01916               0.40    32800.00
01917               0.20    32000.00
01918               0.60    32800.00
01919               0.20    32800.00
01920               0.40    32000.00
01921               0.40    32800.00
01922               0.20    31200.00
01923               0.60    31200.00
01924              -0.40    31200.00
01925               0.40    32000.00
01926               0.60    31200.00
01927               0.20    31200.00
01928               0.60    30400.00
01929               0.40    30400.00
01930              -0.20    30400.00
01931               0.80    29600.00
01932               0.00    29600.00
01933              -0.20    28800.00
01934               0.40    28800.00
01935               0.20    28800.00
01936               0.20    28000.00
01937               0.00    28000.00
01938               0.20    27200.00
01939               0.20    27200.00
01940               0.40    27200.00
01941              -0.20    26400.00
01942              -0.60    26400.00
01943               0.40    25600.00
01944               0.20    25600.00
01945               0.20    25600.00
01946               0.40    24800.00
01947              -0.60    24000.00
01948              -0.20    24000.00
01949               0.40    24000.00
01950              -0.20    22400.00
01951              -0.20    22400.00
01952              -0.40    22400.00
01953               0.40    21600.00
01954              -0.40    21600.00
01955              -0.60    20800.00
01956              -0.20    20000.00
01957              -0.40    19200.00
01958               0.20    19200.00
01959              -0.20    19200.00
01960              -0.20    17600.00
01961               0.20    17600.00
01962              -0.20    16800.00
01963               0.20    16800.00
01964               0.20    16000.00
01965               0.00    15200.00
01966               0.20    15200.00
01967              -0.40    14400.00
01968              -0.20    14400.00
01969              -0.20    13600.00
01970              -0.60    12800.00
01971               0.20    12000.00
01972              -0.20    12000.00
01973               0.20    11200.00
01974              -0.20     9600.00
01975               0.20     9600.00
01976              -0.40     8800.00
01977              -0.20     8800.00
01978              -0.20     8000.00
01979               0.20     8000.00
01980              -0.60     7200.00
01981               0.20     6400.00
01982              -0.20     5600.00
01983              -0.60     4800.00
01984              -0.60     4800.00
01985               0.20     4000.00
01986              -0.20     3200.00
01987              -0.40     2400.00
01988              -0.40     2400.00
01989              -0.40     1600.00
01990              -0.40     1600.00
01991               0.40        0.00
01992               0.40        0.00
01993               1.40     -800.00
01994               3.60    -1600.00
01995              -1.60    -1600.00
01996              -0.20    -3200.00
01997               1.00    -2400.00
01998               0.20    -4000.00
01999              -0.40    -4000.00
02000               7.60    -4800.00
02001              25.00    -6400.00
02002              -4.00    -7200.00
02003             -25.00    -8000.00
02004               5.80    -8000.00
02005              21.40    -8000.00
02006             -25.00    -8800.00
02007              -6.60    -9600.00
02008              25.00    -9600.00
02009             -25.00    -9600.00
02010             -14.20   -10400.00
02011              25.00   -11200.00
02012             -25.00   -11200.00
02013              10.40   -12800.00
02014              15.60   -12800.00
02015             -18.40   -14400.00
02016              25.00   -14400.00
02017             -25.00   -14400.00
02018              18.00   -15200.00
02019              25.00   -16000.00
02020             -25.00   -16800.00
02021              19.60   -16800.00
02022              22.80   -17600.00
02023             -25.00   -17600.00
02024               0.20   -18400.00
02025              25.00   -19200.00
02026             -25.00   -19200.00
02027               5.20   -20000.00
02028              22.80   -20800.00
02029             -23.20   -20800.00
02030              10.00   -21600.00
02031               0.40   -22400.00
02032             -11.40   -23200.00
02033               8.60   -23200.00
02034              -2.60   -23200.00
02035              -5.80   -24000.00
02036              11.60   -24000.00
02037              -6.80   -24800.00
02038              -7.60   -24000.00
02039              13.80   -25600.00
02040             -11.40   -25600.00
02041              -1.20   -26400.00
02042               9.80   -26400.00
02043              -8.40   -26400.00
02044              -1.20   -27200.00
02045               4.40   -27200.00
02046              -4.60   -28000.00
02047              -0.20   -28000.00
02048               3.20   -28800.00
02049              -4.20   -28800.00
02050              -0.20   -28800.00
02051               0.60   -29600.00
02052              -3.20   -29600.00
02053               1.20   -28800.00
02054               0.60   -30400.00
02055              -3.00   -29600.00
02056               2.00   -30400.00
02057              -1.20   -30400.00
02058              -2.60   -31200.00
02059               1.00   -31200.00
02060              -1.40   -31200.00
02061              -0.40   -31200.00
02062               0.40   -31200.00
02063              -2.20   -32000.00
02064              -1.00   -32000.00
02065              -0.20   -32000.00
02066              -1.20   -32800.00
02067              -0.60   -32800.00
02068              -0.40   -32800.00
02069              -1.40   -32800.00
02070              -1.00   -32000.00
02071               0.40   -32800.00
02072              -2.00   -32800.00
02073              -0.60   -32000.00
02074              -0.20   -32800.00
02075              -2.20   -32800.00
02076               0.40   -32000.00
02077              -1.20   -32800.00
02078              -1.40   -32000.00
02079               0.40   -32800.00
02080              -1.60   -32800.00
02081              -1.20   -32000.00
02082              -0.20   -32800.00
02083              -1.40   -32000.00
02084              -1.00   -31200.00
02085              -0.20   -32000.00
02086              -1.20   -32000.00
02087              -1.20   -32000.00
02088              -0.40   -32000.00
02089              -1.20   -30400.00
02090              -0.60   -31200.00
02091              -0.60   -31200.00
02092              -1.60   -29600.00
02093              -0.40   -29600.00
02094              -0.60   -30400.00
02095              -1.80   -29600.00
02096              -0.40   -29600.00
02097              -0.60   -29600.00
02098              -1.20   -28800.00
02099              -0.60   -29600.00
02100              -1.00   -28800.00
02101              -1.00   -28800.00
02102              -0.60   -28000.00
02103              -0.20   -27200.00
02104              -1.00   -27200.00
02105              -1.00   -27200.00
02106              -1.00   -26400.00
02107              -1.20   -26400.00
02108              -0.40   -25600.00
02109              -1.00   -25600.00
02110              -1.20   -25600.00
02111              -0.20   -24800.00
02112              -0.80   -24000.00
02113              -1.20   -24000.00
02114              -0.40   -23200.00
02115              -1.20   -24000.00
02116              -0.80   -22400.00
02117              -0.40   -22400.00
02118              -0.80   -22400.00
02119              -0.60   -20800.00
02120              -0.60   -20800.00
02121              -1.00   -20800.00
02122              -1.00   -20000.00
02123              -0.60   -20000.00
02124              -0.80   -18400.00
02125              -0.60   -18400.00
02126              -0.40   -17600.00
02127              -1.20   -17600.00
02128              -0.40   -17600.00
02129              -0.60   -16800.00
02130              -1.00   -16000.00
02131              -0.60   -15200.00
02132              -1.00   -14400.00
02133              -1.00   -14400.00
02134              -0.60   -13600.00
02135              -0.60   -13600.00
02136              -0.60   -12800.00
02137              -1.00   -12800.00
02138              -0.40   -11200.00
02139              -0.40   -11200.00
02140              -0.60   -10400.00
02141              -0.60   -10400.00
02142              -1.20    -9600.00
02143              -1.00    -8800.00
02144              -0.20    -8000.00
02145              -0.80    -7200.00
02146              -0.80    -7200.00
02147              -0.60    -7200.00
02148              -1.00    -5600.00
02149              -0.20    -4800.00
02150              -0.60    -4800.00
02151              -1.00    -4000.00
02152              -0.40    -3200.00
02153              -0.40    -3200.00
02154              -1.20    -1600.00
02155              -0.60    -1600.00
02156              -0.60     -800.00
02157              -0.60     -800.00
02158              -0.40        0.00
02159               0.20      800.00
02160               1.80     1600.00
02161               2.20     1600.00
02162              -2.60     2400.00
02163              -0.20     3200.00
02164               1.40     3200.00
02165              -1.00     4800.00
02166               3.80     4800.00
02167              25.00     6400.00
02168              10.00     7200.00
02169             -25.00     7200.00
02170              -0.80     8000.00
02171              25.00     8000.00
02172             -25.00     8000.00
02173              21.00     9600.00
02174              25.00     9600.00
02175             -25.00     9600.00
02176              25.00    11200.00
02177              15.60    11200.00
02178             -25.00    12000.00
02179              25.00    12800.00
02180             -25.00    12800.00
02181              25.00    14400.00
02182              25.00    14400.00
02183             -25.00    15200.00
02184              25.00    15200.00
02185             -12.40    16000.00
02186             -25.00    16800.00
02187              25.00    16800.00
02188             -11.80    17600.00
02189             -25.00    18400.00
02190              25.00    19200.00
02191              10.60    19200.00
02192             -25.00    19200.00
02193              25.00    20800.00
02194              -2.60    21600.00
02195             -15.40    21600.00
02196              25.00    21600.00
02197             -25.00    22400.00
02198               6.20    22400.00
02199               9.00    23200.00
02200             -14.20    24000.00
02201               7.00    24000.00
02202              13.40    24800.00
02203             -19.40    24800.00
02204               7.40    25600.00
02205              10.00    25600.00
02206             -20.40    25600.00
02207              14.00    26400.00
02208               1.80    27200.00
02209              -9.20    27200.00
02210               7.60    28000.00
02211              -0.20    28000.00
02212              -5.40    28800.00
02213               4.40    28800.00
02214               1.00    28800.00
02215              -4.40    29600.00
02216               4.20    29600.00
02217              -1.40    30400.00
02218              -3.00    30400.00
02219               5.40    30400.00
02220              -1.80    31200.00
02221              -1.60    30400.00
02222               5.00    31200.00
02223              -3.60    31200.00
02224               0.40    31200.00
02225               2.40    31200.00
02226              -3.00    32800.00
02227               2.60    32000.00
02228               1.00    32000.00
02229              -1.40    32800.00
02230               1.00    32000.00
02231              -0.40    32800.00
02232               0.20    32800.00
02233               0.80    32800.00
02234               0.40    32800.00
02235              -0.80    33600.00
02236               1.00    32800.00
02237               1.20    32800.00
02238              -1.80    32800.00
02239               2.00    32800.00
02240              -0.40    33600.00
02241              -0.40    33600.00
02242               2.60    33600.00
02243              -1.40    33600.00
02244               0.60    32800.00
02245               1.00    33600.00
02246              -0.20    33600.00
02247               0.60    33600.00
02248              -0.20    33600.00
02249              -0.20    32000.00
02250               0.40    32800.00
02251               0.60    32800.00
02252               0.20    32000.00
02253               0.20    32800.00
02254               0.60    32000.00
02255              -0.20    32800.00
02256               0.60    32000.00
02257               0.60    32000.00
02258              -0.40    31200.00
02259               1.00    31200.00
02260               0.40    31200.00
02261              -0.20    31200.00
02262               0.40    30400.00
02263              -0.20    30400.00
02264               0.20    30400.00
02265               0.20    30400.00
02266              -0.20    30400.00
02267              -0.20    28800.00
02268              -0.20    28800.00
02269               0.40    28800.00
02270               0.40    28000.00
02271              -0.20    28000.00
02272               0.40    27200.00
02273               0.20    27200.00
02274               0.20    27200.00
02275              -0.40    27200.00
02276              -0.40    25600.00
02277               0.60    25600.00
02278               0.20    25600.00
02279              -0.20    24800.00
02280              -0.20    24800.00
02281              -0.20    24000.00
02282              -0.20    24000.00
02283               0.20    23200.00
02284               0.20    22400.00
02285              -0.40    22400.00
02286               0.20    21600.00
02287               0.60    21600.00
02288              -0.60    21600.00
02289               0.20    20800.00
02290               0.20    20000.00
02291               0.00    19200.00
02292               0.20    18400.00
02293              -0.40    18400.00
02294               0.20    17600.00
02295              -0.40    16800.00
02296              -0.20    16000.00
02297               0.20    16000.00
02298               0.20    15200.00
02299              -0.40    15200.00
02300               0.00    14400.00
02301               0.00    14400.00
02302              -0.40    14400.00
02303              -0.40    12800.00
02304               0.20    12800.00
02305               0.40    12000.00
02306               0.20    11200.00
02307              -0.20    11200.00
02308              -0.60    10400.00
02309              -0.40     9600.00
02310              -0.40     8800.00
02311               0.20     8000.00
02312               0.40     8000.00
02313              -0.40     7200.00
02314              -0.60     6400.00
02315               0.40     5600.00
02316               0.00     5600.00
02317              -0.80     4000.00
02318               0.20     4000.00
02319               0.20     3200.00
02320              -0.60     3200.00
02321              -0.40     2400.00
02322              -0.40     1600.00
02323              -0.40      800.00
02324               0.20        0.00
02325               0.40        0.00
02326               0.20     -800.00
02327               3.40     -800.00
02328              -0.60    -1600.00
02329              -1.80    -2400.00
02330               1.20    -2400.00
02331               1.00    -3200.00
02332              -1.00    -4000.00
02333               3.60    -3200.00
02334              16.60    -4800.00
02335              21.60    -7200.00
02336             -25.00    -7200.00
02337             -23.60    -8000.00
02338              25.00    -8000.00
02339              -8.40    -8800.00
02340             -25.00    -8000.00
02341              25.00    -9600.00
02342              25.00   -10400.00
02343             -25.00   -10400.00
02344              25.00   -12000.00
02345               3.60   -11200.00
02346             -25.00   -12800.00
02347              25.00   -12800.00
02348             -25.00   -12800.00
02349              19.60   -14400.00
02350              -6.20   -14400.00
02351             -25.00   -15200.00
02352              25.00   -16000.00
02353             -25.00   -16800.00
02354             -16.20   -16800.00
02355              25.00   -17600.00
02356             -15.40   -17600.00
02357             -25.00   -17600.00
02358              25.00   -19200.00
02359              -4.60   -19200.00
02360             -25.00   -20000.00
02361              25.00   -19200.00
02362              -8.60   -20800.00
02363             -11.00   -21600.00
02364              15.60   -21600.00
02365             -12.00   -22400.00
02366              -0.60   -23200.00
02367               5.80   -23200.00
02368              -6.20   -23200.00
02369               3.20   -24000.00
02370               5.20   -24000.00
02371             -12.60   -24800.00
02372               8.40   -25600.00
02373               0.60   -25600.00
02374             -12.20   -26400.00
02375              11.00   -25600.00
02376              -2.60   -27200.00
02377              -6.20   -26400.00
02378               6.60   -27200.00
02379              -1.60   -28000.00
02380              -5.20   -28800.00
02381               4.40   -28000.00
02382              -1.80   -28800.00
02383              -4.40   -28800.00
02384               3.60   -28800.00
02385              -2.60   -29600.00
02386              -2.20   -29600.00
02387               3.40   -29600.00
02388              -2.80   -29600.00
02389              -1.00   -29600.00
02390               2.00   -31200.00
02391              -3.80   -31200.00
02392              -0.20   -30400.00
02393               0.40   -31200.00
02394              -2.80   -31200.00
02395               1.60   -32000.00
02396              -0.60   -32000.00
02397              -2.20   -32000.00
02398               0.20   -32000.00
02399              -1.00   -32000.00
02400              -1.60   -32000.00
02401              -0.20   -32000.00
02402              -0.40   -32800.00
02403              -2.00   -32000.00
02404               0.40   -32000.00
02405              -1.20   -32000.00
02406              -2.20   -32800.00
02407               1.00   -32800.00
02408              -1.40   -32800.00
02409              -1.20   -32000.00
02410              -0.20   -32800.00
02411              -2.20   -32000.00
02412              -0.60   -32800.00
02413              -0.60   -32000.00
02414              -1.20   -32000.00
02415              -0.60   -32000.00
02416              -1.20   -32000.00
02417              -1.40   -32000.00
02418              -0.60   -31200.00
02419              -0.60   -32000.00
02420              -1.20   -32000.00
02421              -0.40   -30400.00
02422              -0.40   -32000.00
02423              -1.20   -31200.00
02424              -0.60   -30400.00
02425              -1.00   -30400.00
02426              -1.00   -30400.00
02427              -0.20   -30400.00
02428              -0.60   -30400.00
02429              -0.80   -29600.00
02430              -0.40   -29600.00
02431              -1.20   -29600.00
02432              -1.00   -28800.00
02433              -0.60   -28800.00
02434              -1.00   -28800.00
02435              -0.60   -28000.00
02436              -0.60   -28000.00
02437              -1.20   -27200.00
02438              -1.00   -27200.00
02439              -0.60   -26400.00
02440              -0.40   -26400.00
02441              -0.60   -26400.00
02442              -0.60   -25600.00
02443              -1.40   -25600.00
02444              -0.40   -24800.00
02445              -0.60   -24000.00
02446              -1.20   -24000.00
02447              -0.20   -24000.00
02448              -0.60   -23200.00
02449              -1.20   -23200.00
02450              -1.00   -22400.00
02451              -0.80   -22400.00
02452              -0.60   -22400.00
02453              -0.60   -20800.00
02454              -0.60   -20800.00
02455              -1.00   -20000.00
02456              -1.20   -19200.00
02457              -0.60   -18400.00
02458              -0.80   -18400.00
02459              -0.60   -17600.00
02460              -0.60   -17600.00
02461              -1.00   -17600.00
02462              -0.80   -16800.00
02463              -1.20   -16800.00
02464              -0.60   -16000.00
02465              -0.60   -15200.00
02466              -1.00   -14400.00
02467              -0.60   -13600.00
02468              -0.80   -13600.00
02469              -0.60   -12800.00
02470              -0.60   -12000.00
02471              -1.00   -12000.00
02472              -0.60   -11200.00
02473              -0.60   -10400.00
02474              -0.60   -10400.00
02475              -0.60    -9600.00
02476              -1.20    -8800.00
02477              -0.40    -8000.00
02478              -0.60    -8000.00
02479              -0.80    -7200.00
02480              -0.40    -6400.00
02481              -0.60    -6400.00
02482              -0.60    -4800.00
02483              -0.40    -4800.00
02484              -1.00    -4000.00
02485              -0.40    -3200.00
02486               0.20    -3200.00
02487              -0.80    -2400.00
02488              -0.60    -1600.00
02489              -0.60    -1600.00
02490              -0.60     -800.00
02491              -0.40        0.00
02492               0.20        0.00
02493               0.40      800.00
02494               3.40     1600.00
02495              -1.00     2400.00
02496              -1.40     2400.00
02497               0.60     3200.00
02498               1.00     4800.00
02499              -0.40     4800.00
02500              12.60     5600.00
02501              25.00     6400.00
02502             -25.00     8000.00
02503             -25.00     8000.00
02504              25.00     8000.00
02505              -6.00     8000.00
02506             -25.00     8800.00
02507              25.00     9600.00
02508             -25.00     9600.00
02509             -22.80    11200.00
02510              25.00    11200.00
02511             -25.00    12000.00
02512              25.00    12800.00
02513              14.80    12800.00
02514             -25.00    13600.00
02515              25.00    14400.00
02516             -25.00    14400.00
02517               7.60    15200.00
02518              25.00    16000.00
02519             -25.00    16000.00
02520              25.00    16800.00
02521              25.00    17600.00
02522             -25.00    17600.00
02523              -2.80    18400.00
02524              25.00    19200.00
02525             -25.00    19200.00
02526              -1.80    20000.00
02527              25.00    20800.00
02528             -25.00    20800.00
02529              19.60    22400.00
02530              -3.80    21600.00
02531             -15.60    22400.00
02532              18.60    23200.00
02533              -8.60    24000.00
02534              -5.40    24000.00
02535              16.60    24800.00
02536              -6.20    24800.00
02537             -12.40    24800.00
02538              20.40    25600.00
02539             -14.00    25600.00
02540              -2.20    25600.00
02541              14.40    26400.00
02542             -11.00    27200.00
02543               1.20    27200.00
02544               5.80    28000.00
02545              -4.60    28000.00
02546              -0.60    28800.00
02547               5.60    28800.00
02548              -3.60    28800.00
02549              -0.20    28800.00
02550               3.00    29600.00
02551              -4.40    29600.00
02552               2.60    30400.00
02553               3.40    30400.00
02554              -4.20    31200.00
02555               3.40    30400.00
02556               0.40    31200.00
02557              -3.80    31200.00
02558               3.80    32000.00
02559              -1.80    31200.00
02560              -0.60    32000.00
02561               3.40    32800.00
02562              -1.20    32000.00
02563              -0.40    32800.00
02564               0.60    32800.00
02565              -0.40    32000.00
02566               0.40    32800.00
02567               1.20    32800.00
02568               0.20    32800.00
02569              -0.60    33600.00
02570               2.00    32800.00
02571              -0.80    33600.00
02572               0.00    32800.00
02573               1.80    32800.00
02574              -2.00    33600.00
02575               2.60    33600.00
02576               0.20    32800.00
02577              -1.20    32800.00
02578               2.00    32800.00
02579              -0.40    32800.00
02580               0.40    33600.00
02581               0.60    33600.00
02582              -0.40    32800.00
02583               0.00    32800.00
02584               0.40    32800.00
02585               0.20    32800.00
02586              -0.60    32000.00
02587               0.40    32000.00
02588               0.20    32000.00
02589              -0.20    32000.00
02590               1.00    31200.00
02591              -0.60    32000.00
02592               0.40    31200.00
02593               1.20    31200.00
02594              -0.40    31200.00
02595               0.40    30400.00
02596              -0.20    30400.00
02597               0.40    29600.00
02598               0.20    29600.00
02599              -0.40    28800.00
02600               0.20    28800.00
02601              -0.40    28800.00
02602               0.00    28800.00
02603               0.60    28800.00
02604              -0.40    28000.00
02605              -0.20    27200.00
02606               0.40    27200.00
02607               0.20    27200.00
02608              -0.20    26400.00
02609               0.00    26400.00
02610               0.20    25600.00
02611               0.20    25600.00
02612               0.60    25600.00
02613              -0.20    24800.00
02614              -0.40    24000.00
02615               0.40    24000.00
02616              -0.60    24000.00
02617               0.20    22400.00
02618               0.40    22400.00
02619              -0.80    22400.00
02620               0.60    21600.00
02621               0.40    20800.00
02622              -0.60    20800.00
02623               0.20    19200.00
02624               0.20    19200.00
02625               0.20    19200.00
02626               0.20    18400.00
02627               0.20    18400.00
02628              -0.40    17600.00
02629              -0.40    16800.00
02630               0.40    16800.00
02631               0.20    16000.00
02632              -0.20    15200.00
02633              -0.20    14400.00
02634              -0.40    14400.00
02635               0.20    13600.00
02636              -0.40    12800.00
02637              -0.60    12800.00
02638               0.40    12000.00
02639              -0.40    11200.00
02640              -0.20    11200.00
02641               0.20     9600.00
02642              -0.20     9600.00
02643              -0.40     8800.00
02644               0.20     8800.00
02645              -0.20     8000.00
02646              -0.20     7200.00
02647              -0.40     6400.00
02648              -0.20     5600.00
02649               0.00     5600.00
02650              -0.40     4800.00
02651              -0.60     4800.00
02652               0.20     4000.00
02653              -0.20     3200.00
02654              -0.60     2400.00
02655              -0.40     1600.00
02656              -0.20     1600.00
02657              -0.60      800.00
02658               0.20        0.00
02659               0.20     -800.00
02660               2.00     -800.00
02661               2.60    -1600.00
02662              -2.20    -2400.00
02663               0.20    -1600.00
02664               1.00    -3200.00
02665              -0.40    -3200.00
02666               0.40    -4000.00
02667               8.80    -4800.00
02668              25.00    -6400.00
02669             -10.20    -8000.00
02670             -25.00    -8000.00
02671              10.60    -8000.00
02672              18.60    -8800.00
02673             -25.00    -8000.00
02674               2.60    -8800.00
02675              25.00   -10400.00
02676             -25.00    -9600.00
02677               1.00   -11200.00
02678              25.00   -12000.00
02679             -25.00   -12000.00
02680              19.60   -12800.00
02681               7.40   -13600.00
02682             -12.20   -14400.00
02683              25.00   -14400.00
02684             -25.00   -14400.00
02685              25.00   -16000.00
02686              18.60   -16000.00
02687             -25.00   -16800.00
02688              25.00   -16800.00
02689              17.80   -17600.00
02690             -25.00   -18400.00
02691               6.00   -17600.00
02692              25.00   -19200.00
02693             -25.00   -19200.00
02694              11.00   -20000.00
02695              18.40   -20800.00
02696             -22.80   -20800.00
02697              12.40   -21600.00
02698              -2.60   -22400.00
02699              -9.40   -22400.00
02700               9.00   -23200.00
02701              -3.00   -23200.00
02702              -4.40   -24000.00
02703              11.60   -24000.00
02704              -8.60   -24000.00
02705              -5.40   -24800.00
02706              12.60   -25600.00
02707             -12.60   -25600.00
02708               1.00   -26400.00
02709               8.20   -26400.00
02710              -8.40   -27200.00
02711               0.40   -27200.00
02712               3.60   -27200.00
02713              -5.20   -27200.00
02714               0.40   -28800.00
02715               3.00   -28000.00
02716              -4.60   -28800.00
02717               0.60   -28800.00
02718               0.40   -28800.00
02719              -4.40   -29600.00
02720               1.80   -29600.00
02721               0.40   -30400.00
02722              -3.60   -30400.00
02723               2.20   -30400.00
02724              -1.20   -30400.00
02725              -3.20   -31200.00
02726               1.40   -30400.00
02727              -1.60   -31200.00
02728              -0.60   -30400.00
02729               0.60   -32000.00
02730              -2.20   -32000.00
02731              -0.80   -32000.00
02732              -0.40   -32000.00
02733              -1.60   -32800.00
02734              -0.60   -32000.00
02735               0.20   -32000.00
02736              -1.80   -32000.00
02737              -0.60   -32800.00
02738               0.20   -32000.00
02739              -2.80   -32800.00
02740               0.20   -32000.00
02741              -0.20   -32800.00
02742              -2.60   -32800.00
02743               0.40   -32800.00
02744              -1.20   -32800.00
02745              -1.60   -32000.00
02746               0.20   -32800.00
02747              -1.00   -32800.00
02748              -1.20   -32000.00
02749              -0.40   -32000.00
02750              -1.00   -32800.00
02751              -1.20   -32000.00
02752               0.00   -32000.00
02753              -0.60   -32000.00
02754              -1.20   -31200.00
02755              -0.20   -32000.00
02756              -1.00   -31200.00
02757              -1.00   -30400.00
02758              -0.60   -31200.00
02759              -1.20   -30400.00
02760              -0.20   -29600.00
02761              -0.40   -30400.00
02762              -1.40   -30400.00
02763              -0.40   -29600.00
02764              -0.60   -29600.00
02765              -0.60   -29600.00
02766              -0.60   -28800.00
02767              -0.80   -28800.00
02768              -1.20   -28000.00
02769              -0.60   -28800.00
02770              -0.40   -27200.00
02771              -1.00   -27200.00
02772              -0.60   -27200.00
02773              -0.60   -26400.00
02774              -1.00   -26400.00
02775              -0.60   -25600.00
02776              -0.60   -25600.00
02777              -0.60   -24000.00
02778              -0.20   -24800.00
02779              -1.00   -24800.00
02780              -0.80   -24000.00
02781              -0.60   -24000.00
02782              -1.00   -23200.00
02783              -0.80   -22400.00
02784              -1.20   -22400.00
02785              -0.60   -22400.00
02786              -1.00   -21600.00
02787              -1.20   -20800.00
02788              -0.60   -20800.00
02789              -1.00   -20000.00
02790              -1.00   -19200.00
02791              -0.60   -18400.00
02792              -1.00   -19200.00
02793              -0.60   -17600.00
02794              -0.60   -17600.00
02795              -1.00   -16800.00
02796              -0.60   -16800.00
02797              -1.00   -16000.00
02798              -0.60   -15200.00
02799              -0.60   -14400.00
02800              -1.00   -14400.00
02801              -0.60   -13600.00
02802              -0.60   -13600.00
02803              -0.80   -12800.00
02804              -1.00   -12000.00
02805              -0.60   -11200.00
02806              -0.60   -11200.00
02807              -1.00   -10400.00
02808              -0.60    -9600.00
02809              -0.60    -9600.00
02810              -0.60    -8000.00
02811              -0.20    -8000.00
02812              -0.60    -7200.00
02813              -0.60    -7200.00
02814              -0.40    -6400.00
02815              -0.60    -6400.00
02816              -0.60    -4800.00
02817              -0.60    -4000.00
02818              -0.60    -3200.00
02819              -0.40    -3200.00
02820              -0.20    -2400.00
02821              -0.20    -1600.00
02822              -0.60     -800.00
02823              -0.40        0.00
02824              -0.20        0.00
02825               0.20        0.00
02826               0.20     1600.00
02827               2.40     1600.00
02828               1.80     2400.00
02829              -2.40     2400.00
02830               0.40     3200.00
02831               1.40     3200.00
02832              -1.20     4800.00
02833               5.00     4800.00
02834              25.00     6400.00
02835               2.60     7200.00
02836             -25.00     8000.00
02837               5.20     8000.00
02838              22.00     8000.00
02839             -25.00     8800.00
02840              25.00     9600.00
02841              25.00     9600.00
02842             -25.00    10400.00
02843              25.00    11200.00
02844              -1.80    11200.00
02845             -25.00    12000.00
02846              25.00    12800.00
02847             -25.00    12800.00
02848              25.00    14400.00
02849              23.20    14400.00
02850             -25.00    14400.00
02851              25.00    15200.00
02852             -25.00    16000.00
02853             -25.00    16800.00
02854              25.00    16800.00
02855             -18.60    17600.00
02856             -25.00    18400.00
02857              25.00    18400.00
02858               4.20    19200.00
02859             -25.00    20000.00
02860              25.00    20000.00
02861             -10.20    20800.00
02862             -10.00    21600.00
02863              24.20    21600.00
02864             -25.00    22400.00
02865               9.80    22400.00
02866               6.00    24000.00
02867             -14.00    24000.00
02868               9.00    24000.00
02869              11.40    24800.00
02870             -20.20    24800.00
02871              11.20    25600.00
02872               6.60    25600.00
02873             -19.00    25600.00
02874              15.20    26400.00
02875              -1.00    27200.00
02876              -7.60    27200.00
02877               7.80    28000.00
02878              -0.60    28000.00
02879              -5.00    28000.00
02880               4.60    28800.00
02881               0.60    28800.00
02882              -3.80    28800.00
02883               4.40    29600.00
02884              -1.60    29600.00
02885              -2.20    29600.00
02886               5.80    31200.00
02887              -2.60    30400.00
02888              -0.60    30400.00
02889               4.40    31200.00
02890              -4.20    31200.00
02891               1.00    31200.00
02892               2.00    32000.00
02893              -2.80    31200.00
02894               2.80    32800.00
02895               1.00    32000.00
02896              -1.40    32800.00
02897               1.00    32800.00
02898               0.00    32000.00
02899              -0.20    32800.00
02900               1.00    32800.00
02901               0.60    32800.00
02902              -0.60    32800.00
02903               1.20    33600.00
02904               1.00    33600.00
02905              -1.20    32800.00
02906               2.00    33600.00
02907              -0.60    33600.00
02908               0.20    33600.00
02909               2.40    33600.00
02910              -1.80    33600.00
02911               0.60    32800.00
02912               1.00    33600.00
02913              -0.40    33600.00
02914               0.60    33600.00
02915               0.20    33600.00
02916               0.20    32800.00
02917              -0.20    32800.00
02918               0.60    32800.00
02919               0.20    32000.00
02920              -0.40    32800.00
02921               0.60    32000.00
02922              -0.40    32000.00
02923               0.60    32800.00
02924              -0.20    31200.00
02925              -0.20    31200.00
02926               1.20    31200.00
02927               0.20    31200.00
02928              -0.40    30400.00
02929               0.40    31200.00
02930              -0.40    29600.00
02931               0.20    30400.00
02932               0.40    29600.00
02933               0.00    28800.00
02934               0.20    28800.00
02935               0.20    28800.00
02936               0.40    28000.00
02937              -0.40    28800.00
02938              -0.40    28000.00
02939              -0.40    27200.00
02940               0.20    27200.00
02941               0.60    27200.00
02942               0.20    26400.00
02943               0.60    25600.00
02944               1.20    25600.00
02945              -0.20    25600.00
02946               0.60    24800.00
02947              -0.40    24800.00
02948              -1.20    24800.00
02949              -0.60    24000.00
02950              -0.60    24000.00
02951               0.40    22400.00
02952               0.60    22400.00
02953               1.40    21600.00
02954               1.80    21600.00
02955               0.00    20800.00
02956              -0.40    20800.00
02957              -0.80    19200.00
02958              -1.40    19200.00
02959              -0.40    18400.00
02960              -0.20    18400.00
02961               0.20    18400.00
02962               1.40    17600.00
02963               1.80    16000.00
02964               0.20    16000.00
02965               0.40    16000.00
02966              -0.60    15200.00
02967              -1.80    14400.00
02968              -0.40    14400.00
02969              -0.20    13600.00
02970              -1.00    12800.00
02971               1.20    12000.00
02972               0.80    12000.00
02973               1.00    12000.00
02974               0.60     9600.00
02975              -0.60    10400.00
02976              -1.20     9600.00
02977              -1.00     8800.00
02978              -1.20     8000.00
02979              -0.40     8000.00
02980              -0.20     6400.00
02981               0.20     6400.00
02982               1.00     6400.00
02983              -0.20     5600.00
02984              -1.00     4800.00
02985              -0.40     4800.00
02986              -1.20     3200.00
02987              -1.20     3200.00
02988              -0.60     2400.00
02989              -0.40     1600.00
02990               0.20      800.00
02991               0.40        0.00
02992               0.60        0.00
02993               0.60     -800.00
02994               3.60    -1600.00
02995              -1.40    -1600.00
02996              -1.40    -1600.00
02997               1.00    -3200.00
02998               0.60    -4000.00
02999              -0.60    -4000.00
03000               4.40    -4000.00
03001              18.80    -4800.00
03002              18.80    -7200.00
03003             -25.00    -8000.00
03004             -18.20    -8000.00
03005              25.00    -8000.00
03006             -14.80    -8800.00
03007             -25.00    -8000.00
03008              25.00    -9600.00
03009              11.60    -9600.00
03010             -25.00   -10400.00
03011              25.00   -11200.00
03012              -9.80   -11200.00
03013             -25.00   -12000.00
03014              25.00   -12800.00
03015             -25.00   -12800.00
03016              24.40   -13600.00
03017             -14.20   -14400.00
03018             -18.20   -16000.00
03019              25.00   -15200.00
03020             -25.00   -16000.00
03021             -10.20   -16800.00
03022              25.00   -16800.00
03023             -18.80   -17600.00
03024             -21.80   -18400.00
03025              25.00   -19200.00
03026             -10.80   -19200.00
03027             -21.00   -20000.00
03028              25.00   -20800.00
03029             -13.20   -20800.00
03030              -5.20   -22400.00
03031              13.00   -21600.00
03032             -13.80   -22400.00
03033               3.40   -23200.00
03034               4.60   -23200.00
03035              -9.20   -23200.00
03036               5.80   -24000.00
03037               4.40   -24000.00
03038             -14.40   -24000.00
03039              10.60   -25600.00
03040               0.20   -25600.00
03041             -11.40   -25600.00
03042              10.80   -26400.00
03043              -3.40   -27200.00
03044              -6.00   -27200.00
03045               5.20   -27200.00
03046              -1.80   -27200.00
03047              -4.40   -28000.00
03048               3.60   -28800.00
03049              -1.80   -28800.00
03050              -3.60   -28800.00
03051               3.20   -28800.00
03052              -3.20   -28800.00
03053              -1.80   -29600.00
03054               2.80   -29600.00
03055              -3.60   -30400.00
03056              -0.60   -30400.00
03057               2.00   -31200.00
03058              -4.00   -31200.00
03059               0.20   -30400.00
03060               0.40   -31200.00
03061              -2.60   -32000.00
03062               1.00   -32000.00
03063              -1.20   -31200.00
03064              -2.20   -32000.00
03065              -0.20   -32000.00
03066              -1.00   -32000.00
03067              -1.40   -32000.00
03068               0.20   -32000.00
03069              -0.60   -32800.00
03070              -1.80   -32000.00
03071               0.60   -32800.00
03072              -1.40   -32000.00
03073              -1.80   -32800.00
03074               0.60   -32000.00
03075              -2.00   -32800.00
03076              -0.60   -32000.00
03077               0.20   -32800.00
03078              -2.00   -32000.00
03079              -0.20   -32000.00
03080              -0.40   -32000.00
03081              -1.40   -32000.00
03082              -0.40   -32000.00
03083              -0.60   -32000.00
03084              -1.20   -32000.00
03085              -0.40   -32000.00
03086              -0.20   -32000.00
03087              -1.20   -32000.00
03088              -0.40   -31200.00
03089              -0.60   -31200.00
03090              -1.20   -32000.00
03091              -0.60   -30400.00
03092              -1.20   -31200.00
03093              -0.60   -30400.00
03094              -0.20   -30400.00
03095              -1.00   -29600.00
03096              -0.60   -29600.00
03097              -0.20   -28800.00
03098              -1.20   -29600.00
03099              -0.60   -29600.00
03100              -0.40   -28800.00
03101              -1.00   -28800.00
03102              -1.00   -28000.00
03103              -0.40   -27200.00
03104              -1.20   -28000.00
03105              -1.00   -27200.00
03106              -0.60   -27200.00
03107              -0.60   -26400.00
03108              -1.00   -26400.00
03109              -0.60   -26400.00
03110              -1.20   -25600.00
03111              -0.60   -24800.00
03112              -0.60   -24000.00
03113              -1.00   -24000.00
03114              -0.60   -24000.00
03115              -1.00   -23200.00
03116              -1.20   -23200.00
03117              -0.20   -22400.00
03118              -1.00   -21600.00
03119              -1.80   -20800.00
03120              -1.20   -20800.00
03121              -0.40   -20800.00
03122              -0.40   -20000.00
03123              -1.00   -18400.00
03124              -0.80   -19200.00
03125              -1.00   -18400.00
03126              -0.60   -17600.00
03127              -0.60   -17600.00
03128              -1.00   -16800.00
03129              -0.60   -16800.00
03130              -1.00   -16000.00
03131              -0.60   -16000.00
03132              -0.40   -14400.00
03133              -1.40   -14400.00
03134              -1.20   -14400.00
03135              -0.20   -13600.00
03136              -0.20   -13600.00
03137              -0.40   -12000.00
03138              -1.20   -12000.00
03139              -1.00   -11200.00
03140              -0.60   -10400.00
03141              -0.40    -9600.00
03142              -1.20    -9600.00
03143              -0.60    -9600.00
03144              -0.40    -8800.00
03145              -1.00    -8000.00
03146              -0.60    -7200.00
03147              -0.20    -7200.00
03148              -0.60    -6400.00
03149              -0.60    -5600.00
03150              -0.20    -4800.00
03151              -1.00    -4000.00
03152              -0.60    -3200.00
03153              -0.20    -3200.00
03154              -0.60    -2400.00
03155              -0.60    -1600.00
03156              -0.40     -800.00
03157              -0.40        0.00
03158              -0.40        0.00
03159               0.20        0.00
03160               1.00     1600.00
03161               3.00     1600.00
03162              -1.40     1600.00
03163              -0.60     3200.00
03164               1.20     3200.00
03165              -0.20     4000.00
03166               0.20     4800.00
03167              15.40     5600.00
03168              25.00     7200.00
03169             -25.00     7200.00
03170             -25.00     8000.00
03171              25.00     8000.00
03172             -14.00     8000.00
03173             -23.40     8800.00
03174              25.00    10400.00
03175             -25.00     9600.00
03176              -5.80    11200.00
03177              25.00    11200.00
03178             -25.00    12000.00
03179              25.00    12800.00
03180              -0.60    12800.00
03181             -25.00    13600.00
03182              25.00    14400.00
03183             -25.00    14400.00
03184              25.00    15200.00
03185              25.00    16000.00
03186             -25.00    16000.00
03187              25.00    16800.00
03188              23.60    17600.00
03189             -25.00    17600.00
03190               4.40    18400.00
03191              25.00    18400.00
03192             -25.00    19200.00
03193               6.80    20800.00
03194              25.00    20800.00
03195             -25.00    21600.00
03196              24.20    21600.00
03197              -9.00    22400.00
03198             -12.40    22400.00
03199              18.00    23200.00
03200             -10.00    24000.00
03201              -3.60    24000.00
03202              17.20    24800.00
03203              -9.00    24800.00
03204              -9.80    24800.00
03205              20.20    25600.00
03206             -16.40    25600.00
03207               1.00    25600.00
03208              12.40    26400.00
03209             -11.40    27200.00
03210               3.40    27200.00
03211               4.40    28000.00
03212              -5.40    28000.00
03213               1.00    28000.00
03214               5.20    28800.00
03215              -4.60    28800.00
03216               1.20    28800.00
03217               2.80    29600.00
03218              -5.20    29600.00
03219               3.00    29600.00
03220               2.80    31200.00
03221              -3.80    30400.00
03222               4.60    30400.00
03223              -0.20    31200.00
03224              -3.20    31200.00
03225               3.20    32000.00
03226              -2.20    32800.00
03227               0.40    32800.00
03228               3.60    32000.00
03229              -1.20    32800.00
03230               0.40    32800.00
03231               0.40    32800.00
03232              -1.20    32800.00
03233               0.40    33600.00
03234               1.00    32800.00
03235              -0.40    32000.00
03236              -0.20    33600.00
03237               1.80    33600.00
03238              -1.60    33600.00
03239               0.60    33600.00
03240               1.20    33600.00
03241              -1.40    33600.00
03242               2.60    33600.00
03243              -0.40    33600.00
03244              -1.40    33600.00
03245               1.40    32000.00
03246              -0.40    32800.00
03247               0.60    33600.00
03248               0.60    33600.00
03249              -0.20    32800.00
03250              -0.40    32800.00
03251               0.20    32000.00
03252               0.40    32800.00
03253              -0.60    32000.00
03254               0.40    32800.00
03255               0.60    32000.00
03256               0.20    32800.00
03257               0.40    32000.00
03258              -0.20    31200.00
03259               0.40    31200.00
03260               0.40    31200.00
03261              -0.20    31200.00
03262               0.40    30400.00
03263              -0.40    30400.00
03264               0.20    30400.00
03265               1.00    30400.00
03266              -0.20    29600.00
03267              -0.20    29600.00
03268               0.40    28800.00
03269               0.40    28800.00
03270               0.40    28000.00
03271              -0.40    28000.00
03272               0.40    27200.00
03273               0.20    27200.00
03274               0.40    27200.00
03275               0.20    26400.00
03276              -0.40    26400.00
03277               0.60    25600.00
03278               0.00    25600.00
03279               0.20    25600.00
03280               0.40    24800.00
03281              -0.60    24800.00
03282               0.20    24000.00
03283               0.60    24000.00
03284               0.20    23200.00
03285               0.20    22400.00
03286               0.20    22400.00
03287               0.40    21600.00
03288               0.00    20800.00
03289              -0.20    20800.00
03290               0.20    19200.00
03291              -0.20    19200.00
03292               0.20    19200.00
03293              -0.20    18400.00
03294               0.20    18400.00
03295              -0.20    17600.00
03296              -0.20    16800.00
03297               0.60    16800.00
03298              -0.20    16000.00
03299               0.20    15200.00
03300               0.20    14400.00
03301              -0.20    14400.00
03302               0.00    13600.00
03303              -0.20    13600.00
03304              -0.40    12000.00
03305               0.20    12000.00
03306              -0.40    11200.00
03307              -0.40    11200.00
03308              -0.40    10400.00
03309              -0.20     9600.00
03310              -0.40     8800.00
03311              -0.40     8800.00
03312              -0.40     8000.00
03313              -0.40     7200.00
03314              -0.60     6400.00
03315               0.20     6400.00
03316               0.20     5600.00
03317              -1.20     4800.00
03318              -1.40     4800.00
03319               1.00     3200.00
03320              -0.20     3200.00
03321              -1.40     2400.00
03322               0.40     2400.00
03323              -0.60     1600.00
03324              -1.80        0.00
03325               1.20        0.00
03326               0.40        0.00
03327               1.20     -800.00
03328               2.80    -1600.00
03329              -1.80    -1600.00
03330               0.20    -2400.00
03331               1.80    -3200.00
03332              -0.40    -3200.00
03333               0.40    -4000.00
03334              11.40    -4800.00
03335              25.00    -6400.00
03336             -18.20    -7200.00
03337             -25.00    -8000.00
03338              15.00    -8000.00
03339              14.00    -8800.00
03340             -25.00    -8000.00
03341              12.60    -8800.00
03342              25.00    -9600.00
03343             -25.00   -10400.00
03344              15.80   -11200.00
03345              25.00   -11200.00
03346             -25.00   -12000.00
03347              25.00   -12800.00
03348              -1.20   -12800.00
03349              -5.60   -13600.00
03350              23.00   -14400.00
03351             -25.00   -14400.00
03352              25.00   -15200.00
03353              10.40   -16000.00
03354             -25.00   -16000.00
03355              25.00   -16800.00
03356              11.80   -17600.00
03357             -25.00   -18400.00
03358              11.60   -18400.00
03359              21.20   -19200.00
03360             -25.00   -19200.00
03361              17.00   -20000.00
03362              13.80   -20000.00
03363             -22.00   -20800.00
03364              14.60   -21600.00
03365              -5.40   -22400.00
03366              -8.20   -22400.00
03367               9.00   -23200.00
03368              -4.60   -24000.00
03369              -3.60   -24000.00
03370              11.40   -24000.00
03371             -10.80   -24000.00
03372              -3.20   -24800.00
03373              11.80   -25600.00
03374             -14.20   -25600.00
03375               3.00   -26400.00
03376               7.00   -27200.00
03377              -9.20   -27200.00
03378               1.80   -27200.00
03379               3.20   -28000.00
03380              -6.00   -28000.00
03381               1.00   -28800.00
03382               2.60   -28800.00
03383              -5.40   -28800.00
03384               1.20   -29600.00
03385               0.20   -29600.00
03386              -4.40   -29600.00
03387               2.60   -29600.00
03388               0.00   -30400.00
03389              -3.60   -30400.00
03390               2.60   -30400.00
03391              -1.80   -31200.00
03392              -2.80   -30400.00
03393               1.80   -31200.00
03394              -2.20   -32000.00
03395               0.20   -32000.00
03396               0.40   -32000.00
03397              -2.20   -32000.00
03398              -0.40   -32000.00
03399              -1.20   -32000.00
03400              -1.20   -32000.00
03401              -0.60   -32800.00
03402              -0.40   -32000.00
03403              -2.00   -32800.00
03404              -0.20   -32000.00
03405               0.20   -32800.00
03406              -2.60   -32800.00
03407               0.40   -32800.00
03408               0.20   -32800.00
03409              -2.20   -32800.00
03410               0.40   -32800.00
03411              -1.40   -32800.00
03412              -1.20   -32000.00
03413              -0.20   -32800.00
03414              -0.80   -32800.00
03415              -0.40   -32800.00
03416              -0.60   -32000.00
03417              -0.60   -32000.00
03418              -0.60   -32000.00
03419              -1.00   -32000.00
03420              -0.60   -32000.00
03421              -0.60   -31200.00
03422              -0.40   -32000.00
03423              -1.00   -31200.00
03424              -0.40   -30400.00
03425              -1.00   -30400.00
03426              -1.20   -30400.00
03427               0.00   -30400.00
03428              -0.80   -30400.00
03429              -1.40   -29600.00
03430              -0.20   -29600.00
03431              -0.60   -29600.00
03432              -1.00   -29600.00
03433              -0.60   -28800.00
03434              -1.20   -28800.00
03435              -1.20   -28000.00
03436              -1.00   -28000.00
03437              -0.40   -28000.00
03438              -1.00   -27200.00
03439              -1.00   -27200.00
03440              -0.60   -26400.00
03441              -1.20   -26400.00
03442              -0.40   -26400.00
03443              -1.00   -25600.00
03444              -0.80   -25600.00
03445              -0.20   -25600.00
03446              -1.20   -24000.00
03447              -1.00   -24000.00
03448              -0.60   -24000.00
03449              -1.00   -23200.00
03450              -0.60   -22400.00
03451              -0.60   -22400.00
03452              -1.00   -22400.00
03453              -1.00   -20800.00
03454              -0.60   -21600.00
03455              -0.60   -20000.00
03456              -1.00   -19200.00
03457              -0.60   -19200.00
03458              -0.80   -18400.00
03459              -0.60   -17600.00
03460              -0.60   -18400.00
03461              -1.00   -17600.00
03462              -0.60   -16800.00
03463              -0.60   -16800.00
03464              -1.00   -16000.00
03465              -0.40   -16000.00
03466              -0.80   -14400.00
03467              -0.60   -14400.00
03468              -0.40   -13600.00
03469              -0.60   -12800.00
03470              -0.60   -12800.00
03471              -0.40   -12000.00
03472              -0.60   -11200.00
03473              -0.60   -11200.00
03474              -0.40   -10400.00
03475              -0.60    -9600.00
03476              -0.60    -8800.00
03477              -0.40    -8000.00
03478              -0.60    -8000.00
03479              -0.60    -7200.00
03480              -0.40    -6400.00
03481              -0.60    -6400.00
03482              -0.40    -4800.00
03483              -0.20    -4800.00
03484              -0.60    -4000.00
03485              -0.60    -4000.00
03486              -0.40    -3200.00
03487              -0.40    -2400.00
03488              -0.60    -1600.00
03489              -0.60     -800.00
03490              -0.60     -800.00
03491              -0.20        0.00
03492              -0.20        0.00
03493              -0.20      800.00
03494               2.60     1600.00
03495               1.80     1600.00
03496              -2.60     3200.00
03497               0.00     3200.00
03498               1.80     4000.00
03499              -2.00     4000.00
03500               6.20     4800.00
03501              25.00     6400.00
03502              -5.00     7200.00
03503             -25.00     8000.00
03504               9.40     8000.00
03505              18.00     8000.00
03506             -25.00     8000.00
03507              25.00     9600.00
03508              25.00     9600.00
03509             -25.00    10400.00
03510              25.00    11200.00
03511             -18.60    11200.00
03512             -25.00    12000.00
03513              25.00    12000.00
03514             -25.00    12800.00
03515              25.00    13600.00
03516               5.20    14400.00
03517             -25.00    14400.00
03518              25.00    16000.00
03519             -25.00    16000.00
03520             -18.60    16800.00
03521              25.00    16800.00
03522             -25.00    17600.00
03523             -22.60    18400.00
03524              25.00    18400.00
03525              -3.80    19200.00
03526             -25.00    20000.00
03527              25.00    20800.00
03528             -17.00    21600.00
03529              -2.80    21600.00
03530              19.80    22400.00
03531             -25.00    22400.00
03532              13.40    23200.00
03533               3.00    22400.00
03534             -13.20    24000.00
03535              11.60    24800.00
03536               8.40    24000.00
03537             -20.40    24800.00
03538              14.60    25600.00
03539               2.80    25600.00
03540             -17.40    26400.00
03541              16.40    27200.00
03542              -3.00    27200.00
03543              -6.00    27200.00
03544               8.20    27200.00
03545              -1.40    28000.00
03546              -4.20    28800.00
03547               5.40    28800.00
03548              -0.40    28800.00
03549              -3.60    28800.00
03550               4.40    29600.00
03551              -2.00    30400.00
03552              -1.40    29600.00
03553               5.80    30400.00
03554              -3.00    31200.00
03555               0.00    30400.00
03556               3.80    31200.00
03557              -4.40    32000.00
03558               1.80    32000.00
03559               1.20    31200.00
03560              -2.80    32800.00
03561               3.00    32000.00
03562               0.60    31200.00
03563              -1.20    32800.00
03564               0.80    33600.00
03565              -0.40    32800.00
03566               0.00    32000.00
03567               0.60    32800.00
03568               0.40    32800.00
03569              -1.00    32800.00
03570               1.20    32800.00
03571               0.20    32800.00
03572              -1.40    32800.00
03573               2.00    33600.00
03574              -1.20    32800.00
03575               0.40    32800.00
03576               2.00    33600.00
03577              -2.00    32800.00
03578               1.00    33600.00
03579               0.60    32800.00
03580              -0.20    32800.00
03581               0.60    32000.00
03582              -0.60    32800.00
03583              -0.20    32800.00
03584               0.20    32800.00
03585               0.40    32800.00
03586              -0.40    32000.00
03587               0.40    32800.00
03588               0.60    32000.00
03589              -0.20    31200.00
03590               1.00    32000.00
03591              -0.20    31200.00
03592              -0.20    31200.00
03593               1.40    31200.00
03594               0.00    31200.00
03595              -0.20    31200.00
03596               0.60    30400.00
03597              -0.40    30400.00
03598               0.60    29600.00
03599               0.40    28800.00
03600              -0.20    28800.00
03601               0.20    28800.00
03602               0.20    28800.00
03603               0.40    28000.00
03604               0.20    28000.00
03605               0.20    28000.00
03606               0.20    27200.00
03607               0.40    27200.00
03608               0.40    26400.00
03609              -0.40    26400.00
03610               0.20    25600.00
03611               0.40    24800.00
03612               0.20    25600.00
03613               0.60    24800.00
03614              -0.20    24800.00
03615               0.20    24000.00
03616               0.40    24000.00
03617               0.20    23200.00
03618               0.40    23200.00
03619              -0.20    22400.00
03620               0.20    21600.00
03621               0.40    21600.00
03622              -0.40    20800.00
03623              -0.20    20800.00
03624               0.20    20000.00
03625               0.20    19200.00
03626               0.40    19200.00
03627              -0.40    17600.00
03628              -0.20    17600.00
03629              -0.20    16800.00
03630               0.20    16800.00
03631               0.20    16000.00
03632              -0.40    16000.00
03633              -0.40    15200.00
03634               0.00    14400.00
03635              -0.60    14400.00
03636              -0.20    12800.00
03637              -0.40    12800.00
03638              -0.40    12800.00
03639               0.20    12000.00
03640              -0.20    11200.00
03641              -0.60    11200.00
03642               0.00     9600.00
03643               0.00     9600.00
03644              -0.60     8800.00
03645               0.20     8000.00
03646              -0.40     8000.00
03647              -0.60     7200.00
03648               0.20     7200.00
03649              -0.40     5600.00
03650              -0.40     5600.00
03651               0.00     4800.00
03652              -0.40     4000.00
03653              -0.40     3200.00
03654               0.00     2400.00
03655              -0.60     2400.00
03656              -0.20     1600.00
03657              -0.20      800.00
03658              -0.40        0.00
03659               0.40     -800.00
03660               0.60     -800.00
03661               3.40     -800.00
03662              -1.00    -1600.00
03663              -0.80    -2400.00
03664               1.20    -2400.00
03665               0.60    -3200.00
03666              -0.60    -3200.00
03667               4.60    -4000.00
03668              20.60    -4800.00
03669              14.80    -6400.00
03670             -25.00    -7200.00
03671             -12.40    -8000.00
03672              25.00    -8000.00
03673             -20.60    -8800.00
03674             -25.00    -8000.00
03675              25.00    -9600.00
03676              -2.80   -10400.00
03677             -25.00   -10400.00
03678              25.00   -11200.00
03679             -23.60   -11200.00
03680             -25.00   -12800.00
03681              25.00   -12800.00
03682             -25.00   -13600.00
03683              25.00   -14400.00
03684             -22.00   -14400.00
03685             -10.60   -15200.00
03686              25.00   -15200.00
03687             -25.00   -16000.00
03688              -3.60   -16800.00
03689              25.00   -16800.00
03690             -23.40   -17600.00
03691             -17.80   -17600.00
03692              25.00   -18400.00
03693             -17.00   -19200.00
03694             -15.80   -20000.00
03695              25.00   -20000.00
03696             -17.00   -20800.00
03697              -2.20   -21600.00
03698              10.80   -22400.00
03699             -14.60   -22400.00
03700               5.00   -22400.00
03701               3.40   -23200.00
03702              -9.00   -24000.00
03703               7.40   -24000.00
03704               2.00   -24000.00
03705             -14.00   -24800.00
03706              11.80   -24800.00
03707              -2.80   -25600.00
03708             -10.20   -25600.00
03709              11.40   -26400.00
03710              -4.60   -27200.00
03711              -5.00   -27200.00
03712               5.40   -27200.00
03713              -2.60   -27200.00
03714              -3.40   -28000.00
03715               4.20   -28800.00
03716              -3.20   -28800.00
03717              -3.20   -28800.00
03718               3.20   -29600.00
03719              -4.00   -29600.00
03720              -0.60   -29600.00
03721               2.80   -29600.00
03722              -4.20   -30400.00
03723               0.00   -29600.00
03724               1.40   -30400.00
03725              -4.20   -30400.00
03726               0.40   -30400.00
03727              -0.40   -31200.00
03728              -2.20   -32000.00
03729               1.40   -31200.00
03730              -1.40   -32000.00
03731              -2.00   -32000.00
03732               0.00   -32000.00
03733              -1.20   -32000.00
03734              -1.20   -32800.00
03735               0.20   -32000.00
03736              -1.00   -32800.00
03737              -1.60   -32800.00
03738               0.60   -32800.00
03739              -1.40   -32800.00
03740              -1.80   -32000.00
03741               0.80   -32800.00
03742              -2.00   -32800.00
03743              -0.20   -32800.00
03744              -0.40   -32800.00
03745              -2.00   -32000.00
03746               0.20   -32800.00
03747              -0.60   -32000.00
03748              -1.40   -32800.00
03749              -0.40   -32800.00
03750              -0.60   -32800.00
03751              -1.20   -32000.00
03752              -0.60   -32000.00
03753              -0.60   -32000.00
03754              -1.20   -32000.00
03755              -0.40   -32000.00
03756              -1.00   -32000.00
03757              -1.40   -31200.00
03758              -0.60   -30400.00
03759              -1.20   -30400.00
03760              -1.00   -30400.00
03761              -0.40   -30400.00
03762              -1.00   -29600.00
03763              -1.00   -29600.00
03764              -0.40   -29600.00
03765              -1.00   -29600.00
03766              -1.20   -28800.00
03767              -0.80   -28800.00
03768              -0.80   -28800.00
03769              -1.20   -28800.00
03770              -0.60   -28000.00
03771              -1.00   -27200.00
03772              -1.40   -27200.00
03773              -0.60   -26400.00
03774              -0.60   -26400.00
03775              -0.60   -25600.00
03776              -0.60   -25600.00
03777              -1.20   -25600.00
03778              -0.60   -24800.00
03779              -0.80   -24800.00
03780              -1.20   -24000.00
03781              -0.60   -24000.00
03782              -1.00   -23200.00
03783              -1.20   -22400.00
03784              -0.60   -22400.00
03785              -0.80   -22400.00
03786              -0.80   -21600.00
03787              -0.80   -20800.00
03788              -0.20   -20800.00
03789              -1.00   -20800.00
03790              -1.00   -19200.00
03791              -0.60   -19200.00
03792              -0.80   -18400.00
03793              -0.60   -18400.00
03794              -0.60   -17600.00
03795              -0.60   -17600.00
03796              -0.60   -16800.00
03797              -1.00   -16000.00
03798              -0.40   -16000.00
03799              -0.60   -14400.00
03800              -1.00   -14400.00
03801              -0.60   -14400.00
03802              -0.60   -12800.00
03803              -0.60   -13600.00
03804              -0.80   -12000.00
03805              -0.40   -11200.00
03806              -0.40   -11200.00
03807              -1.00   -10400.00
03808              -0.60    -9600.00
03809              -0.80    -9600.00
03810              -1.00    -8800.00
03811              -0.40    -8800.00
03812              -0.60    -8000.00
03813              -0.60    -7200.00
03814              -0.40    -6400.00
03815              -0.60    -5600.00
03816              -0.60    -5600.00
03817              -0.40    -4800.00
03818              -0.60    -4000.00
03819              -0.40    -3200.00
03820              -0.20    -3200.00
03821              -0.40    -2400.00
03822              -0.40    -1600.00
03823              -0.60    -1600.00
03824              -0.40        0.00
03825              -0.20        0.00
03826               0.00      800.00
03827               0.60      800.00
03828               3.40     1600.00
03829              -2.20     2400.00
03830              -1.00     3200.00
03831               1.20     2400.00
03832              -0.20     4800.00
03833               0.40     4000.00
03834              17.00     5600.00
03835              25.00     7200.00
03836             -25.00     8000.00
03837             -23.80     8000.00
03838              25.00     8000.00
03839             -20.00     8000.00
03840             -14.80     8800.00
03841              25.00     9600.00
03842             -25.00     9600.00
03843              10.80    11200.00
03844              25.00    11200.00
03845             -25.00    12000.00
03846              25.00    12800.00
03847             -16.40    12800.00
03848             -21.20    12800.00
03849              25.00    14400.00
03850             -25.00    14400.00
03851              25.00    15200.00
03852              25.00    16000.00
03853             -25.00    16000.00
03854              25.00    16800.00
03855              16.20    17600.00
03856             -25.00    18400.00
03857              10.00    19200.00
03858              25.00    19200.00
03859             -25.00    20000.00
03860              13.80    20000.00
03861              22.60    20800.00
03862             -25.00    21600.00
03863              25.00    22400.00
03864             -14.20    21600.00
03865              -8.60    22400.00
03866              17.00    23200.00
03867             -11.60    24000.00
03868              -1.00    24000.00
03869              17.60    24800.00
03870             -12.20    24800.00
03871              -6.20    24800.00
03872              19.60    25600.00
03873             -18.60    25600.00
03874               4.20    26400.00
03875              10.80    27200.00
03876             -11.60    27200.00
03877               4.00    27200.00
03878               3.80    28000.00
03879              -5.40    28000.00
03880               1.40    28800.00
03881               4.80    28800.00
03882              -4.60    28800.00
03883               2.00    29600.00
03884               2.40    29600.00
03885              -4.60    30400.00
03886               3.60    30400.00
03887               1.80    30400.00
03888              -4.20    31200.00
03889               4.40    31200.00
03890              -1.20    31200.00
03891              -2.60    31200.00
03892               3.60    31200.00
03893              -2.60    32800.00
03894               0.40    32000.00
03895               2.80    32000.00
03896              -1.40    32000.00
03897               0.20    32800.00
03898               0.20    32000.00
03899              -0.60    32800.00
03900               0.40    32800.00
03901               0.60    32800.00
03902              -0.20    32800.00
03903               0.20    32000.00
03904               1.00    32800.00
03905              -1.20    33600.00
03906               1.00    32800.00
03907              -0.20    32800.00
03908              -1.80    33600.00
03909               3.00    32800.00
03910              -1.40    33600.00
03911              -0.60    32800.00
03912               1.40    33600.00
03913              -0.60    32800.00
03914               0.20    32800.00
03915               0.40    32800.00
03916              -0.20    33600.00
03917               0.40    32000.00
03918               0.20    32800.00
03919               1.00    32000.00
03920              -0.60    32800.00
03921              -0.40    32000.00
03922               1.40    32800.00
03923              -0.60    32000.00
03924              -0.20    31200.00
03925               0.40    32000.00
03926               0.60    32000.00
03927               0.00    31200.00
03928               0.60    30400.00
03929               0.40    31200.00
03930              -0.40    30400.00
03931               1.00    30400.00
03932               0.00    29600.00
03933              -0.60    28800.00
03934               0.40    28800.00
03935               0.20    28800.00
03936               0.20    28000.00
03937               0.60    28000.00
03938              -0.20    28000.00
03939               0.20    27200.00
03940              -0.20    27200.00
03941               0.80    27200.00
03942               0.20    26400.00
03943              -0.40    25600.00
03944               0.20    25600.00
03945               0.40    24800.00
03946               0.60    24800.00
03947              -0.40    24800.00
03948               0.60    24000.00
03949               0.40    24000.00
03950              -0.60    24000.00
03951               0.40    23200.00
03952               0.20    22400.00
03953              -0.80    22400.00
03954               1.00    21600.00
03955               0.20    21600.00
03956              -0.40    20800.00
03957              -0.20    19200.00
03958              -0.40    19200.00
03959               0.20    19200.00
03960               0.20    18400.00
03961              -0.60    17600.00
03962               0.20    17600.00
03963               0.00    17600.00
03964              -0.20    16000.00
03965               0.20    15200.00
03966              -0.40    15200.00
03967              -0.40    14400.00
03968              -0.20    14400.00
03969              -0.40    13600.00
03970              -0.80    12800.00
03971              -0.60    12800.00
03972               1.00    12000.00
03973              -0.60    12000.00
03974              -0.20    11200.00
03975               0.20     9600.00
03976              -0.60     9600.00
03977              -1.00     8800.00
03978               0.00     8800.00
03979               0.40     8000.00
03980              -1.00     8000.00
03981               0.00     6400.00
03982               0.40     5600.00
03983              -0.60     5600.00
03984              -0.40     4800.00
03985              -0.20     4800.00
03986              -0.40     3200.00
03987               0.20     3200.00
03988              -0.60     1600.00
03989              -0.60     1600.00
03990               0.00     1600.00
03991              -0.40      800.00
03992               0.40        0.00
03993               1.00        0.00
03994               2.20    -1600.00
03995               1.60    -1600.00
03996              -1.40    -2400.00
03997               0.40    -2400.00
03998               1.40    -3200.00
03999              -0.20    -3200.00
04000               1.20    -4000.00
04001              11.60    -4800.00
04002              25.00    -6400.00
04003             -23.00    -7200.00
04004             -25.00    -8000.00
04005              19.00    -8000.00
04006              10.60    -8800.00
04007             -25.00    -8800.00
04008              21.20    -9600.00
04009              25.00   -10400.00
04010             -25.00   -10400.00
04011              25.00   -11200.00
04012              25.00   -11200.00
04013             -25.00   -12000.00
04014              25.00   -12800.00
04015              -8.40   -13600.00
04016               0.40   -14400.00
04017              18.00   -14400.00
04018             -25.00   -14400.00
04019              25.00   -16000.00
04020               1.80   -16000.00
04021             -25.00   -16800.00
04022              25.00   -16800.00
04023               6.60   -17600.00
04024             -25.00   -18400.00
04025              16.20   -18400.00
04026              16.60   -19200.00
04027             -25.00   -19200.00
04028              20.60   -20000.00
04029               9.00   -20800.00
04030             -20.20   -20800.00
04031              15.40   -21600.00
04032              -8.20   -22400.00
04033              -6.20   -22400.00
04034               8.20   -23200.00
04035              -6.00   -23200.00
04036              -2.20   -24000.00
04037              11.20   -24000.00
04038             -12.20   -24800.00
04039              -0.40   -25600.00
04040              10.00   -25600.00
04041             -14.60   -26400.00
04042               5.00   -26400.00
04043               5.40   -26400.00
04044              -8.80   -27200.00
04045               2.60   -27200.00
04046               2.20   -27200.00
04047              -5.80   -27200.00
04048               1.80   -28000.00
04049               1.80   -28800.00
04050              -5.20   -28800.00
04051               2.00   -28800.00
04052              -0.60   -29600.00
04053              -4.20   -29600.00
04054               3.00   -29600.00
04055              -0.80   -30400.00
04056              -3.40   -29600.00
04057               2.80   -30400.00
04058              -2.20   -30400.00
04059              -2.20   -31200.00
04060               1.40   -31200.00
04061              -2.20   -30400.00
04062               0.20   -32000.00
04063               0.20   -32000.00
04064              -2.20   -32000.00
04065              -0.40   -32000.00
04066              -1.00   -32000.00
04067              -1.20   -32000.00
04068               0.20   -32000.00
04069              -0.40   -32000.00
04070              -1.80   -32000.00
04071              -0.20   -32000.00
04072              -0.40   -32800.00
04073              -2.60   -32000.00
04074               0.40   -32800.00
04075              -0.60   -32000.00
04076              -1.80   -32800.00
04077               0.20   -32800.00
04078              -1.80   -32800.00
04079              -1.00   -32000.00
04080              -0.40   -32800.00
04081              -1.00   -32800.00
04082              -0.60   -32000.00
04083              -1.20   -32800.00
04084              -1.20   -32000.00
04085              -0.60   -32000.00
04086              -0.60   -32000.00
04087              -1.00   -32000.00
04088              -0.80   -32000.00
04089              -0.60   -30400.00
04090              -1.20   -32000.00
04091              -1.00   -31200.00
04092              -1.00   -30400.00
04093              -1.00   -30400.00
04094              -0.40   -30400.00
04095              -1.00   -30400.00
04096              -1.20   -29600.00
04097              -0.40   -28800.00
04098              -1.20   -29600.00
04099              -0.60   -28800.00
04100              -0.80   -28800.00
04101              -0.80   -28800.00
04102              -1.00   -28000.00
04103              -0.60   -28000.00
04104              -0.80   -28000.00
04105              -1.00   -27200.00
04106              -1.20   -27200.00
04107              -0.60   -26400.00
04108              -1.20   -26400.00
04109              -0.60   -25600.00
04110              -1.20   -25600.00
04111              -1.00   -24800.00
04112              -0.60   -24000.00
04113              -1.00   -24800.00
04114              -0.60   -24000.00
04115              -0.60   -23200.00
04116              -1.20   -23200.00
04117              -0.60   -22400.00
04118              -1.00   -22400.00
04119              -0.80   -22400.00
04120              -0.20   -20800.00
04121              -0.60   -20800.00
04122              -0.60   -20000.00
04123              -0.60   -20000.00
04124              -1.00   -19200.00
04125              -1.00   -18400.00
04126              -0.40   -17600.00
04127              -0.40   -17600.00
04128              -0.60   -17600.00
04129              -0.60   -16800.00
04130              -0.60   -16000.00
04131              -0.60   -16000.00
04132              -0.60   -15200.00
04133              -0.60   -14400.00
04134              -0.60   -13600.00
04135              -0.60   -13600.00
04136              -0.60   -13600.00
04137              -0.60   -13600.00
04138              -0.60   -11200.00
04139              -0.20   -11200.00
04140              -0.40   -10400.00
04141              -0.60   -10400.00
04142              -1.00    -9600.00
04143              -1.00    -9600.00
04144              -0.60    -8000.00
04145              -0.20    -8000.00
04146              -0.40    -7200.00
04147              -0.20    -7200.00
04148              -0.40    -6400.00
04149              -0.60    -4800.00
04150              -0.40    -5600.00
04151              -0.60    -4000.00
04152              -1.00    -3200.00
04153              -0.40    -3200.00
04154              -0.60    -2400.00
04155              -0.80    -1600.00
04156              -0.60     -800.00
04157              -0.60     -800.00
04158              -0.40        0.00
04159              -0.20        0.00
04160               0.20      800.00
04161               2.60     1600.00
04162               0.60     1600.00
04163              -2.20     2400.00
04164               0.60     3200.00
04165               1.00     3200.00
04166              -1.20     4800.00
04167               7.40     4800.00
04168              25.00     6400.00
04169             -12.40     7200.00
04170             -25.00     7200.00
04171              14.80     8000.00
04172              13.60     8800.00
04173             -25.00     8000.00
04174              25.00     9600.00
04175              20.40     9600.00
04176             -25.00    10400.00
04177              25.00    11200.00
04178             -25.00    11200.00
04179             -19.40    12000.00
04180              25.00    12800.00
04181             -25.00    12800.00
04182              25.00    14400.00
04183             -10.80    14400.00
04184             -25.00    15200.00
04185              25.00    16000.00
04186             -25.00    16000.00
04187              -7.00    16800.00
04188              25.00    17600.00
04189             -25.00    18400.00
04190             -19.00    18400.00
04191              25.00    19200.00
04192             -10.20    19200.00
04193             -25.00    20800.00
04194              25.00    20800.00
04195             -22.20    20800.00
04196               2.60    21600.00
04197              15.80    21600.00
04198             -25.00    22400.00
04199              16.20    23200.00
04200               0.40    23200.00
04201             -11.80    24000.00
04202              13.00    24800.00
04203               5.80    24800.00
04204             -19.60    24800.00
04205              17.00    25600.00
04206              -1.00    24800.00
04207             -14.20    25600.00
04208              17.00    27200.00
04209              -6.00    27200.00
04210              -4.40    27200.00
04211               7.60    28000.00
04212              -2.60    27200.00
04213              -3.40    28000.00
04214               5.20    28800.00
04215              -1.20    28800.00
04216              -3.00    28800.00
04217               4.20    28800.00
04218              -2.80    30400.00
04219              -0.60    29600.00
04220               5.20    30400.00
04221              -3.60    30400.00
04222               1.00    31200.00
04223               3.00    31200.00
04224              -4.40    32000.00
04225               2.60    31200.00
04226               0.60    31200.00
04227              -2.80    32000.00
04228               3.20    32800.00
04229               0.00    32000.00
04230              -1.20    32800.00
04231               1.00    32800.00
04232              -0.40    32800.00
04233              -0.20    32800.00
04234               0.80    32800.00
04235               0.40    32800.00
04236              -1.20    32800.00
04237               1.40    32800.00
04238               0.00    33600.00
04239              -1.20    32800.00
04240               1.80    33600.00
04241              -1.20    33600.00
04242               0.60    33600.00
04243               1.80    33600.00
04244              -1.40    33600.00
04245               1.60    33600.00
04246               0.40    32000.00
04247              -0.60    32800.00
04248               1.00    32800.00
04249               0.40    32800.00
04250              -0.80    32800.00
04251              -0.40    32800.00
04252               2.00    32800.00
04253              -0.20    32000.00
04254              -0.60    32800.00
04255               1.20    32000.00
04256               1.20    32000.00
04257              -0.60    32000.00
04258              -0.40    32000.00
04259               1.20    31200.00
04260               0.20    31200.00
04261              -0.60    31200.00
04262               1.20    30400.00
04263               0.40    30400.00
04264              -2.00    30400.00
04265               1.80    30400.00
04266               1.80    30400.00
04267              -2.00    28800.00
04268               0.20    28800.00
04269               2.20    28800.00
04270              -1.00    28000.00
04271              -1.20    28000.00
04272               2.00    28000.00
04273               0.20    27200.00
04274              -0.60    27200.00
04275               1.40    27200.00
04276              -0.20    26400.00
04277              -1.00    25600.00
04278               0.60    25600.00
04279               0.40    24800.00
04280              -0.40    24800.00
04281              -0.20    24800.00
04282               0.60    24000.00
04283              -0.20    24000.00
04284              -0.40    23200.00
04285               0.60    22400.00
04286              -0.20    22400.00
04287              -0.20    22400.00
04288               0.00    21600.00
04289              -0.40    20800.00
04290              -0.20    20800.00
04291              -0.40    19200.00
04292               0.20    18400.00
04293               0.40    19200.00
04294              -0.20    18400.00
04295              -0.40    17600.00
04296              -0.20    16800.00
04297               0.20    16800.00
04298              -0.20    16000.00
04299              -0.20    15200.00
04300              -0.20    15200.00
04301              -0.20    14400.00
04302               0.20    14400.00
04303               0.20    13600.00
04304              -0.80    12800.00
04305               0.40    12000.00
04306               0.20    12000.00
04307              -0.20    11200.00
04308              -0.20    10400.00
04309               0.20    10400.00
04310              -0.60     8800.00
04311              -0.20     8800.00
04312               0.20     8000.00
04313              -0.20     8000.00
04314              -1.00     6400.00
04315               0.20     7200.00
04316              -0.20     5600.00
04317              -0.40     5600.00
04318              -0.60     4800.00
04319               0.40     4800.00
04320               0.00     3200.00
04321              -0.40     3200.00
04322              -0.60     1600.00
04323              -0.20     1600.00
04324              -0.20      800.00
04325               0.00        0.00
04326               0.60     -800.00
04327               1.20     -800.00
04328               3.40    -1600.00
04329              -1.20    -1600.00
04330              -0.40    -1600.00
04331               1.40    -3200.00
04332               0.40    -4000.00
04333              -0.60    -4000.00
04334               5.80    -4800.00
04335              22.00    -4800.00
04336              10.00    -6400.00
04337             -25.00    -7200.00
04338              -7.00    -8000.00
04339              25.00    -8000.00
04340             -25.00    -8800.00
04341             -24.40    -8000.00
04342              25.00    -9600.00
04343             -16.40   -10400.00
04344             -25.00   -10400.00
04345              25.00   -11200.00
04346             -25.00   -11200.00
04347             -15.60   -12800.00
04348              25.00   -12800.00
04349             -25.00   -13600.00
04350              25.00   -14400.00
04351             -25.00   -14400.00
04352              -2.60   -14400.00
04353              25.00   -16000.00
04354             -25.00   -16000.00
04355               3.40   -16800.00
04356              25.00   -17600.00
04357             -25.00   -17600.00
04358             -13.40   -17600.00
04359              25.00   -18400.00
04360             -22.40   -20000.00
04361             -10.00   -20000.00
04362              25.00   -20800.00
04363             -19.60   -20800.00
04364               1.40   -21600.00
04365               8.20   -21600.00
04366             -14.00   -22400.00
04367               6.20   -22400.00
04368               2.00   -23200.00
04369              -8.60   -24000.00
04370               8.80   -24000.00
04371              -0.40   -24800.00
04372             -12.60   -24800.00
04373              13.00   -24800.00
04374              -5.20   -25600.00
04375              -7.60   -25600.00
04376              11.20   -26400.00
04377              -6.00   -26400.00
04378              -3.80   -27200.00
04379               5.20   -27200.00
04380              -3.40   -28000.00
04381              -2.20   -28000.00
04382               4.20   -28000.00
04383              -3.60   -28800.00
04384              -2.20   -28800.00
04385               2.80   -28800.00
04386              -4.20   -29600.00
04387               0.20   -29600.00
04388               2.60   -29600.00
04389              -4.00   -29600.00
04390               1.00   -30400.00
04391               1.00   -30400.00
04392              -3.80   -31200.00
04393               1.00   -31200.00
04394              -0.60   -31200.00
04395              -2.00   -32000.00
04396               1.80   -32000.00
04397              -1.80   -32000.00
04398              -1.40   -32000.00
04399               0.20   -32000.00
04400              -1.20   -32800.00
04401              -1.00   -32000.00
04402               0.40   -32000.00
04403              -1.20   -32800.00
04404              -1.40   -32800.00
04405               0.80   -32000.00
04406              -2.00   -32800.00
04407              -1.20   -32000.00
04408               0.60   -32800.00
04409              -2.60   -32800.00
04410              -0.20   -32800.00
04411              -0.20   -32800.00
04412              -2.20   -32000.00
04413              -0.40   -32000.00
04414              -0.40   -32000.00
04415              -1.20   -32800.00
04416              -1.00   -32800.00
04417              -0.60   -32000.00
04418              -0.80   -32000.00
04419              -1.40   -32000.00
04420              -0.60   -32000.00
04421              -0.60   -32000.00
04422              -1.20   -32000.00
04423              -0.60   -31200.00
04424              -0.80   -30400.00
04425              -1.00   -31200.00
04426              -1.20   -30400.00
04427              -1.20   -30400.00
04428              -0.40   -30400.00
04429              -1.00   -29600.00
04430              -1.40   -29600.00
04431              -0.40   -29600.00
04432              -1.00   -28800.00
04433              -2.00   -28800.00
04434              -0.40   -28800.00
04435               0.20   -28000.00
04436              -2.20   -28000.00
04437              -0.60   -28000.00
04438               0.40   -27200.00
04439              -2.20   -27200.00
04440              -0.40   -27200.00
04441               0.40   -26400.00
04442              -2.00   -25600.00
04443              -1.00   -25600.00
04444              -0.40   -25600.00
04445              -1.20   -24800.00
04446              -0.60   -24000.00
04447              -0.20   -24000.00
04448              -1.20   -24000.00
04449              -0.80   -24000.00
04450              -0.20   -23200.00
04451              -1.20   -22400.00
04452              -0.60   -22400.00
04453              -0.20   -22400.00
04454              -1.00   -20800.00
04455              -0.60   -20800.00
04456              -0.60   -20000.00
04457              -1.00   -20000.00
04458              -0.60   -18400.00
04459              -0.60   -18400.00
04460              -0.20   -17600.00
04461              -0.80   -17600.00
04462              -1.00   -16800.00
04463              -0.40   -16800.00
04464              -0.60   -16000.00
04465              -0.60   -16000.00
04466              -0.60   -15200.00
04467              -0.60   -14400.00
04468              -0.60   -13600.00
04469              -0.60   -13600.00
04470              -0.40   -12800.00
04471              -0.60   -12000.00
04472              -0.60   -11200.00
04473              -0.40   -11200.00
04474              -0.80   -10400.00
04475              -1.00   -10400.00
04476              -0.60    -9600.00
04477              -1.20    -8800.00
04478              -0.40    -8000.00
04479              -0.40    -8000.00
04480              -0.80    -7200.00
04481              -0.60    -6400.00
04482              -0.40    -6400.00
04483              -0.60    -4800.00
04484              -0.40    -4800.00
04485              -0.40    -4000.00
04486              -0.60    -3200.00
04487              -0.60    -2400.00
04488              -0.40    -1600.00
04489              -0.80    -1600.00
04490              -0.60     -800.00
04491              -0.60     -800.00
04492              -0.40      800.00
04493               0.00        0.00
04494               1.00     1600.00
04495               2.80     1600.00
04496              -2.20     2400.00
04497              -0.60     2400.00
04498               1.40     3200.00
04499              -0.40     3200.00
04500               1.20     4800.00
04501              19.80     5600.00
04502              25.00     7200.00
04503             -25.00     8000.00
04504             -16.60     8000.00
04505              25.00     8800.00
04506             -25.00     8800.00
04507              -5.60     8800.00
04508              25.00    10400.00
04509             -25.00     9600.00
04510              25.00    11200.00
04511              25.00    12000.00
04512             -25.00    12000.00
04513              25.00    12800.00
04514             -25.00    12800.00
04515              -5.80    13600.00
04516              25.00    14400.00
04517             -25.00    14400.00
04518              25.00    15200.00
04519              25.00    15200.00
04520             -25.00    16000.00
04521              25.00    16800.00
04522               8.80    17600.00
04523             -25.00    17600.00
04524              15.00    18400.00
04525              24.40    19200.00
04526             -25.00    19200.00
04527              20.40    20800.00
04528              16.20    20800.00
04529             -25.00    21600.00
04530              25.00    21600.00
04531             -18.20    22400.00
04532              -4.40    22400.00
04533              15.40    22400.00
04534             -12.60    24000.00
04535               1.00    24000.00
04536              17.00    24800.00
04537             -14.80    24800.00
04538              -2.80    24800.00
04539              17.40    25600.00
04540             -20.20    25600.00
04541               7.40    26400.00
04542               8.40    27200.00
04543             -11.00    27200.00
04544               5.40    28000.00
04545               2.60    28000.00
04546              -5.60    28000.00
04547               2.20    28800.00
04548               3.80    28800.00
04549              -4.60    28800.00
04550               2.20    29600.00
04551               1.40    29600.00
04552              -4.40    28800.00
04553               4.20    30400.00
04554               0.40    30400.00
04555              -3.60    31200.00
04556               4.60    31200.00
04557              -2.20    31200.00
04558              -2.00    32000.00
04559               3.60    32000.00
04560              -3.00    31200.00
04561               1.00    32800.00
04562               2.60    32000.00
04563              -1.80    32000.00
04564               0.20    32800.00
04565               0.20    32800.00
04566              -0.60    32000.00
04567               0.60    32800.00
04568               1.00    32800.00
04569              -0.60    32800.00
04570               0.20    33600.00
04571               1.40    33600.00
04572              -1.20    32800.00
04573               1.00    33600.00
04574              -0.20    32800.00
04575              -0.60    32800.00
04576               2.60    32800.00
04577              -1.00    33600.00
04578               0.20    32800.00
04579               1.40    32800.00
04580              -0.60    33600.00
04581               0.60    33600.00
04582               0.20    32800.00
04583              -0.20    33600.00
04584               0.40    33600.00
04585               0.20    32000.00
04586               0.20    32800.00
04587              -0.20    32800.00
04588               0.40    32800.00
04589               0.40    31200.00
04590               0.40    32000.00
04591               0.40    32000.00
04592              -0.40    32000.00
04593               1.00    31200.00
04594               0.40    31200.00
04595              -0.40    31200.00
04596               0.60    31200.00
04597              -0.20    30400.00
04598               0.40    30400.00
04599               0.60    30400.00
04600              -0.20    29600.00
04601               0.20    28800.00
04602               0.20    28800.00
04603               0.40    28800.00
04604               0.40    28000.00
04605               0.00    28800.00
04606               0.00    27200.00
04607               0.20    27200.00
04608               0.40    27200.00
04609              -0.20    27200.00
04610              -0.40    25600.00
04611               0.40    25600.00
04612              -0.20    25600.00
04613               0.20    24800.00
04614               0.20    24800.00
04615              -0.60    24000.00
04616               0.20    24000.00
04617               0.20    24000.00
04618               0.20    24000.00
04619               0.20    22400.00
04620              -0.40    22400.00
04621               0.40    21600.00
04622              -0.20    20800.00
04623              -0.20    20800.00
04624              -0.20    19200.00
04625               0.00    20000.00
04626               0.40    19200.00
04627              -0.40    18400.00
04628               0.20    17600.00
04629              -0.20    17600.00
04630              -0.40    16800.00
04631               0.20    16000.00
04632              -0.40    16000.00
04633              -0.40    15200.00
04634              -0.20    14400.00
04635              -0.20    14400.00
04636               0.00    14400.00
04637              -0.40    12800.00
04638              -0.20    12800.00
04639               0.40    12000.00
04640              -0.40    12000.00
04641              -0.40    11200.00
04642               0.20     9600.00
04643               0.00     9600.00
04644              -0.40     9600.00
04645              -0.20     8800.00
04646              -0.20     8000.00
04647              -0.60     7200.00
04648              -0.40     7200.00
04649               0.20     5600.00
04650               0.20     5600.00
04651              -0.60     4800.00
04652              -0.20     4000.00
04653               0.20     3200.00
04654              -0.20     3200.00
04655              -0.40     2400.00
04656               0.00     2400.00
04657              -0.20     1600.00
04658              -0.20      800.00
04659               0.40        0.00
04660               0.40     -800.00
04661               2.60     -800.00
04662               1.00    -1600.00
04663              -1.80    -1600.00
04664               0.80    -2400.00
04665               1.40    -3200.00
04666              -0.60    -3200.00
04667               1.80    -4000.00
04668              12.60    -4800.00
04669              25.00    -6400.00
04670             -25.00    -7200.00
04671             -25.00    -8000.00
04672              21.40    -8000.00
04673               5.80    -8000.00
04674             -25.00    -8800.00
04675              25.00    -9600.00
04676              25.00   -10400.00
04677             -25.00   -10400.00
04678              25.00   -11200.00
04679              25.00   -11200.00
04680             -25.00   -11200.00
04681              25.00   -12800.00
04682             -14.80   -13600.00
04683               6.00   -14400.00
04684              12.20   -14400.00
04685             -25.00   -14400.00
04686              25.00   -16000.00
04687              -6.60   -16000.00
04688             -25.00   -16800.00
04689              25.00   -16800.00
04690               1.00   -17600.00
04691             -25.00   -17600.00
04692              20.60   -19200.00
04693              11.40   -19200.00
04694             -25.00   -18400.00
04695              24.40   -20000.00
04696               3.80   -20800.00
04697             -18.00   -20800.00
04698              16.40   -21600.00
04699              -9.80   -22400.00
04700              -4.20   -22400.00
04701               8.20   -23200.00
04702              -6.80   -24000.00
04703              -0.60   -24000.00
04704              10.60   -24000.00
04705             -13.40   -24800.00
04706               2.20   -25600.00
04707               8.40   -25600.00
04708             -14.80   -25600.00
04709               7.00   -25600.00
04710               3.60   -26400.00
04711              -8.40   -27200.00
04712               3.60   -27200.00
04713               1.40   -27200.00
04714              -5.80   -28800.00
04715               2.60   -28000.00
04716               1.20   -28800.00
04717              -5.20   -28800.00
04718               2.60   -28800.00
04719              -1.20   -29600.00
04720              -3.40   -29600.00
04721               3.00   -29600.00
04722              -1.80   -30400.00
04723              -2.80   -29600.00
04724               2.60   -30400.00
04725              -3.00   -30400.00
04726              -1.80   -31200.00
04727               1.60   -31200.00
04728              -2.60   -32000.00
04729               0.40   -32000.00
04730               0.20   -32000.00
04731              -2.00   -32000.00
04732              -0.40   -32000.00
04733              -0.60   -32000.00
04734              -1.40   -32000.00
04735              -0.20   -32000.00
04736              -0.40   -32000.00
04737              -1.80   -32000.00
04738               0.20   -32000.00
04739              -1.00   -32800.00
04740              -2.20   -32000.00
04741               0.40   -32800.00
04742              -1.20   -32800.00
04743              -1.40   -32800.00
04744               0.40   -32800.00
04745              -2.20   -32800.00
04746              -1.00   -32800.00
04747              -0.20   -32000.00
04748              -1.20   -32000.00
04749              -0.60   -32800.00
04750              -1.00   -32000.00
04751              -1.20   -32000.00
04752              -0.60   -32800.00
04753              -1.00   -32000.00
04754              -1.20   -32000.00
04755              -0.60   -32000.00
04756              -1.00   -30400.00
04757              -1.20   -32000.00
04758              -0.60   -30400.00
04759              -1.20   -31200.00
04760              -1.20   -30400.00
04761               0.20   -30400.00
04762              -1.20   -30400.00
04763              -1.40   -29600.00
04764              -0.20   -29600.00
04765              -1.00   -29600.00
04766              -0.80   -29600.00
04767              -1.00   -28800.00
04768              -1.00   -28800.00
04769              -1.20   -28800.00
04770              -1.00   -28800.00
04771              -0.60   -27200.00
04772              -1.00   -27200.00
04773              -1.00   -26400.00
04774              -0.60   -27200.00
04775              -1.00   -26400.00
04776              -0.40   -26400.00
04777              -1.20   -25600.00
04778              -0.60   -25600.00
04779              -0.40   -24800.00
04780              -1.00   -24000.00
04781              -0.60   -24000.00
04782              -0.60   -24000.00
04783              -1.00   -23200.00
04784              -0.60   -22400.00
04785              -0.60   -22400.00
04786              -0.60   -20800.00
04787              -0.60   -21600.00
04788              -0.60   -20800.00
04789              -0.60   -20000.00
04790              -1.00   -20000.00
04791              -0.60   -19200.00
04792              -1.00   -18400.00
04793              -0.40   -18400.00
04794              -0.60   -17600.00
04795              -0.80   -17600.00
04796              -0.60   -16800.00
04797              -0.60   -16000.00
04798              -0.80   -16000.00
04799              -0.40   -15200.00
04800              -1.00   -14400.00
04801              -0.60   -14400.00
04802              -0.60   -13600.00
04803              -0.80   -12800.00
04804              -0.60   -12800.00
04805              -0.60   -12000.00
04806              -0.40   -11200.00
04807              -0.60   -11200.00
04808              -0.60   -10400.00
04809              -0.60    -9600.00
04810              -1.00    -8800.00
04811              -0.80    -8800.00
04812              -0.40    -8000.00
04813              -0.60    -7200.00
04814              -0.60    -6400.00
04815              -0.60    -6400.00
04816              -0.60    -6400.00
04817              -0.60    -4800.00
04818              -0.60    -4000.00
04819              -0.60    -3200.00
04820              -0.40    -3200.00
04821              -0.60    -2400.00
04822              -0.60    -2400.00
04823              -0.60     -800.00
04824              -0.60     -800.00
04825              -0.20        0.00
04826               0.20      800.00
04827               0.20     1600.00
04828               3.40     1600.00
04829               0.40     2400.00
04830              -2.00     3200.00
04831               1.00     3200.00
04832               1.00     3200.00
04833              -1.40     4800.00
04834               8.60     5600.00
04835              25.00     7200.00
04836             -19.00     8000.00
04837             -25.00     8000.00
04838              19.00     8800.00
04839               8.60     8000.00
04840             -25.00     8800.00
04841              25.00     9600.00
04842               6.60     9600.00
04843             -25.00    11200.00
04844              25.00    11200.00
04845             -25.00    11200.00
04846              -5.00    12800.00
04847              25.00    12800.00
04848             -25.00    13600.00
04849              25.00    13600.00
04850             -25.00    14400.00
04851             -25.00    15200.00
04852              25.00    15200.00
04853             -25.00    16000.00
04854               4.60    16800.00
04855              25.00    17600.00
04856             -25.00    18400.00
04857             -14.80    18400.00
04858              25.00    19200.00
04859             -16.60    19200.00
04860             -20.00    19200.00
04861              25.00    20800.00
04862             -25.00    20800.00
04863               7.60    21600.00
04864              11.00    22400.00
04865             -23.80    22400.00
04866              17.40    23200.00
04867              -2.00    23200.00
04868             -10.80    24000.00
04869              14.20    24800.00
04870               2.60    24800.00
04871             -18.80    25600.00
04872              18.80    25600.00
04873              -4.60    25600.00
04874             -11.80    25600.00
04875              17.00    27200.00
04876              -7.60    27200.00
04877              -3.00    27200.00
04878               7.40    28000.00
04879              -3.00    28000.00
04880              -3.00    28000.00
04881               5.80    28800.00
04882              -2.20    29600.00
04883              -2.20    29600.00
04884               4.20    29600.00
04885              -3.60    30400.00
04886               0.40    30400.00
04887               4.40    30400.00
04888              -4.40    30400.00
04889               2.00    31200.00
04890               2.00    31200.00
04891              -4.40    31200.00
04892               3.00    31200.00
04893               0.20    32000.00
04894              -2.00    31200.00
04895               3.60    32000.00
04896              -0.20    32800.00
04897              -1.20    32800.00
04898               1.20    32800.00
04899              -0.60    32000.00
04900               0.20    32800.00
04901               1.20    32800.00
04902               0.20    32800.00
04903              -0.60    33600.00
04904               1.60    33600.00
04905              -0.40    32800.00
04906              -0.40    32800.00
04907               2.00    33600.00
04908              -1.80    33600.00
04909               1.20    33600.00
04910               1.40    33600.00
04911              -1.80    33600.00
04912               1.40    33600.00
04913               0.20    32800.00
04914               0.00    33600.00
04915               0.60    32000.00
04916              -0.40    33600.00
04917               0.20    32800.00
04918               0.40    32800.00
04919               0.40    32800.00
04920              -0.20    32800.00
04921               0.40    32000.00
04922               0.20    32000.00
04923               0.40    32000.00
04924               1.00    32000.00
04925              -0.40    31200.00
04926               0.20    31200.00
04927               1.20    31200.00
04928              -0.20    30400.00
04929               0.40    31200.00
04930               0.20    30400.00
04931              -0.40    30400.00
04932               0.60    29600.00
04933               0.20    30400.00
04934              -0.20    28800.00
04935               0.40    28800.00
04936               0.20    28800.00
04937               0.20    28800.00
04938              -0.20    28000.00
04939               0.20    28000.00
04940              -0.20    27200.00
04941               0.20    27200.00
04942               0.00    26400.00
04943              -0.40    26400.00
04944               0.20    25600.00
04945               0.00    25600.00
04946               0.20    25600.00
04947               0.40    24800.00
04948              -0.40    24800.00
04949               0.20    24000.00
04950               0.00    24000.00
04951               0.20    23200.00
04952               0.20    23200.00
04953              -0.40    22400.00
04954               0.20    21600.00
04955               0.20    20800.00
04956              -0.40    21600.00
04957               0.20    20800.00
04958              -0.20    19200.00
04959               0.20    19200.00
04960               0.40    18400.00
04961               1.20    18400.00
04962              -2.40    17600.00
04963              -1.40    17600.00
04964               4.60    16800.00
04965              -9.80    16000.00
04966               5.80    15200.00
04967              -2.60    15200.00
04968               5.80    14400.00
04969               1.00    14400.00
04970              -4.40    13600.00
04971               6.80    12800.00
04972              -8.20    12000.00
04973              -0.60    11200.00
04974               0.60    11200.00
04975              -1.00    10400.00
04976               2.80     9600.00
04977              -1.20     9600.00
04978               4.20     8800.00
04979              -2.20     8000.00
04980               2.20     8000.00
04981              -1.60     7200.00
04982              -3.40     6400.00
04983               0.00     5600.00
04984              -2.00     5600.00
04985               1.00     4800.00
04986              -0.60     4000.00
04987               2.60     3200.00
04988               2.40     3200.00
04989              -0.60     1600.00
04990              -0.60     1600.00
04991              -2.60      800.00
04992              -1.00        0.00
04993              -0.40     -800.00
04994               0.20     -800.00
04995               4.60    -1600.00
04996               1.00    -1600.00
04997               0.00    -2400.00
04998               2.00    -3200.00
04999               0.60    -3200.00
05000              -2.40    -4000.00
