Unit:(mV)
                     CH1         CH2
Frequency              ? 299.973 kHz
00001              22.80    -6400.00
00002              11.00    -7200.00
00003             -25.00    -7200.00
00004              -5.40    -8000.00
00005              25.00    -8000.00
00006             -24.40    -8800.00
00007             -25.00    -8800.00
00008              25.00    -9600.00
00009               1.00   -10400.00
00010             -25.00   -10400.00
00011              25.00   -11200.00
00012             -21.40   -12000.00
00013             -25.00   -12800.00
00014              25.00   -13600.00
00015             -25.00   -13600.00
00016              24.40   -14400.00
00017             -14.60   -14400.00
00018              -9.40   -15200.00
00019              25.00   -16000.00
00020             -25.00   -16800.00
00021              -3.40   -16800.00
00022              25.00   -16800.00
00023             -14.20   -17600.00
00024             -16.80   -18400.00
00025              25.00   -19200.00
00026             -10.80   -20000.00
00027             -13.80   -20000.00
00028              25.00   -20800.00
00029             -14.40   -20800.00
00030              -1.20   -22400.00
00031              13.80   -22400.00
00032             -12.20   -23200.00
00033               2.20   -23200.00
00034              10.80   -24000.00
00035              -6.20   -24000.00
00036               3.40   -24000.00
00037              10.20   -25600.00
00038             -10.80   -25600.00
00039               7.40   -25600.00
00040               3.80   -25600.00
00041              -6.20   -26400.00
00042               7.80   -26400.00
00043               1.80   -27200.00
00044              -2.00   -27200.00
00045               4.20   -28000.00
00046               2.60   -28000.00
00047              -1.40   -28800.00
00048               4.80   -28800.00
00049               1.60   -29600.00
00050              -2.00   -29600.00
00051               5.20   -29600.00
00052               1.00   -29600.00
00053              -0.20   -30400.00
00054               5.80   -30400.00
00055               0.20   -31200.00
00056               0.40   -30400.00
00057               4.20   -31200.00
00058               0.20   -32000.00
00059               1.80   -32000.00
00060               3.00   -32000.00
00061               1.60   -32000.00
00062               2.60   -32000.00
00063               2.00   -32000.00
00064               1.40   -32000.00
00065               1.20   -32800.00
00066               2.20   -32000.00
00067               1.80   -32800.00
00068               1.40   -32800.00
00069               2.80   -32800.00
00070               1.40   -33600.00
00071               2.60   -32800.00
00072               1.60   -32800.00
00073               1.20   -32800.00
00074               3.40   -32800.00
00075               1.00   -32800.00
00076               2.20   -32800.00
00077               2.80   -32800.00
00078               0.60   -32800.00
00079               2.40   -32800.00
00080               2.20   -32800.00
00081               1.80   -32000.00
00082               1.80   -32800.00
00083               2.00   -32800.00
00084               2.20   -32800.00
00085               1.80   -32800.00
00086               2.20   -32800.00
00087               2.00   -32000.00
00088               2.20   -32000.00
00089               1.80   -32000.00
00090               1.80   -32000.00
00091               2.00   -31200.00
00092               1.40   -30400.00
00093               1.80   -30400.00
00094               2.20   -31200.00
00095               1.20   -30400.00
00096               1.80   -30400.00
00097               2.00   -30400.00
00098               1.20   -29600.00
00099               1.80   -28800.00
00100               1.40   -29600.00
00101               1.20   -28800.00
00102               1.80   -28800.00
00103               1.80   -28000.00
00104               1.40   -28800.00
00105               1.00   -27200.00
00106               1.20   -27200.00
00107               1.40   -27200.00
00108               1.00   -26400.00
00109               1.20   -26400.00
00110               1.20   -25600.00
00111               1.20   -25600.00
00112               1.20   -25600.00
00113               1.40   -24800.00
00114               1.20   -24000.00
00115               1.00   -24000.00
00116               1.20   -24000.00
00117               1.00   -23200.00
00118               0.40   -22400.00
00119               0.80   -22400.00
00120               0.60   -22400.00
00121               1.00   -20800.00
00122               1.00   -20800.00
00123               0.40   -19200.00
00124               0.40   -20000.00
00125               1.00   -18400.00
00126               0.60   -18400.00
00127               0.40   -17600.00
00128               0.60   -16800.00
00129               1.00   -16800.00
00130               0.40   -16000.00
00131               0.60   -16000.00
00132               0.40   -15200.00
00133               0.60   -14400.00
00134               0.40   -14400.00
00135               0.40   -13600.00
00136               1.00   -12800.00
00137               0.20   -12000.00
00138               0.20   -11200.00
00139               1.00   -11200.00
00140               0.40   -11200.00
00141               0.20    -9600.00
00142               0.40    -9600.00
00143               0.40    -9600.00
00144               0.20    -8000.00
00145              -0.20    -8000.00
00146               0.00    -7200.00
00147               0.40    -6400.00
00148              -0.20    -5600.00
00149              -0.20    -5600.00
00150               0.20    -4000.00
00151              -0.60    -4000.00
00152              -0.40    -3200.00
00153               0.20    -2400.00
00154               0.00    -1600.00
00155              -0.40    -1600.00
00156              -0.20     -800.00
00157              -0.40        0.00
00158              -0.20        0.00
00159               0.20        0.00
00160               1.00     1600.00
00161               3.00     1600.00
00162              -2.20     2400.00
00163              -1.00     3200.00
00164               1.40     3200.00
00165              -0.60     4000.00
00166               1.20     4800.00
00167              20.40     5600.00
00168              23.40     7200.00
00169             -25.00     7200.00
00170             -15.00     8000.00
00171              25.00     8000.00
00172             -25.00     8800.00
00173             -17.00     8800.00
00174              25.00    10400.00
00175             -25.00     9600.00
00176               3.60    12000.00
00177              25.00    12000.00
00178             -25.00    12000.00
00179              25.00    12800.00
00180             -13.00    12800.00
00181             -19.80    13600.00
00182              25.00    14400.00
00183             -25.00    15200.00
00184              25.00    16000.00
00185              25.00    16000.00
00186             -25.00    16800.00
00187              25.00    17600.00
00188              13.80    18400.00
00189             -25.00    18400.00
00190               1.00    19200.00
00191              25.00    19200.00
00192             -25.00    20000.00
00193              10.60    20800.00
00194              20.60    21600.00
00195             -25.00    21600.00
00196              21.20    22400.00
00197             -10.20    22400.00
00198             -13.00    23200.00
00199               9.20    24000.00
00200              -2.40    24000.00
00201              -9.20    24000.00
00202              12.20    24800.00
00203              -6.20    24800.00
00204             -11.80    25600.00
00205              11.00    25600.00
00206             -12.40    25600.00
00207              -0.20    27200.00
00208               5.20    28000.00
00209              -6.80    27200.00
00210              -1.60    28000.00
00211               0.20    28000.00
00212              -5.00    28800.00
00213              -2.80    28800.00
00214               2.00    28800.00
00215              -5.00    29600.00
00216              -3.00    30400.00
00217               0.40    30400.00
00218              -5.40    31200.00
00219              -1.20    30400.00
00220               1.00    30400.00
00221              -5.40    32000.00
00222               0.20    31200.00
00223              -2.20    32000.00
00224              -4.40    32800.00
00225              -0.40    32000.00
00226              -3.00    32800.00
00227              -2.00    32800.00
00228              -1.40    32000.00
00229              -3.40    32000.00
00230              -3.60    32800.00
00231              -2.40    32800.00
00232              -2.20    33600.00
00233              -3.20    33600.00
00234              -1.40    33600.00
00235              -2.20    33600.00
00236              -4.20    33600.00
00237              -0.80    33600.00
00238              -3.60    33600.00
00239              -2.80    33600.00
00240              -1.20    33600.00
00241              -3.60    33600.00
00242              -1.20    34400.00
00243              -3.00    33600.00
00244              -3.60    33600.00
00245              -1.60    33600.00
00246              -2.80    33600.00
00247              -2.20    33600.00
00248              -2.60    33600.00
00249              -2.80    32800.00
00250              -2.60    32800.00
00251              -2.20    33600.00
00252              -2.20    32800.00
00253              -3.40    32800.00
00254              -1.80    32000.00
00255              -2.80    32800.00
00256              -2.60    32800.00
00257              -2.00    32000.00
00258              -3.40    32000.00
00259              -2.00    31200.00
00260              -1.40    31200.00
00261              -3.00    31200.00
00262              -2.20    30400.00
00263              -2.20    31200.00
00264              -2.60    31200.00
00265              -2.00    30400.00
00266              -2.20    30400.00
00267              -2.20    30400.00
00268              -2.60    28800.00
00269              -1.40    28800.00
00270              -2.20    28800.00
00271              -2.40    28000.00
00272              -2.00    28000.00
00273              -2.00    28000.00
00274              -1.80    27200.00
00275              -2.00    27200.00
00276              -2.20    27200.00
00277              -1.80    25600.00
00278              -2.00    25600.00
00279              -1.80    24800.00
00280              -2.20    24800.00
00281              -2.20    24800.00
00282              -1.80    24000.00
00283              -2.00    23200.00
00284              -1.20    23200.00
00285              -1.80    22400.00
00286              -2.00    22400.00
00287              -1.20    21600.00
00288              -2.00    21600.00
00289              -1.80    20800.00
00290              -1.20    20800.00
00291              -2.00    19200.00
00292              -1.40    19200.00
00293              -1.60    19200.00
00294              -2.00    17600.00
00295              -2.00    17600.00
00296              -1.20    17600.00
00297              -1.20    16000.00
00298              -2.00    16000.00
00299              -1.20    15200.00
00300              -1.40    14400.00
00301              -1.20    14400.00
00302              -1.00    13600.00
00303              -1.40    12800.00
00304              -1.60    12800.00
00305              -1.00    12800.00
00306              -1.20    11200.00
00307              -1.40    10400.00
00308              -1.60    10400.00
00309              -1.00     9600.00
00310              -1.00     9600.00
00311              -1.20     8000.00
00312              -0.60     8000.00
00313              -1.00     6400.00
00314              -1.00     7200.00
00315              -0.40     5600.00
00316              -1.00     5600.00
00317              -0.40     4800.00
00318              -0.40     4000.00
00319              -0.80     3200.00
00320              -0.40     3200.00
00321              -0.60     1600.00
00322              -1.00     1600.00
00323               0.20     1600.00
00324               0.00      800.00
00325               0.00        0.00
00326               0.60     -800.00
00327               3.60    -1600.00
00328               0.20    -1600.00
00329              -1.20    -2400.00
00330               1.80    -2400.00
00331               1.40    -3200.00
00332              -0.40    -3200.00
00333               3.00    -4800.00
00334              15.20    -4800.00
00335              25.00    -6400.00
00336             -25.00    -7200.00
00337             -25.00    -8000.00
00338              25.00    -8000.00
00339               0.40    -8800.00
00340             -25.00    -8000.00
00341              25.00    -9600.00
00342              25.00   -10400.00
00343             -25.00    -9600.00
00344              25.00   -11200.00
00345              25.00   -12000.00
00346             -25.00   -12800.00
00347              25.00   -13600.00
00348             -12.40   -13600.00
00349               3.00   -14400.00
00350              13.80   -14400.00
00351             -25.00   -15200.00
00352              25.00   -16000.00
00353              -4.80   -16000.00
00354             -23.00   -16800.00
00355              25.00   -17600.00
00356               3.60   -17600.00
00357             -25.00   -18400.00
00358              16.80   -19200.00
00359              12.60   -19200.00
00360             -25.00   -20000.00
00361              25.00   -20800.00
00362               4.20   -20800.00
00363             -14.80   -20800.00
00364              17.00   -22400.00
00365              -6.20   -22400.00
00366              -6.00   -23200.00
00367              11.60   -23200.00
00368               0.40   -24000.00
00369              -5.20   -24000.00
00370              13.20   -24800.00
00371              -6.00   -25600.00
00372              -1.20   -25600.00
00373              10.00   -25600.00
00374              -7.60   -26400.00
00375               3.40   -26400.00
00376               5.80   -27200.00
00377              -1.80   -27200.00
00378               1.40   -28000.00
00379               5.40   -28000.00
00380              -1.00   -28800.00
00381               1.40   -28800.00
00382               4.20   -28800.00
00383              -1.40   -28800.00
00384               2.60   -29600.00
00385               3.40   -29600.00
00386              -1.20   -30400.00
00387               3.80   -30400.00
00388               2.80   -30400.00
00389              -1.20   -31200.00
00390               3.80   -31200.00
00391               2.00   -32000.00
00392               0.20   -31200.00
00393               3.40   -32000.00
00394               2.60   -32000.00
00395               1.80   -32800.00
00396               1.80   -32800.00
00397               2.20   -32000.00
00398               1.00   -32800.00
00399               2.00   -32800.00
00400               3.40   -32800.00
00401               0.60   -32800.00
00402               2.00   -32800.00
00403               2.80   -33600.00
00404               1.00   -32800.00
00405               2.00   -32800.00
00406               2.00   -32800.00
00407               2.20   -32800.00
00408               1.80   -32800.00
00409               2.60   -32800.00
00410               3.00   -32800.00
00411               1.20   -32800.00
00412               2.20   -32800.00
00413               1.80   -32800.00
00414               1.20   -32800.00
00415               2.00   -32800.00
00416               1.40   -32800.00
00417               2.60   -32800.00
00418               2.20   -32800.00
00419               1.80   -32800.00
00420               2.00   -32000.00
00421               1.80   -32000.00
00422               1.80   -32000.00
00423               2.00   -32000.00
00424               1.40   -32000.00
00425               1.80   -31200.00
00426               2.00   -30400.00
00427               1.80   -30400.00
00428               1.20   -30400.00
00429               2.00   -30400.00
00430               1.80   -29600.00
00431               0.60   -29600.00
00432               1.80   -29600.00
00433               2.00   -28800.00
00434               0.40   -28800.00
00435               1.80   -28800.00
00436               1.80   -28800.00
00437               1.40   -28000.00
00438               1.00   -27200.00
00439               1.80   -27200.00
00440               2.00   -27200.00
00441               0.40   -26400.00
00442               0.60   -26400.00
00443               2.20   -25600.00
00444               1.00   -25600.00
00445               1.00   -25600.00
00446               2.20   -24800.00
00447               1.00   -24800.00
00448               0.00   -24000.00
00449               1.80   -23200.00
00450               1.20   -23200.00
00451               0.40   -22400.00
00452               2.00   -21600.00
00453               1.20   -22400.00
00454               0.40   -20800.00
00455               1.00   -20800.00
00456               0.40   -20000.00
00457               0.40   -19200.00
00458               1.00   -18400.00
00459               1.00   -18400.00
00460               1.20   -17600.00
00461               0.40   -17600.00
00462               1.00   -16800.00
00463               1.00   -16000.00
00464               0.20   -16000.00
00465               0.20   -15200.00
00466               0.60   -14400.00
00467               0.40   -14400.00
00468               0.60   -14400.00
00469               1.00   -12800.00
00470              -0.20   -12800.00
00471               0.20   -12000.00
00472               0.80   -11200.00
00473               0.20   -11200.00
00474               0.00    -9600.00
00475               0.40    -9600.00
00476              -0.20    -9600.00
00477               0.20    -8000.00
00478              -0.20    -8000.00
00479               0.40    -7200.00
00480               0.40    -6400.00
00481              -0.60    -6400.00
00482               0.00    -5600.00
00483              -0.20    -4800.00
00484              -1.00    -4800.00
00485              -0.20    -4000.00
00486               0.60    -3200.00
00487              -0.20    -2400.00
00488               0.20    -1600.00
00489               0.00     -800.00
00490              -0.60     -800.00
00491              -1.20        0.00
00492              -0.60      800.00
00493               0.20     1600.00
00494               3.00     1600.00
00495              -1.20     2400.00
00496              -1.20     3200.00
00497               1.20     4000.00
00498              -0.20     3200.00
00499              -1.20     4800.00
00500              11.40     5600.00
00501              25.00     7200.00
00502             -25.00     8000.00
00503             -25.00     8000.00
00504              25.00     8000.00
00505               0.40     8000.00
00506             -25.00     8800.00
00507              25.00     9600.00
00508               4.60     9600.00
00509             -25.00    11200.00
00510              25.00    11200.00
00511             -25.00    12000.00
00512              -7.20    12800.00
00513              25.00    13600.00
00514             -25.00    12800.00
00515              25.00    14400.00
00516             -25.00    15200.00
00517             -25.00    15200.00
00518              25.00    16000.00
00519             -25.00    16000.00
00520               6.00    17600.00
00521              25.00    17600.00
00522             -23.60    18400.00
00523             -18.80    19200.00
00524              25.00    19200.00
00525             -16.20    20000.00
00526             -19.40    20800.00
00527              25.00    20800.00
00528             -25.00    21600.00
00529               5.20    22400.00
00530               8.60    22400.00
00531             -21.00    23200.00
00532               7.40    24000.00
00533               3.60    24000.00
00534             -11.00    24000.00
00535               4.20    24800.00
00536               5.80    24800.00
00537             -18.20    25600.00
00538               9.00    25600.00
00539              -3.00    25600.00
00540              -9.20    27200.00
00541               7.60    27200.00
00542              -4.60    27200.00
00543              -4.00    28000.00
00544               0.60    28000.00
00545              -2.40    28800.00
00546              -5.20    28800.00
00547               1.80    28800.00
00548              -2.80    30400.00
00549              -5.00    29600.00
00550               1.00    30400.00
00551              -3.60    30400.00
00552              -4.20    30400.00
00553               2.40    31200.00
00554              -5.00    31200.00
00555              -2.80    31200.00
00556              -0.20    32000.00
00557              -5.40    31200.00
00558              -1.20    32800.00
00559              -2.20    32000.00
00560              -3.00    32800.00
00561              -0.60    32800.00
00562              -2.60    32800.00
00563              -3.00    33600.00
00564              -3.00    33600.00
00565              -2.80    33600.00
00566              -2.60    33600.00
00567              -2.60    33600.00
00568              -1.80    33600.00
00569              -3.60    33600.00
00570              -1.40    34400.00
00571              -2.40    33600.00
00572              -3.80    33600.00
00573              -1.20    33600.00
00574              -4.00    33600.00
00575              -2.00    33600.00
00576              -1.80    33600.00
00577              -4.20    33600.00
00578              -1.40    33600.00
00579              -2.20    33600.00
00580              -2.60    33600.00
00581              -2.20    33600.00
00582              -2.80    33600.00
00583              -2.20    33600.00
00584              -2.60    33600.00
00585              -2.00    33600.00
00586              -3.00    32800.00
00587              -2.40    32800.00
00588              -2.20    32800.00
00589              -3.00    32000.00
00590              -1.80    32000.00
00591              -2.80    32800.00
00592              -2.60    32000.00
00593              -1.20    32000.00
00594              -2.80    31200.00
00595              -2.60    31200.00
00596              -2.00    30400.00
00597              -2.20    30400.00
00598              -2.00    30400.00
00599              -2.20    30400.00
00600              -2.20    29600.00
00601              -2.20    29600.00
00602              -2.20    28800.00
00603              -2.20    28800.00
00604              -2.20    28000.00
00605              -2.00    28000.00
00606              -2.20    28000.00
00607              -1.80    28000.00
00608              -1.40    27200.00
00609              -2.60    27200.00
00610              -1.80    26400.00
00611              -1.80    25600.00
00612              -2.20    25600.00
00613              -1.80    24800.00
00614              -2.60    24800.00
00615              -1.80    24000.00
00616              -1.80    24000.00
00617              -2.00    24000.00
00618              -1.60    22400.00
00619              -2.20    22400.00
00620              -1.40    21600.00
00621              -1.60    21600.00
00622              -2.20    21600.00
00623              -1.40    20800.00
00624              -1.80    20000.00
00625              -1.80    19200.00
00626              -1.40    18400.00
00627              -1.60    18400.00
00628              -2.00    17600.00
00629              -1.40    16800.00
00630              -1.40    16800.00
00631              -1.60    16000.00
00632              -1.60    15200.00
00633              -1.20    15200.00
00634              -1.80    14400.00
00635              -1.00    14400.00
00636              -1.40    13600.00
00637              -1.20    12800.00
00638              -1.00    12800.00
00639              -0.60    12000.00
00640              -1.20    11200.00
00641              -1.40    11200.00
00642              -1.20     9600.00
00643              -0.60     9600.00
00644              -1.40     8800.00
00645              -0.60     8000.00
00646              -1.00     8000.00
00647              -1.00     6400.00
00648              -0.60     6400.00
00649              -0.60     5600.00
00650              -0.80     4800.00
00651              -0.20     4800.00
00652              -1.00     4000.00
00653              -0.20     3200.00
00654              -0.60     2400.00
00655              -1.00     1600.00
00656              -0.20     1600.00
00657               0.00      800.00
00658              -0.20        0.00
00659               0.20     -800.00
00660               2.60     -800.00
00661               2.60    -1600.00
00662              -1.80    -1600.00
00663               1.20    -2400.00
00664               1.80    -3200.00
00665               0.20    -3200.00
00666               1.00    -4000.00
00667               9.20    -4800.00
00668              25.00    -6400.00
00669             -10.20    -7200.00
00670             -25.00    -8000.00
00671              13.00    -8000.00
00672              19.80    -8800.00
00673             -25.00    -8000.00
00674              -3.80    -8800.00
00675              25.00   -10400.00
00676             -25.00    -9600.00
00677             -15.40   -11200.00
00678              25.00   -12800.00
00679             -25.00   -12000.00
00680              10.20   -12800.00
00681              21.20   -13600.00
00682             -21.00   -13600.00
00683              25.00   -14400.00
00684             -25.00   -14400.00
00685              15.40   -16000.00
00686              22.80   -16000.00
00687             -25.00   -16000.00
00688              15.00   -16800.00
00689              21.20   -17600.00
00690             -23.80   -18400.00
00691              -2.20   -18400.00
00692              25.00   -19200.00
00693             -25.00   -20000.00
00694               6.00   -20800.00
00695              22.60   -20800.00
00696             -20.60   -21600.00
00697              10.60   -22400.00
00698               5.40   -22400.00
00699             -11.80   -23200.00
00700               7.40   -23200.00
00701               7.40   -24000.00
00702              -8.40   -24000.00
00703               9.80   -24800.00
00704               3.40   -25600.00
00705              -9.20   -25600.00
00706              10.60   -25600.00
00707              -2.00   -26400.00
00708              -1.80   -26400.00
00709               7.80   -26400.00
00710              -0.60   -27200.00
00711              -0.60   -27200.00
00712               5.00   -28000.00
00713               1.00   -28000.00
00714               0.20   -28800.00
00715               5.40   -28800.00
00716              -0.20   -29600.00
00717               0.20   -29600.00
00718               5.20   -29600.00
00719              -0.80   -30400.00
00720               1.60   -30400.00
00721               5.40   -30400.00
00722              -1.00   -30400.00
00723               2.20   -30400.00
00724               3.00   -31200.00
00725               0.00   -32000.00
00726               2.20   -32000.00
00727               2.20   -32000.00
00728               2.20   -32000.00
00729               2.60   -32000.00
00730               1.40   -32000.00
00731               1.80   -32800.00
00732               1.80   -32800.00
00733               2.00   -32800.00
00734               2.00   -32800.00
00735               2.00   -32800.00
00736               2.60   -32800.00
00737               1.40   -32800.00
00738               2.60   -32800.00
00739               1.20   -32800.00
00740               2.00   -32800.00
00741               2.60   -32800.00
00742               1.40   -32800.00
00743               3.00   -32800.00
00744               1.80   -32800.00
00745               2.00   -32800.00
00746               3.00   -32800.00
00747               1.20   -32800.00
00748               2.00   -32800.00
00749               2.00   -32800.00
00750               1.20   -32800.00
00751               2.00   -32000.00
00752               2.20   -32000.00
00753               1.80   -32000.00
00754               1.40   -32000.00
00755               2.60   -32000.00
00756               1.80   -32000.00
00757               1.20   -32000.00
00758               2.20   -32000.00
00759               2.00   -31200.00
00760               1.40   -30400.00
00761               1.00   -30400.00
00762               1.40   -30400.00
00763               2.00   -30400.00
00764               1.40   -29600.00
00765               2.00   -29600.00
00766               2.60   -29600.00
00767               0.40   -28800.00
00768               2.00   -28800.00
00769               2.00   -28800.00
00770               0.40   -28000.00
00771               1.80   -28000.00
00772               1.80   -27200.00
00773               0.40   -26400.00
00774               1.80   -27200.00
00775               1.20   -26400.00
00776               1.00   -26400.00
00777               1.60   -25600.00
00778               1.80   -25600.00
00779               1.40   -24800.00
00780               1.40   -24000.00
00781               1.00   -24000.00
00782               0.60   -23200.00
00783               1.00   -24000.00
00784               0.80   -22400.00
00785               1.80   -22400.00
00786               1.80   -22400.00
00787               1.00   -20800.00
00788               1.00   -20800.00
00789               0.00   -20000.00
00790               0.20   -20000.00
00791               1.80   -18400.00
00792               1.60   -18400.00
00793               0.40   -18400.00
00794               0.60   -17600.00
00795               1.40   -17600.00
00796               0.20   -16800.00
00797              -0.20   -16000.00
00798               2.20   -16000.00
00799               1.80   -15200.00
00800              -1.60   -14400.00
00801               0.60   -13600.00
00802               1.00   -13600.00
00803              -2.00   -12000.00
00804               1.00   -12800.00
00805               2.00   -11200.00
00806              -0.20   -11200.00
00807               1.40   -10400.00
00808               0.60    -9600.00
00809              -2.20    -9600.00
00810              -0.60    -8800.00
00811               1.00    -8000.00
00812               0.00    -7200.00
00813               0.60    -7200.00
00814               0.40    -6400.00
00815              -0.60    -5600.00
00816               0.20    -4800.00
00817              -1.00    -4800.00
00818              -0.60    -4000.00
00819               0.60    -3200.00
00820              -1.00    -3200.00
00821              -0.80    -1600.00
00822              -0.40    -1600.00
00823              -1.00     -800.00
00824               0.60     -800.00
00825               1.00        0.00
00826              -0.60      800.00
00827               2.00     1600.00
00828               0.20     2400.00
00829              -3.80     2400.00
00830               1.00     3200.00
00831               1.60     4000.00
00832              -2.00     4800.00
00833               6.20     4800.00
00834              25.00     6400.00
00835              -2.20     7200.00
00836             -25.00     8000.00
00837               7.80     8000.00
00838              22.60     8800.00
00839             -25.00     8800.00
00840              21.80     9600.00
00841              25.00     9600.00
00842             -25.00    11200.00
00843              25.00    11200.00
00844              21.20    11200.00
00845             -25.00    12000.00
00846              25.00    12800.00
00847             -25.00    12800.00
00848              25.00    14400.00
00849              25.00    14400.00
00850             -25.00    15200.00
00851              25.00    16000.00
00852             -17.20    16000.00
00853             -25.00    16800.00
00854              25.00    17600.00
00855              -7.40    18400.00
00856             -25.00    18400.00
00857              18.80    19200.00
00858              12.40    19200.00
00859             -25.00    20800.00
00860              25.00    20800.00
00861              -4.60    20800.00
00862             -16.40    21600.00
00863              20.60    22400.00
00864             -19.40    22400.00
00865              -2.20    23200.00
00866               7.00    24000.00
00867              -6.40    24000.00
00868              -5.00    24800.00
00869              13.00    24800.00
00870             -13.40    25600.00
00871              -2.20    25600.00
00872               6.40    25600.00
00873             -13.80    27200.00
00874               4.20    27200.00
00875               0.40    27200.00
00876              -5.20    28000.00
00877              -0.40    28000.00
00878              -0.20    28800.00
00879              -5.60    28800.00
00880              -0.80    28800.00
00881              -0.20    29600.00
00882              -6.00    30400.00
00883              -1.20    30400.00
00884              -1.20    30400.00
00885              -5.40    31200.00
00886               1.40    31200.00
00887              -2.20    31200.00
00888              -4.20    32000.00
00889               0.80    31200.00
00890              -4.40    32800.00
00891              -2.80    32000.00
00892              -1.80    32800.00
00893              -3.80    32800.00
00894              -1.20    32000.00
00895              -2.20    32800.00
00896              -2.80    32000.00
00897              -3.00    32800.00
00898              -2.80    33600.00
00899              -2.60    32800.00
00900              -2.80    33600.00
00901              -1.20    33600.00
00902              -3.20    33600.00
00903              -2.40    33600.00
00904              -1.20    33600.00
00905              -4.40    33600.00
00906              -1.80    33600.00
00907              -2.80    33600.00
00908              -3.00    33600.00
00909              -1.00    33600.00
00910              -3.80    33600.00
00911              -2.60    33600.00
00912              -1.80    33600.00
00913              -2.80    33600.00
00914              -2.20    33600.00
00915              -2.80    33600.00
00916              -2.20    32800.00
00917              -2.60    32800.00
00918              -1.80    32800.00
00919              -2.40    32800.00
00920              -3.00    32000.00
00921              -1.40    32800.00
00922              -2.80    32800.00
00923              -2.20    32800.00
00924              -2.20    32000.00
00925              -3.00    32000.00
00926              -1.80    31200.00
00927              -2.00    31200.00
00928              -2.80    31200.00
00929              -2.00    31200.00
00930              -2.20    30400.00
00931              -2.20    30400.00
00932              -1.80    30400.00
00933              -2.60    30400.00
00934              -2.60    28800.00
00935              -2.20    28800.00
00936              -2.00    28800.00
00937              -2.20    28800.00
00938              -2.00    28000.00
00939              -2.20    28000.00
00940              -2.20    27200.00
00941              -1.40    27200.00
00942              -2.60    27200.00
00943              -2.40    25600.00
00944              -1.40    25600.00
00945              -2.20    25600.00
00946              -2.00    25600.00
00947              -2.00    24800.00
00948              -2.20    24000.00
00949              -1.80    24000.00
00950              -2.00    24000.00
00951              -2.00    23200.00
00952              -2.20    22400.00
00953              -1.80    21600.00
00954              -1.80    21600.00
00955              -2.20    20800.00
00956              -2.00    20800.00
00957              -2.00    20000.00
00958              -1.40    19200.00
00959              -1.40    19200.00
00960              -2.00    18400.00
00961              -1.80    18400.00
00962              -1.80    17600.00
00963              -1.80    16800.00
00964              -1.00    16000.00
00965              -1.80    16000.00
00966              -1.20    15200.00
00967              -1.40    15200.00
00968              -1.20    14400.00
00969              -1.20    13600.00
00970              -1.20    12800.00
00971              -1.40    12800.00
00972              -0.60    12000.00
00973              -1.20    12000.00
00974              -1.20    11200.00
00975              -1.20    11200.00
00976              -0.20     9600.00
00977              -1.40     8800.00
00978              -1.20     8000.00
00979              -0.60     8000.00
00980              -1.40     7200.00
00981              -0.40     6400.00
00982              -0.20     6400.00
00983              -1.20     5600.00
00984              -0.20     4800.00
00985              -0.40     3200.00
00986              -0.20     3200.00
00987              -0.40     2400.00
00988              -1.20     2400.00
00989              -0.60     1600.00
00990               0.20      800.00
00991              -0.40        0.00
00992               0.20        0.00
00993               2.00     -800.00
00994               3.60    -1600.00
00995              -1.40    -2400.00
00996               0.80    -2400.00
00997               1.40    -3200.00
00998               0.40    -3200.00
00999               0.40    -4000.00
01000               5.00    -4000.00
01001              21.40    -5600.00
01002              15.00    -7200.00
01003             -25.00    -8000.00
01004              -9.60    -8000.00
01005              25.00    -8800.00
01006             -20.40    -9600.00
01007             -25.00    -9600.00
01008              25.00   -10400.00
01009              11.60   -10400.00
01010             -25.00   -11200.00
01011              25.00   -11200.00
01012             -11.40   -11200.00
01013             -25.00   -12800.00
01014              25.00   -13600.00
01015             -25.00   -13600.00
01016              21.40   -14400.00
01017             -10.20   -14400.00
01018             -14.00   -16000.00
01019              25.00   -16000.00
01020             -25.00   -16000.00
01021              -7.20   -17600.00
01022              25.00   -17600.00
01023             -10.80   -18400.00
01024             -19.40   -19200.00
01025              25.00   -18400.00
01026              -6.80   -19200.00
01027             -17.40   -20000.00
01028              25.00   -20800.00
01029             -11.20   -20800.00
01030              -4.00   -21600.00
01031              14.80   -22400.00
01032             -11.00   -22400.00
01033               0.20   -23200.00
01034              10.80   -23200.00
01035              -5.00   -24000.00
01036               1.40   -24000.00
01037              11.40   -24800.00
01038             -10.00   -25600.00
01039               5.60   -25600.00
01040               5.20   -25600.00
01041              -6.00   -26400.00
01042               6.80   -27200.00
01043               2.60   -27200.00
01044              -1.40   -27200.00
01045               3.00   -28000.00
01046               3.20   -28800.00
01047              -1.00   -28800.00
01048               3.80   -28800.00
01049               2.60   -29600.00
01050              -1.40   -29600.00
01051               4.40   -30400.00
01052               1.80   -29600.00
01053              -0.40   -30400.00
01054               5.20   -30400.00
01055               1.00   -30400.00
01056               1.00   -30400.00
01057               4.20   -30400.00
01058              -0.20   -31200.00
01059               2.00   -32000.00
01060               2.80   -32000.00
01061               1.00   -32000.00
01062               3.00   -32000.00
01063               2.40   -32000.00
01064               1.20   -32000.00
01065               2.00   -32800.00
01066               2.60   -32800.00
01067               1.40   -32800.00
01068               1.20   -32800.00
01069               3.40   -33600.00
01070               1.60   -32800.00
01071               2.00   -32800.00
01072               2.60   -33600.00
01073               1.80   -33600.00
01074               2.20   -32800.00
01075               1.20   -32800.00
01076               2.80   -33600.00
01077               2.00   -32800.00
01078               1.00   -33600.00
01079               2.80   -32800.00
01080               1.40   -32800.00
01081               1.80   -32800.00
01082               2.60   -32800.00
01083               1.20   -32000.00
01084               1.80   -32800.00
01085               1.40   -32800.00
01086               1.40   -32000.00
01087               1.80   -32000.00
01088               2.20   -32000.00
01089               2.00   -32000.00
01090               2.00   -32000.00
01091               2.00   -32000.00
01092               1.20   -30400.00
01093               1.40   -31200.00
01094               2.00   -30400.00
01095               1.20   -30400.00
01096               2.00   -30400.00
01097               1.60   -29600.00
01098               1.20   -29600.00
01099               1.80   -29600.00
01100               1.60   -28800.00
01101               1.80   -28800.00
01102               2.20   -28800.00
01103               1.40   -28000.00
01104               1.40   -28000.00
01105               1.00   -27200.00
01106               1.20   -27200.00
01107               1.40   -27200.00
01108               1.80   -26400.00
01109               1.20   -26400.00
01110               1.00   -25600.00
01111               1.80   -25600.00
01112               1.00   -25600.00
01113               1.00   -24000.00
01114               1.80   -24000.00
01115               1.20   -24000.00
01116               1.00   -23200.00
01117               1.40   -23200.00
01118               1.20   -22400.00
01119               1.00   -22400.00
01120               1.00   -21600.00
01121               0.80   -20800.00
01122               1.20   -20000.00
01123               1.20   -20000.00
01124               0.40   -19200.00
01125               0.60   -18400.00
01126               1.00   -18400.00
01127               0.40   -17600.00
01128               0.60   -17600.00
01129               1.20   -16800.00
01130               0.40   -16000.00
01131               0.40   -16000.00
01132               1.00   -15200.00
01133               0.40   -14400.00
01134               0.40   -13600.00
01135               0.60   -13600.00
01136               0.40   -12800.00
01137               0.20   -12800.00
01138               0.20   -11200.00
01139               0.60   -11200.00
01140               0.60   -10400.00
01141               0.20   -10400.00
01142               0.00    -9600.00
01143               0.40    -9600.00
01144              -0.20    -8000.00
01145              -0.40    -7200.00
01146              -0.20    -7200.00
01147               0.20    -6400.00
01148               0.20    -6400.00
01149              -0.20    -4800.00
01150              -0.40    -4000.00
01151              -0.20    -4000.00
01152              -0.60    -3200.00
01153              -0.40    -2400.00
01154               0.00    -1600.00
01155              -0.80    -1600.00
01156              -0.60     -800.00
01157               0.20     -800.00
01158              -0.60        0.00
01159              -0.20      800.00
01160               1.40     1600.00
01161               2.80     1600.00
01162              -2.80     2400.00
01163              -1.00     2400.00
01164               1.20     3200.00
01165              -0.80     4000.00
01166               0.60     4800.00
01167              18.60     5600.00
01168              25.00     7200.00
01169             -25.00     8000.00
01170             -19.00     8000.00
01171              25.00     8800.00
01172             -23.00     8800.00
01173             -23.00     8800.00
01174              25.00    10400.00
01175             -25.00     9600.00
01176              -7.60    12000.00
01177              25.00    11200.00
01178             -25.00    12000.00
01179              25.00    13600.00
01180              -3.00    12800.00
01181             -25.00    14400.00
01182              25.00    14400.00
01183             -25.00    15200.00
01184              25.00    15200.00
01185              25.00    16000.00
01186             -25.00    16800.00
01187              25.00    17600.00
01188              16.60    18400.00
01189             -25.00    18400.00
01190              -2.80    19200.00
01191              25.00    19200.00
01192             -25.00    20800.00
01193               6.40    20800.00
01194              24.20    20800.00
01195             -25.00    21600.00
01196              20.40    22400.00
01197              -7.60    22400.00
01198             -15.00    23200.00
01199              10.00    24000.00
01200              -1.80    24000.00
01201             -10.00    24800.00
01202              11.40    25600.00
01203              -4.20    24800.00
01204             -13.80    25600.00
01205              11.60    26400.00
01206             -11.40    26400.00
01207              -2.00    27200.00
01208               5.00    27200.00
01209              -6.80    27200.00
01210              -1.80    28000.00
01211               0.40    28000.00
01212              -4.60    28800.00
01213              -3.40    28800.00
01214               2.00    28800.00
01215              -4.60    30400.00
01216              -3.80    30400.00
01217               0.40    30400.00
01218              -5.20    30400.00
01219              -2.00    31200.00
01220               1.00    31200.00
01221              -5.80    31200.00
01222              -0.60    31200.00
01223              -2.20    31200.00
01224              -4.40    32000.00
01225              -1.00    32000.00
01226              -3.80    32000.00
01227              -1.80    32800.00
01228              -1.20    32800.00
01229              -3.00    32800.00
01230              -2.60    32800.00
01231              -3.00    32800.00
01232              -2.20    33600.00
01233              -2.80    33600.00
01234              -2.20    32800.00
01235              -2.00    33600.00
01236              -3.40    33600.00
01237              -1.00    33600.00
01238              -3.60    33600.00
01239              -2.60    33600.00
01240              -1.60    33600.00
01241              -3.80    33600.00
01242              -0.60    33600.00
01243              -2.80    33600.00
01244              -3.80    33600.00
01245              -1.00    33600.00
01246              -3.00    33600.00
01247              -3.60    33600.00
01248              -1.60    33600.00
01249              -1.00    33600.00
01250              -3.00    33600.00
01251              -2.80    33600.00
01252              -1.20    32800.00
01253              -4.20    32800.00
01254              -2.00    32800.00
01255              -0.60    32800.00
01256              -3.60    32000.00
01257              -2.20    32800.00
01258              -2.00    32000.00
01259              -2.80    32000.00
01260              -1.80    31200.00
01261              -2.20    31200.00
01262              -2.80    31200.00
01263              -1.40    31200.00
01264              -1.00    30400.00
01265              -3.40    30400.00
01266              -3.00    30400.00
01267              -1.80    29600.00
01268              -2.60    28800.00
01269              -1.80    28800.00
01270              -1.20    28800.00
01271              -3.00    28800.00
01272              -2.60    28000.00
01273              -1.40    27200.00
01274              -2.00    27200.00
01275              -2.20    27200.00
01276              -2.00    27200.00
01277              -1.80    26400.00
01278              -2.40    25600.00
01279              -2.00    24800.00
01280              -2.00    24800.00
01281              -2.20    24000.00
01282              -1.80    24800.00
01283              -2.00    24000.00
01284              -2.00    23200.00
01285              -2.00    22400.00
01286              -2.00    22400.00
01287              -1.20    21600.00
01288              -1.80    21600.00
01289              -1.80    20800.00
01290              -1.40    19200.00
01291              -2.00    19200.00
01292              -1.80    19200.00
01293              -1.40    18400.00
01294              -1.80    18400.00
01295              -2.00    17600.00
01296              -1.20    17600.00
01297              -1.40    16000.00
01298              -2.00    16000.00
01299              -1.20    15200.00
01300              -1.40    15200.00
01301              -1.40    14400.00
01302              -1.00    14400.00
01303              -1.40    12800.00
01304              -1.40    12800.00
01305              -0.80    12000.00
01306              -0.60    11200.00
01307              -1.40    11200.00
01308              -1.80    11200.00
01309              -0.60     9600.00
01310              -1.00     8800.00
01311              -1.20     8000.00
01312              -0.40     8800.00
01313              -1.20     7200.00
01314              -0.80     6400.00
01315              -0.20     6400.00
01316              -0.60     5600.00
01317              -0.40     4800.00
01318              -0.20     4000.00
01319              -0.60     3200.00
01320              -0.20     2400.00
01321              -0.80     2400.00
01322              -0.60     1600.00
01323               0.20     1600.00
01324              -0.20        0.00
01325              -0.20        0.00
01326               1.00     -800.00
01327               3.40     -800.00
01328               0.60    -1600.00
01329              -1.20    -1600.00
01330               1.80    -3200.00
01331               1.60    -3200.00
01332              -0.40    -4000.00
01333               3.40    -4000.00
01334              13.80    -5600.00
01335              25.00    -6400.00
01336             -25.00    -8000.00
01337             -25.00    -8000.00
01338              25.00    -8000.00
01339               4.40    -8800.00
01340             -25.00    -8800.00
01341              25.00    -9600.00
01342              25.00   -10400.00
01343             -25.00   -10400.00
01344              25.00   -11200.00
01345              25.00   -11200.00
01346             -25.00   -12800.00
01347              25.00   -12800.00
01348              -7.40   -13600.00
01349              -1.20   -14400.00
01350              17.20   -14400.00
01351             -25.00   -14400.00
01352              25.00   -16000.00
01353              -1.00   -16800.00
01354             -25.00   -16800.00
01355              25.00   -17600.00
01356               6.20   -17600.00
01357             -25.00   -18400.00
01358              13.80   -18400.00
01359              16.40   -20000.00
01360             -25.00   -20000.00
01361              22.80   -20800.00
01362               7.00   -21600.00
01363             -16.60   -21600.00
01364              17.00   -22400.00
01365              -3.80   -22400.00
01366              -7.60   -23200.00
01367              11.40   -24000.00
01368               1.00   -23200.00
01369              -6.00   -24000.00
01370              14.20   -24000.00
01371              -4.60   -24800.00
01372              -3.40   -25600.00
01373              11.00   -25600.00
01374              -6.60   -26400.00
01375               2.60   -26400.00
01376               6.20   -27200.00
01377              -1.60   -27200.00
01378               1.00   -27200.00
01379               5.00   -28800.00
01380              -1.20   -28800.00
01381               2.20   -28800.00
01382               4.60   -28800.00
01383              -1.80   -28800.00
01384               3.00   -29600.00
01385               3.60   -29600.00
01386              -1.20   -29600.00
01387               3.60   -30400.00
01388               3.60   -31200.00
01389              -1.20   -30400.00
01390               4.20   -31200.00
01391               2.00   -31200.00
01392              -0.20   -32000.00
01393               3.40   -32000.00
01394               2.00   -32000.00
01395               2.60   -32800.00
01396               2.60   -32800.00
01397               1.80   -32800.00
01398               1.40   -32800.00
01399               1.80   -32000.00
01400               2.00   -32000.00
01401               1.40   -32800.00
01402               2.00   -32800.00
01403               1.40   -32800.00
01404               2.00   -32800.00
01405               2.20   -32800.00
01406               0.60   -32800.00
01407               2.60   -33600.00
01408               2.20   -32800.00
01409               1.20   -32800.00
01410               2.80   -32800.00
01411               1.00   -32800.00
01412               1.80   -32800.00
01413               2.20   -32800.00
01414               1.80   -32800.00
01415               1.80   -32800.00
01416               1.80   -32800.00
01417               2.00   -32800.00
01418               1.40   -32000.00
01419               2.00   -32000.00
01420               2.00   -32000.00
01421               1.80   -32800.00
01422               2.00   -32000.00
01423               1.40   -32000.00
01424               1.80   -32000.00
01425               1.80   -32000.00
01426               1.40   -31200.00
01427               2.20   -30400.00
01428               1.40   -30400.00
01429               1.40   -30400.00
01430               1.40   -29600.00
01431               1.40   -29600.00
01432               1.40   -29600.00
01433               2.00   -28800.00
01434               1.40   -28800.00
01435               1.40   -28800.00
01436               1.00   -28800.00
01437               2.00   -28000.00
01438               1.20   -27200.00
01439               1.80   -27200.00
01440               2.00   -27200.00
01441               1.60   -26400.00
01442               1.20   -26400.00
01443               1.40   -25600.00
01444               1.40   -25600.00
01445               1.60   -25600.00
01446               1.20   -24800.00
01447               1.40   -24800.00
01448               1.20   -24000.00
01449               1.00   -24000.00
01450               1.00   -23200.00
01451               1.40   -22400.00
01452               1.20   -22400.00
01453               1.00   -22400.00
01454               1.20   -20800.00
01455               1.20   -20000.00
01456               0.40   -20800.00
01457               0.60   -20000.00
01458               1.00   -18400.00
01459               1.20   -18400.00
01460               0.80   -17600.00
01461               0.60   -17600.00
01462               1.00   -17600.00
01463               0.40   -16800.00
01464               0.20   -16000.00
01465               1.00   -15200.00
01466               0.20   -15200.00
01467               0.60   -14400.00
01468               0.40   -14400.00
01469               0.20   -12800.00
01470               0.40   -12800.00
01471              -0.20   -12000.00
01472               0.40   -11200.00
01473               0.40   -10400.00
01474              -0.20   -11200.00
01475               0.20    -9600.00
01476               0.20    -9600.00
01477              -0.20    -8000.00
01478              -0.20    -8000.00
01479              -0.40    -7200.00
01480              -0.40    -6400.00
01481              -0.20    -6400.00
01482              -0.40    -5600.00
01483              -0.40    -4800.00
01484              -0.40    -4000.00
01485              -0.40    -3200.00
01486              -0.20    -3200.00
01487              -0.40    -2400.00
01488              -0.40    -1600.00
01489              -0.60    -1600.00
01490              -0.60     -800.00
01491               0.20        0.00
01492               0.00      800.00
01493               0.20     1600.00
01494               3.40     1600.00
01495              -0.80     2400.00
01496              -2.20     2400.00
01497               1.20     3200.00
01498               0.20     3200.00
01499              -2.00     4800.00
01500              10.00     5600.00
01501              25.00     7200.00
01502             -25.00     7200.00
01503             -25.00     8000.00
01504              23.80     8000.00
01505               5.00     8800.00
01506             -25.00     8800.00
01507              25.00    10400.00
01508              15.40     9600.00
01509             -25.00    11200.00
01510              25.00    12000.00
01511             -25.00    12000.00
01512             -17.80    12800.00
01513              25.00    13600.00
01514             -25.00    13600.00
01515              25.00    14400.00
01516             -25.00    14400.00
01517             -25.00    15200.00
01518              25.00    16000.00
01519             -25.00    16000.00
01520              -0.40    17600.00
01521              25.00    17600.00
01522             -21.80    18400.00
01523             -21.40    19200.00
01524              25.00    19200.00
01525             -11.40    20000.00
01526             -24.20    20800.00
01527              25.00    20800.00
01528             -25.00    21600.00
01529               1.80    21600.00
01530              11.60    22400.00
01531             -22.00    22400.00
01532               5.80    24000.00
01533               4.00    24000.00
01534             -10.80    24000.00
01535               2.60    24800.00
01536               7.60    24800.00
01537             -18.20    25600.00
01538               7.80    25600.00
01539              -2.00    25600.00
01540             -10.80    27200.00
01541               6.80    27200.00
01542              -4.60    27200.00
01543              -4.20    28000.00
01544               0.40    28000.00
01545              -2.20    28800.00
01546              -5.40    28800.00
01547               1.20    28800.00
01548              -2.20    28800.00
01549              -5.40    30400.00
01550               0.40    30400.00
01551              -2.80    30400.00
01552              -5.00    30400.00
01553               2.20    31200.00
01554              -4.40    31200.00
01555              -3.40    31200.00
01556               0.40    31200.00
01557              -5.40    32000.00
01558              -1.40    32800.00
01559              -2.20    32000.00
01560              -3.60    32800.00
01561              -1.00    32000.00
01562              -2.20    32800.00
01563              -3.00    32800.00
01564              -2.80    32800.00
01565              -2.60    33600.00
01566              -2.40    33600.00
01567              -2.40    33600.00
01568              -1.40    33600.00
01569              -3.60    33600.00
01570              -1.40    33600.00
01571              -2.20    33600.00
01572              -3.80    33600.00
01573              -1.20    34400.00
01574              -3.80    33600.00
01575              -2.00    33600.00
01576              -1.20    33600.00
01577              -3.80    33600.00
01578              -1.40    33600.00
01579              -2.20    33600.00
01580              -2.40    33600.00
01581              -2.40    33600.00
01582              -2.80    32800.00
01583              -2.20    33600.00
01584              -2.40    33600.00
01585              -1.80    32800.00
01586              -2.80    32800.00
01587              -2.20    32000.00
01588              -2.00    32000.00
01589              -2.80    32800.00
01590              -2.00    32000.00
01591              -2.80    32000.00
01592              -2.80    32000.00
01593              -1.40    31200.00
01594              -2.60    31200.00
01595              -2.60    31200.00
01596              -2.00    30400.00
01597              -2.20    30400.00
01598              -2.00    30400.00
01599              -2.60    29600.00
01600              -2.60    29600.00
01601              -2.60    28800.00
01602              -2.60    28800.00
01603              -2.00    28800.00
01604              -2.20    28000.00
01605              -2.20    28000.00
01606              -2.00    28000.00
01607              -2.20    27200.00
01608              -2.00    27200.00
01609              -2.60    26400.00
01610              -2.00    26400.00
01611              -2.00    25600.00
01612              -2.20    25600.00
01613              -2.00    25600.00
01614              -2.20    24000.00
01615              -2.00    24000.00
01616              -2.20    24000.00
01617              -1.80    23200.00
01618              -2.00    22400.00
01619              -2.20    22400.00
01620              -1.20    21600.00
01621              -2.00    22400.00
01622              -1.80    20800.00
01623              -1.40    20800.00
01624              -2.00    20000.00
01625              -1.00    19200.00
01626              -1.20    18400.00
01627              -1.80    18400.00
01628              -1.60    17600.00
01629              -1.80    17600.00
01630              -1.20    16800.00
01631              -1.20    16000.00
01632              -1.80    15200.00
01633              -1.20    15200.00
01634              -1.40    14400.00
01635              -1.20    14400.00
01636              -1.20    13600.00
01637              -1.20    12800.00
01638              -0.60    12000.00
01639              -1.00    12000.00
01640              -1.20    11200.00
01641              -1.00     9600.00
01642              -1.20    10400.00
01643              -0.20     9600.00
01644              -1.20     8800.00
01645              -1.00     8800.00
01646              -0.60     8000.00
01647              -0.60     7200.00
01648              -0.60     6400.00
01649              -0.60     5600.00
01650              -0.40     4800.00
01651              -0.40     4800.00
01652              -1.00     4000.00
01653              -0.20     3200.00
01654              -0.40     3200.00
01655              -1.00     2400.00
01656              -0.40     1600.00
01657               0.20      800.00
01658              -0.20        0.00
01659               0.20     -800.00
01660               2.40     -800.00
01661               3.00    -1600.00
01662              -2.00    -1600.00
01663               0.80    -1600.00
01664               1.80    -3200.00
01665               0.20    -3200.00
01666               0.60    -4000.00
01667               8.60    -4800.00
01668              25.00    -6400.00
01669              -6.00    -8000.00
01670             -25.00    -8000.00
01671               9.20    -8000.00
01672              21.80    -8000.00
01673             -25.00    -8800.00
01674              -9.40    -9600.00
01675              25.00   -10400.00
01676             -25.00   -10400.00
01677             -25.00   -11200.00
01678              25.00   -12000.00
01679             -25.00   -12000.00
01680               2.60   -13600.00
01681              25.00   -12800.00
01682             -24.00   -13600.00
01683              25.00   -14400.00
01684             -25.00   -14400.00
01685              10.40   -16000.00
01686              25.00   -16000.00
01687             -25.00   -16800.00
01688              11.40   -17600.00
01689              23.60   -17600.00
01690             -22.20   -18400.00
01691              -6.00   -19200.00
01692              25.00   -19200.00
01693             -24.40   -19200.00
01694               2.00   -20000.00
01695              25.00   -20800.00
01696             -20.20   -21600.00
01697               8.40   -22400.00
01698               7.20   -22400.00
01699             -12.40   -22400.00
01700               6.80   -23200.00
01701               8.20   -24000.00
01702              -8.00   -24000.00
01703               9.20   -24000.00
01704               4.60   -24800.00
01705             -10.00   -25600.00
01706              10.80   -26400.00
01707              -1.00   -25600.00
01708              -2.80   -26400.00
01709               8.40   -26400.00
01710              -0.40   -27200.00
01711              -1.20   -27200.00
01712               5.00   -28800.00
01713               1.00   -28000.00
01714               0.20   -28800.00
01715               5.40   -29600.00
01716               0.20   -28800.00
01717               0.00   -29600.00
01718               5.00   -29600.00
01719              -0.20   -30400.00
01720               1.40   -30400.00
01721               5.20   -30400.00
01722              -0.40   -30400.00
01723               2.00   -31200.00
01724               3.20   -31200.00
01725              -0.40   -32000.00
01726               2.00   -32000.00
01727               2.00   -32000.00
01728               2.00   -32000.00
01729               3.40   -32000.00
01730               2.40   -32800.00
01731              -3.00   -32000.00
01732               7.00   -32800.00
01733              -0.60   -32800.00
01734              -3.80   -32800.00
01735               9.20   -33600.00
01736              -0.40   -32800.00
01737               7.40   -32800.00
01738              -2.60   -32800.00
01739               3.00   -33600.00
01740               3.80   -32800.00
01741              -4.00   -33600.00
01742               1.80   -33600.00
01743               3.00   -33600.00
01744               2.80   -32800.00
01745               1.80   -32000.00
01746               3.40   -32800.00
01747               2.20   -32800.00
01748               0.60   -32800.00
01749               5.40   -32800.00
01750              -1.40   -32000.00
01751              -1.20   -32800.00
01752               3.40   -32000.00
01753               2.00   -32800.00
01754              -1.20   -32800.00
01755               4.40   -32000.00
01756               5.20   -32000.00
01757               1.00   -32000.00
01758               2.20   -32000.00
01759              -0.20   -31200.00
01760               0.40   -30400.00
01761               2.80   -31200.00
01762              -1.40   -30400.00
01763               1.60   -30400.00
01764               5.00   -30400.00
01765               1.80   -29600.00
01766               2.00   -29600.00
01767               2.00   -28800.00
01768               1.20   -28800.00
01769               1.00   -28800.00
01770               1.20   -28800.00
01771               0.40   -28000.00
01772               2.20   -27200.00
01773               1.80   -27200.00
01774               2.00   -27200.00
01775               2.60   -26400.00
01776               1.20   -26400.00
01777               1.00   -25600.00
01778               2.00   -25600.00
01779               0.40   -24800.00
01780               0.40   -24000.00
01781               1.80   -24000.00
01782               1.20   -24000.00
01783               1.80   -23200.00
01784               2.00   -22400.00
01785               1.00   -22400.00
01786               1.00   -22400.00
01787               0.80   -20800.00
01788               0.20   -20800.00
01789               1.00   -20000.00
01790               1.40   -20000.00
01791               0.60   -19200.00
01792               0.60   -18400.00
01793               1.00   -18400.00
01794               0.40   -17600.00
01795               1.20   -17600.00
01796               1.20   -16800.00
01797               0.20   -16000.00
01798               1.00   -16000.00
01799               0.40   -14400.00
01800              -0.20   -14400.00
01801               0.40   -13600.00
01802               0.20   -13600.00
01803               0.20   -13600.00
01804               1.00   -12000.00
01805               0.20   -12000.00
01806              -0.40   -11200.00
01807               1.00   -10400.00
01808               0.20   -10400.00
01809              -1.20    -9600.00
01810               0.20    -8800.00
01811               1.00    -8000.00
01812              -0.40    -8000.00
01813               0.20    -6400.00
01814               0.80    -6400.00
01815               0.20    -5600.00
01816              -0.40    -6400.00
01817              -1.00    -4000.00
01818              -1.40    -4000.00
01819              -0.60    -3200.00
01820               0.60    -3200.00
01821               0.40    -1600.00
01822              -0.60    -1600.00
01823              -0.40     -800.00
01824              -0.20     -800.00
01825              -1.00      800.00
01826              -0.20      800.00
01827               2.80     1600.00
01828               2.00     1600.00
01829              -2.80     3200.00
01830              -0.80     3200.00
01831               0.20     4000.00
01832              -1.20     4800.00
01833               5.80     4800.00
01834              25.00     7200.00
01835               4.40     7200.00
01836             -25.00     8000.00
01837               3.00     8000.00
01838              23.60     8800.00
01839             -25.00     8800.00
01840              14.60     9600.00
01841              25.00    10400.00
01842             -25.00    11200.00
01843              25.00    12000.00
01844              25.00    11200.00
01845             -25.00    12800.00
01846              25.00    12800.00
01847             -25.00    12800.00
01848              20.00    14400.00
01849              25.00    14400.00
01850             -25.00    15200.00
01851              25.00    16000.00
01852              -7.00    16000.00
01853             -25.00    16000.00
01854              25.00    17600.00
01855              -2.00    17600.00
01856             -25.00    18400.00
01857              15.00    19200.00
01858              17.00    19200.00
01859             -25.00    20800.00
01860              25.00    21600.00
01861               1.80    21600.00
01862             -21.40    21600.00
01863              23.20    22400.00
01864             -18.80    22400.00
01865              -5.80    23200.00
01866               8.60    24000.00
01867              -7.40    24000.00
01868              -5.80    24000.00
01869              14.00    24800.00
01870             -13.20    24800.00
01871              -3.60    25600.00
01872               7.60    26400.00
01873             -14.80    26400.00
01874               3.60    27200.00
01875               0.20    28000.00
01876              -5.80    27200.00
01877              -0.60    28000.00
01878              -0.60    28800.00
01879              -4.80    28800.00
01880              -1.20    28800.00
01881               0.20    29600.00
01882              -5.80    29600.00
01883              -1.80    30400.00
01884              -1.00    30400.00
01885              -5.60    30400.00
01886               0.60    31200.00
01887              -1.40    31200.00
01888              -4.80    31200.00
01889               1.20    32000.00
01890              -3.80    32800.00
01891              -3.00    32000.00
01892              -1.40    32800.00
01893              -3.80    32800.00
01894              -1.40    32800.00
01895              -1.80    32800.00
01896              -2.80    33600.00
01897              -3.00    32800.00
01898              -2.20    33600.00
01899              -2.20    33600.00
01900              -3.00    33600.00
01901              -1.20    33600.00
01902              -3.40    33600.00
01903              -2.20    33600.00
01904              -1.00    33600.00
01905              -4.20    33600.00
01906              -1.40    33600.00
01907              -2.20    33600.00
01908              -3.00    33600.00
01909              -0.60    33600.00
01910              -3.80    33600.00
01911              -2.80    33600.00
01912              -1.40    33600.00
01913              -3.00    33600.00
01914              -2.00    33600.00
01915              -2.80    33600.00
01916              -2.20    33600.00
01917              -2.40    33600.00
01918              -2.00    32800.00
01919              -2.60    32800.00
01920              -2.60    32800.00
01921              -1.80    32800.00
01922              -2.80    32800.00
01923              -2.00    32000.00
01924              -2.20    32800.00
01925              -3.40    32000.00
01926              -1.80    31200.00
01927              -2.20    31200.00
01928              -3.00    31200.00
01929              -2.00    31200.00
01930              -2.40    30400.00
01931              -2.20    30400.00
01932              -2.00    30400.00
01933              -2.60    30400.00
01934              -2.40    28800.00
01935              -2.20    28800.00
01936              -2.00    28800.00
01937              -2.40    28800.00
01938              -2.20    28000.00
01939              -2.20    28000.00
01940              -2.20    28000.00
01941              -1.40    27200.00
01942              -2.60    26400.00
01943              -2.20    26400.00
01944              -1.40    25600.00
01945              -2.20    25600.00
01946              -2.00    25600.00
01947              -2.00    24800.00
01948              -2.20    24800.00
01949              -2.00    24000.00
01950              -2.20    24000.00
01951              -2.00    23200.00
01952              -1.80    23200.00
01953              -2.00    21600.00
01954              -1.20    21600.00
01955              -1.60    21600.00
01956              -2.20    20000.00
01957              -1.40    20800.00
01958              -1.40    19200.00
01959              -1.40    19200.00
01960              -1.60    18400.00
01961              -1.20    17600.00
01962              -1.80    17600.00
01963              -1.00    16800.00
01964              -0.80    16000.00
01965              -1.40    16000.00
01966              -1.00    15200.00
01967              -1.40    15200.00
01968              -1.20    14400.00
01969              -0.80    13600.00
01970              -1.80    12800.00
01971              -1.00    12800.00
01972              -0.60    11200.00
01973              -1.20    11200.00
01974              -1.00    11200.00
01975              -1.20    10400.00
01976              -0.60     9600.00
01977              -1.00     8800.00
01978              -1.20     8800.00
01979              -0.40     8000.00
01980              -1.00     7200.00
01981              -0.40     7200.00
01982              -0.40     5600.00
01983              -1.00     5600.00
01984              -0.40     4800.00
01985              -0.80     4000.00
01986              -0.60     3200.00
01987              -0.40     3200.00
01988              -1.00     2400.00
01989              -1.00     1600.00
01990               0.20      800.00
01991              -0.20        0.00
01992              -0.20        0.00
01993               1.00     -800.00
01994               3.80    -1600.00
01995              -1.20    -1600.00
01996              -0.40    -1600.00
01997               1.80    -3200.00
01998               0.60    -3200.00
01999              -0.60    -4000.00
02000               5.20    -4000.00
02001              20.20    -5600.00
02002              17.00    -6400.00
02003             -25.00    -8000.00
02004             -14.00    -8000.00
02005              25.00    -8800.00
02006             -16.20    -8000.00
02007             -25.00    -9600.00
02008              25.00    -9600.00
02009              21.80   -10400.00
02010             -25.00   -10400.00
02011              25.00   -12000.00
02012              -0.80   -11200.00
02013             -25.00   -12800.00
02014              25.00   -13600.00
02015             -25.00   -13600.00
02016              18.20   -14400.00
02017              -4.60   -14400.00
02018             -18.20   -15200.00
02019              25.00   -16000.00
02020             -21.40   -16000.00
02021             -10.60   -16800.00
02022              25.00   -16800.00
02023              -8.20   -18400.00
02024             -21.00   -18400.00
02025              25.00   -19200.00
02026              -2.20   -20000.00
02027             -20.60   -20000.00
02028              25.00   -20000.00
02029              -8.40   -20800.00
02030              -6.20   -21600.00
02031              15.80   -22400.00
02032             -10.80   -22400.00
02033              -0.40   -23200.00
02034              11.40   -24000.00
02035              -4.40   -24000.00
02036               0.80   -24000.00
02037              12.20   -24800.00
02038             -10.00   -24800.00
02039               5.00   -25600.00
02040               6.60   -25600.00
02041              -7.00   -27200.00
02042               7.20   -27200.00
02043               3.00   -27200.00
02044              -2.00   -27200.00
02045               3.40   -28000.00
02046               3.40   -28000.00
02047              -1.40   -28800.00
02048               4.20   -29600.00
02049               2.60   -29600.00
02050              -1.80   -29600.00
02051               4.20   -28800.00
02052               1.20   -29600.00
02053              -0.20   -30400.00
02054               4.60   -30400.00
02055               0.60   -30400.00
02056               0.60   -30400.00
02057               4.40   -31200.00
02058              -0.60   -32000.00
02059               1.80   -32000.00
02060               2.80   -32000.00
02061               0.60   -32000.00
02062               2.80   -32800.00
02063               2.00   -32800.00
02064               1.20   -32000.00
02065               2.00   -32800.00
02066               2.00   -32800.00
02067               1.80   -32800.00
02068               1.60   -32800.00
02069               2.60   -32800.00
02070               1.20   -32800.00
02071               2.60   -33600.00
02072               1.80   -32800.00
02073               1.00   -32800.00
02074               3.40   -33600.00
02075               1.00   -32800.00
02076               1.80   -33600.00
02077               2.60   -32800.00
02078               0.60   -32800.00
02079               2.00   -32800.00
02080               2.00   -32800.00
02081               2.00   -32800.00
02082               2.20   -32800.00
02083               1.00   -32000.00
02084               2.20   -32800.00
02085               1.60   -32800.00
02086               1.20   -32800.00
02087               2.40   -32800.00
02088               2.00   -32000.00
02089               1.80   -32000.00
02090               2.80   -32000.00
02091               2.20   -32000.00
02092               1.00   -30400.00
02093               1.40   -31200.00
02094               2.60   -30400.00
02095               0.80   -30400.00
02096               1.40   -29600.00
02097               3.00   -29600.00
02098               1.60   -30400.00
02099               1.40   -29600.00
02100               1.80   -29600.00
02101               1.40   -28800.00
02102               1.40   -28800.00
02103               1.20   -28800.00
02104               2.60   -28000.00
02105               1.00   -27200.00
02106               1.60   -27200.00
02107               2.60   -27200.00
02108               0.80   -26400.00
02109               0.60   -25600.00
02110               2.20   -25600.00
02111               1.00   -24800.00
02112               1.00   -25600.00
02113               1.80   -24000.00
02114               1.40   -24000.00
02115               1.00   -24000.00
02116               1.60   -24000.00
02117               1.40   -23200.00
02118               1.00   -22400.00
02119               1.00   -22400.00
02120               1.20   -21600.00
02121               1.00   -20800.00
02122               0.60   -20000.00
02123               0.60   -20000.00
02124               1.80   -19200.00
02125               0.40   -18400.00
02126               0.40   -18400.00
02127               1.20   -17600.00
02128               0.20   -17600.00
02129               0.40   -16800.00
02130               1.40   -16000.00
02131               0.40   -16000.00
02132               0.40   -15200.00
02133               0.60   -15200.00
02134               0.40   -14400.00
02135               0.40   -13600.00
02136               0.60   -12800.00
02137               0.20   -12800.00
02138               0.20   -12000.00
02139               0.40   -11200.00
02140               0.00   -10400.00
02141              -0.20    -9600.00
02142               0.40    -9600.00
02143               0.20    -9600.00
02144               0.20    -8800.00
02145               0.20    -7200.00
02146              -0.60    -7200.00
02147               0.20    -6400.00
02148               0.60    -6400.00
02149              -0.20    -6400.00
02150              -0.40    -4800.00
02151               0.00    -3200.00
02152              -0.80    -3200.00
02153              -0.20    -2400.00
02154               0.40    -2400.00
02155              -0.60    -1600.00
02156              -0.40     -800.00
02157               0.20        0.00
02158              -0.60        0.00
02159              -0.40      800.00
02160               1.20     1600.00
02161               3.20     1600.00
02162              -2.60     1600.00
02163              -0.40     3200.00
02164               1.20     4000.00
02165              -1.00     3200.00
02166               1.00     4800.00
02167              17.00     5600.00
02168              25.00     7200.00
02169             -25.00     8000.00
02170             -23.60     8000.00
02171              25.00     8000.00
02172             -18.00     8800.00
02173             -25.00     9600.00
02174              25.00    10400.00
02175             -25.00     9600.00
02176             -19.60    11200.00
02177              25.00    12000.00
02178             -25.00    12000.00
02179              25.00    12800.00
02180               6.80    12800.00
02181             -25.00    14400.00
02182              25.00    14400.00
02183             -25.00    15200.00
02184              18.00    16000.00
02185              25.00    16000.00
02186             -25.00    16800.00
02187              25.00    17600.00
02188              20.60    17600.00
02189             -25.00    17600.00
02190              -7.40    19200.00
02191              25.00    20000.00
02192             -25.00    20800.00
02193               0.60    20800.00
02194              25.00    20800.00
02195             -25.00    21600.00
02196              17.40    22400.00
02197              -4.60    22400.00
02198             -16.40    23200.00
02199               9.40    24000.00
02200              -0.60    24000.00
02201             -10.80    24800.00
02202              10.00    24800.00
02203              -2.20    24800.00
02204             -15.40    25600.00
02205              11.40    25600.00
02206              -9.40    26400.00
02207              -3.60    27200.00
02208               5.20    27200.00
02209              -6.20    27200.00
02210              -2.20    28000.00
02211               0.20    28800.00
02212              -3.60    28000.00
02213              -3.40    28800.00
02214               1.80    28800.00
02215              -4.40    29600.00
02216              -3.80    30400.00
02217               0.20    30400.00
02218              -4.60    31200.00
02219              -2.20    31200.00
02220               1.40    31200.00
02221              -5.80    31200.00
02222              -1.00    32000.00
02223              -1.20    32000.00
02224              -4.60    32800.00
02225              -0.60    32800.00
02226              -3.00    32800.00
02227              -2.00    32800.00
02228              -1.00    32800.00
02229              -3.00    33600.00
02230              -2.80    33600.00
02231              -2.80    33600.00
02232              -2.20    33600.00
02233              -3.00    33600.00
02234              -2.00    33600.00
02235              -2.00    33600.00
02236              -3.80    33600.00
02237              -0.60    33600.00
02238              -3.00    33600.00
02239              -3.00    33600.00
02240              -1.00    33600.00
02241              -3.80    33600.00
02242              -1.20    33600.00
02243              -2.20    33600.00
02244              -3.40    33600.00
02245              -1.40    33600.00
02246              -3.00    33600.00
02247              -2.20    33600.00
02248              -2.20    33600.00
02249              -2.80    33600.00
02250              -2.80    33600.00
02251              -2.20    33600.00
02252              -2.00    33600.00
02253              -3.60    32000.00
02254              -1.60    32800.00
02255              -2.80    32800.00
02256              -3.00    32000.00
02257              -1.40    32800.00
02258              -3.40    32000.00
02259              -2.20    32000.00
02260              -1.60    31200.00
02261              -3.00    31200.00
02262              -2.20    31200.00
02263              -2.00    31200.00
02264              -2.80    30400.00
02265              -2.20    31200.00
02266              -2.00    30400.00
02267              -3.20    29600.00
02268              -2.60    28800.00
02269              -1.20    28800.00
02270              -2.80    28800.00
02271              -3.00    28000.00
02272              -1.00    28000.00
02273              -2.20    28000.00
02274              -2.20    27200.00
02275              -1.40    27200.00
02276              -2.80    26400.00
02277              -2.00    25600.00
02278              -1.40    25600.00
02279              -1.80    25600.00
02280              -2.00    24800.00
02281              -3.00    24800.00
02282              -1.80    24000.00
02283              -1.80    24000.00
02284              -2.40    24000.00
02285              -1.80    22400.00
02286              -1.40    22400.00
02287              -2.00    21600.00
02288              -2.00    20800.00
02289              -1.20    20800.00
02290              -1.20    20000.00
02291              -1.80    20000.00
02292              -1.40    19200.00
02293              -1.20    19200.00
02294              -1.40    18400.00
02295              -2.00    17600.00
02296              -0.60    17600.00
02297              -1.20    16000.00
02298              -2.60    16000.00
02299              -0.80    16000.00
02300              -0.60    15200.00
02301              -1.60    14400.00
02302              -0.60    14400.00
02303              -1.20    13600.00
02304              -2.00    12800.00
02305              -0.40    12000.00
02306              -0.40    12000.00
02307              -0.60    11200.00
02308              -1.40    11200.00
02309              -0.60    10400.00
02310              -1.20     9600.00
02311              -1.80     8000.00
02312              -0.60     8000.00
02313              -1.00     8000.00
02314              -1.00     7200.00
02315              -0.20     6400.00
02316              -0.60     5600.00
02317              -1.20     4800.00
02318              -1.20     4800.00
02319               0.40     3200.00
02320              -0.40     3200.00
02321              -1.20     2400.00
02322              -0.20     1600.00
02323               0.20     1600.00
02324              -0.40      800.00
02325              -0.20        0.00
02326               0.20     -800.00
02327               2.60     -800.00
02328               1.00    -1600.00
02329              -1.00    -1600.00
02330               1.40    -3200.00
02331               0.40    -3200.00
02332               0.40    -4000.00
02333               2.80    -4000.00
02334              12.20    -4800.00
02335              25.00    -6400.00
02336             -25.00    -8000.00
02337             -25.00    -8000.00
02338              23.00    -8000.00
02339               7.40    -8800.00
02340             -25.00    -8000.00
02341              22.80    -9600.00
02342              25.00   -10400.00
02343             -25.00   -10400.00
02344              25.00   -11200.00
02345              25.00   -11200.00
02346             -25.00   -12000.00
02347              25.00   -12800.00
02348              -2.60   -13600.00
02349              -5.20   -14400.00
02350              21.00   -14400.00
02351             -25.00   -15200.00
02352              25.00   -16000.00
02353               4.20   -16000.00
02354             -25.00   -16800.00
02355              25.00   -17600.00
02356              10.00   -17600.00
02357             -25.00   -18400.00
02358              11.00   -18400.00
02359              20.40   -19200.00
02360             -25.00   -19200.00
02361              22.00   -20000.00
02362              10.60   -20800.00
02363             -20.20   -20800.00
02364              17.40   -22400.00
02365              -2.80   -22400.00
02366              -9.40   -23200.00
02367              12.40   -23200.00
02368               3.00   -24000.00
02369              -7.40   -24000.00
02370              14.20   -24800.00
02371              -3.80   -25600.00
02372              -5.20   -25600.00
02373              11.60   -25600.00
02374              -6.00   -26400.00
02375               3.00   -26400.00
02376               7.00   -27200.00
02377              -2.40   -27200.00
02378               1.00   -27200.00
02379               5.00   -28800.00
02380              -1.80   -28800.00
02381               2.00   -28800.00
02382               4.60   -28800.00
02383              -2.20   -29600.00
02384               2.60   -29600.00
02385               3.60   -29600.00
02386              -1.20   -29600.00
02387               4.20   -30400.00
02388               3.60   -30400.00
02389              -1.80   -30400.00
02390               3.60   -31200.00
02391               1.20   -32000.00
02392              -0.40   -32000.00
02393               3.40   -32000.00
02394               1.80   -32000.00
02395               2.00   -32000.00
02396               2.20   -32800.00
02397               1.20   -32000.00
02398               2.00   -32000.00
02399               2.00   -32800.00
02400               1.80   -32800.00
02401               1.80   -32800.00
02402               2.60   -32800.00
02403               1.40   -33600.00
02404               1.40   -33600.00
02405               2.60   -32800.00
02406               0.60   -32800.00
02407               2.80   -32800.00
02408               2.60   -32800.00
02409               0.60   -32800.00
02410               3.00   -32800.00
02411               1.20   -33600.00
02412               1.00   -32800.00
02413               2.60   -32800.00
02414               1.60   -33600.00
02415               2.00   -32800.00
02416               2.00   -32000.00
02417               1.80   -32800.00
02418               1.80   -32000.00
02419               2.00   -32000.00
02420               1.60   -32000.00
02421               1.20   -32000.00
02422               2.60   -32000.00
02423               1.40   -32000.00
02424               1.80   -31200.00
02425               2.40   -31200.00
02426               1.80   -30400.00
02427               2.00   -30400.00
02428               2.00   -30400.00
02429               1.40   -30400.00
02430               2.00   -29600.00
02431               1.80   -29600.00
02432               1.60   -29600.00
02433               1.40   -29600.00
02434               1.80   -28800.00
02435               2.00   -28800.00
02436               2.00   -28800.00
02437               1.20   -28800.00
02438               1.20   -28000.00
02439               1.80   -27200.00
02440               1.80   -27200.00
02441               1.40   -26400.00
02442               1.80   -25600.00
02443               1.00   -26400.00
02444               1.20   -25600.00
02445               1.60   -24800.00
02446               0.80   -24800.00
02447               1.40   -24000.00
02448               1.60   -24000.00
02449               1.00   -24000.00
02450               1.20   -23200.00
02451               1.20   -22400.00
02452               0.60   -22400.00
02453               1.00   -20800.00
02454               1.00   -21600.00
02455               1.00   -20800.00
02456               0.40   -20000.00
02457               1.00   -20000.00
02458               1.00   -18400.00
02459               1.00   -17600.00
02460               0.80   -17600.00
02461               0.60   -17600.00
02462               0.80   -16800.00
02463               0.20   -16800.00
02464               0.40   -16000.00
02465               0.60   -15200.00
02466               0.20   -14400.00
02467               0.60   -14400.00
02468               0.60   -13600.00
02469               0.20   -13600.00
02470               0.40   -12800.00
02471               0.20   -12000.00
02472               0.40   -11200.00
02473               0.40   -10400.00
02474               0.20   -10400.00
02475               0.20    -9600.00
02476               0.40    -9600.00
02477               0.20    -8000.00
02478               0.20    -8000.00
02479               0.00    -8000.00
02480              -0.20    -7200.00
02481               0.00    -6400.00
02482              -0.20    -6400.00
02483              -0.20    -4800.00
02484              -0.20    -4000.00
02485              -0.20    -4000.00
02486               0.00    -3200.00
02487              -0.20    -1600.00
02488              -0.40    -1600.00
02489              -0.40    -1600.00
02490              -0.40        0.00
02491              -0.20        0.00
02492               0.20        0.00
02493               0.40     1600.00
02494               3.60     1600.00
02495              -0.60     2400.00
02496              -2.00     2400.00
02497               1.00     3200.00
02498               0.40     4000.00
02499              -1.40     4800.00
02500               9.00     5600.00
02501              25.00     7200.00
02502             -22.00     7200.00
02503             -25.00     8000.00
02504              21.00     8800.00
02505               9.00     8800.00
02506             -25.00     8000.00
02507              25.00    10400.00
02508              25.00     9600.00
02509             -25.00    11200.00
02510              25.00    11200.00
02511             -25.00    12000.00
02512             -25.00    12800.00
02513              25.00    12800.00
02514             -25.00    13600.00
02515              25.00    14400.00
02516             -14.00    14400.00
02517             -25.00    15200.00
02518              25.00    16000.00
02519             -25.00    16800.00
02520              -6.80    16000.00
02521              25.00    17600.00
02522             -19.60    18400.00
02523             -23.60    19200.00
02524              25.00    19200.00
02525              -6.80    20800.00
02526             -25.00    20000.00
02527              25.00    21600.00
02528             -22.20    21600.00
02529              -2.20    21600.00
02530              14.00    22400.00
02531             -22.20    22400.00
02532               4.40    24000.00
02533               4.60    24000.00
02534             -10.60    24000.00
02535               1.20    24800.00
02536               9.00    25600.00
02537             -18.00    25600.00
02538               6.60    25600.00
02539              -0.40    26400.00
02540             -11.80    27200.00
02541               6.60    27200.00
02542              -4.20    27200.00
02543              -4.60    28000.00
02544               0.80    28000.00
02545              -1.80    28800.00
02546              -5.40    28800.00
02547               1.20    28800.00
02548              -2.00    29600.00
02549              -5.80    30400.00
02550               0.20    30400.00
02551              -2.20    30400.00
02552              -4.60    30400.00
02553               2.20    31200.00
02554              -3.80    31200.00
02555              -3.40    31200.00
02556               0.60    32000.00
02557              -5.00    32800.00
02558              -1.40    32000.00
02559              -2.00    32800.00
02560              -3.40    32800.00
02561              -1.00    32800.00
02562              -2.60    32800.00
02563              -2.80    33600.00
02564              -2.80    32800.00
02565              -2.20    33600.00
02566              -2.20    33600.00
02567              -2.80    33600.00
02568              -1.20    33600.00
02569              -3.00    33600.00
02570              -2.20    33600.00
02571              -2.20    33600.00
02572              -3.80    33600.00
02573              -1.40    33600.00
02574              -3.60    33600.00
02575              -2.20    33600.00
02576              -1.40    33600.00
02577              -4.20    33600.00
02578              -1.80    32800.00
02579              -2.20    33600.00
02580              -3.00    33600.00
02581              -2.20    33600.00
02582              -2.60    33600.00
02583              -2.80    33600.00
02584              -2.60    32800.00
02585              -1.80    33600.00
02586              -2.80    32800.00
02587              -2.80    32000.00
02588              -2.20    32800.00
02589              -3.00    32800.00
02590              -2.20    32000.00
02591              -3.00    32800.00
02592              -3.00    32000.00
02593              -1.20    32000.00
02594              -2.80    31200.00
02595              -2.80    31200.00
02596              -2.20    31200.00
02597              -2.40    30400.00
02598              -2.20    30400.00
02599              -2.00    29600.00
02600              -2.80    30400.00
02601              -2.60    29600.00
02602              -1.80    28800.00
02603              -2.20    28800.00
02604              -2.20    28800.00
02605              -2.00    28000.00
02606              -2.60    28000.00
02607              -2.00    27200.00
02608              -1.80    27200.00
02609              -2.80    27200.00
02610              -1.80    26400.00
02611              -1.40    26400.00
02612              -2.00    25600.00
02613              -1.40    24800.00
02614              -2.20    24800.00
02615              -2.00    24000.00
02616              -1.80    24000.00
02617              -2.00    24000.00
02618              -1.60    23200.00
02619              -2.00    22400.00
02620              -1.40    21600.00
02621              -1.40    22400.00
02622              -2.00    20800.00
02623              -1.40    20800.00
02624              -1.80    19200.00
02625              -1.40    19200.00
02626              -1.20    19200.00
02627              -1.40    18400.00
02628              -1.20    18400.00
02629              -1.20    17600.00
02630              -1.20    16000.00
02631              -1.20    16000.00
02632              -1.20    16000.00
02633              -1.20    15200.00
02634              -1.80    15200.00
02635              -0.60    14400.00
02636              -1.40    13600.00
02637              -1.40    12800.00
02638              -1.00    12800.00
02639              -1.00    12000.00
02640              -1.00    11200.00
02641              -1.40     9600.00
02642              -1.40     9600.00
02643               0.20     9600.00
02644              -1.80     8800.00
02645              -1.20     8000.00
02646              -0.60     7200.00
02647              -1.20     7200.00
02648              -0.20     6400.00
02649              -0.60     5600.00
02650              -1.40     5600.00
02651               0.00     4800.00
02652              -0.60     4000.00
02653              -1.00     3200.00
02654              -0.40     2400.00
02655              -0.60     2400.00
02656              -0.60     1600.00
02657               0.20        0.00
02658              -0.20        0.00
02659              -0.20        0.00
02660               2.00    -1600.00
02661               3.40    -1600.00
02662              -1.80    -1600.00
02663               0.40    -2400.00
02664               1.60    -3200.00
02665               1.00    -3200.00
02666              -0.20    -4000.00
02667               7.60    -4800.00
02668              25.00    -5600.00
02669              -2.20    -7200.00
02670             -25.00    -7200.00
02671               6.80    -8000.00
02672              23.00    -8800.00
02673             -25.00    -8800.00
02674             -14.60    -8800.00
02675              25.00   -10400.00
02676             -25.00   -10400.00
02677             -25.00   -10400.00
02678              25.00   -11200.00
02679             -25.00   -11200.00
02680              -4.40   -12800.00
02681              25.00   -12800.00
02682             -25.00   -13600.00
02683              25.00   -15200.00
02684             -25.00   -14400.00
02685               6.60   -15200.00
02686              25.00   -16000.00
02687             -25.00   -16800.00
02688               9.40   -16800.00
02689              25.00   -17600.00
02690             -22.00   -18400.00
02691              -7.20   -19200.00
02692              25.00   -19200.00
02693             -23.00   -20000.00
02694               0.40   -20000.00
02695              25.00   -20800.00
02696             -20.00   -21600.00
02697               8.40   -22400.00
02698               8.40   -22400.00
02699             -14.20   -22400.00
02700               5.80   -23200.00
02701               8.80   -24000.00
02702              -7.60   -24000.00
02703               8.40   -24800.00
02704               5.80   -25600.00
02705              -9.40   -24800.00
02706              10.80   -26400.00
02707              -0.60   -25600.00
02708              -4.20   -26400.00
02709               8.00   -27200.00
02710              -0.40   -27200.00
02711              -1.40   -28000.00
02712               4.60   -28000.00
02713               1.80   -28800.00
02714               0.20   -28800.00
02715               5.00   -28800.00
02716               0.20   -28800.00
02717              -1.20   -29600.00
02718               4.60   -29600.00
02719               0.40   -30400.00
02720               1.20   -29600.00
02721               5.40   -30400.00
02722              -0.40   -31200.00
02723               1.20   -31200.00
02724               3.60   -31200.00
02725              -0.40   -32000.00
02726               1.20   -32000.00
02727               2.40   -32000.00
02728               2.20   -32000.00
02729               2.60   -32000.00
02730               1.80   -32800.00
02731               2.00   -32800.00
02732               1.40   -32800.00
02733               1.60   -32800.00
02734               1.80   -32800.00
02735               2.00   -32800.00
02736               2.40   -32800.00
02737               1.80   -32800.00
02738               2.60   -32800.00
02739               1.40   -32800.00
02740               1.60   -33600.00
02741               2.60   -32800.00
02742               1.20   -32800.00
02743               2.80   -32800.00
02744               2.00   -33600.00
02745               1.00   -32800.00
02746               2.80   -32800.00
02747               2.00   -32800.00
02748               1.40   -32800.00
02749               1.80   -32800.00
02750               2.00   -32800.00
02751               1.80   -32000.00
02752               1.80   -32800.00
02753               2.20   -32800.00
02754               1.40   -32000.00
02755               2.40   -32000.00
02756               2.00   -32000.00
02757               1.80   -32000.00
02758               2.20   -31200.00
02759               1.00   -31200.00
02760               1.40   -30400.00
02761               1.80   -31200.00
02762               1.20   -30400.00
02763               2.60   -29600.00
02764               2.20   -29600.00
02765               1.80   -29600.00
02766               1.80   -29600.00
02767               1.20   -28800.00
02768               1.20   -28800.00
02769               1.80   -28800.00
02770               1.20   -28000.00
02771               1.40   -28000.00
02772               1.00   -27200.00
02773               1.40   -27200.00
02774               1.40   -26400.00
02775               1.00   -27200.00
02776               1.20   -25600.00
02777               1.00   -26400.00
02778               1.40   -24800.00
02779               0.60   -24800.00
02780               1.20   -24800.00
02781               1.40   -24000.00
02782               0.60   -23200.00
02783               1.00   -23200.00
02784               1.20   -23200.00
02785               1.20   -22400.00
02786               1.00   -22400.00
02787               1.20   -20800.00
02788               1.00   -20800.00
02789               0.40   -20000.00
02790               0.40   -20000.00
02791               0.60   -18400.00
02792               0.40   -18400.00
02793               1.00   -18400.00
02794               0.80   -17600.00
02795               0.60   -16800.00
02796               0.60   -16800.00
02797               1.00   -16000.00
02798               0.60   -16000.00
02799               0.40   -14400.00
02800               0.60   -14400.00
02801               0.60   -14400.00
02802               0.20   -13600.00
02803               0.20   -12800.00
02804              -0.20   -12000.00
02805               0.20   -11200.00
02806               0.60   -11200.00
02807               0.40   -10400.00
02808              -0.20   -10400.00
02809               0.20    -9600.00
02810               0.40    -8800.00
02811               0.20    -8000.00
02812               0.20    -7200.00
02813               0.40    -7200.00
02814               0.20    -6400.00
02815               0.20    -5600.00
02816              -0.20    -4800.00
02817              -0.60    -4800.00
02818              -0.20    -4000.00
02819               0.00    -3200.00
02820              -0.60    -3200.00
02821              -0.20    -1600.00
02822              -0.40    -1600.00
02823              -0.40    -1600.00
02824               0.00        0.00
02825               0.00     1600.00
02826               0.20     1600.00
02827               2.40     1600.00
02828               1.80     1600.00
02829              -3.00     2400.00
02830               0.20     3200.00
02831               0.60     3200.00
02832              -1.40     4000.00
02833               4.00     4800.00
02834              25.00     7200.00
02835               9.20     7200.00
02836             -25.00     8000.00
02837              -0.40     8800.00
02838              25.00     8800.00
02839             -25.00     8000.00
02840               6.60     9600.00
02841              25.00    10400.00
02842             -25.00    10400.00
02843              25.00    11200.00
02844              25.00    12000.00
02845             -25.00    12800.00
02846              25.00    12800.00
02847             -25.00    12800.00
02848              11.80    14400.00
02849              25.00    15200.00
02850             -25.00    15200.00
02851              25.00    16000.00
02852               0.60    16000.00
02853             -25.00    16800.00
02854              25.00    17600.00
02855               0.40    17600.00
02856             -25.00    18400.00
02857              12.00    18400.00
02858              19.00    20000.00
02859             -25.00    20800.00
02860              24.20    20800.00
02861               5.40    21600.00
02862             -22.60    22400.00
02863              23.00    22400.00
02864             -17.00    23200.00
02865              -6.60    22400.00
02866               8.20    24000.00
02867              -5.80    24000.00
02868              -6.80    24000.00
02869              13.80    25600.00
02870             -11.80    25600.00
02871              -6.00    25600.00
02872               9.20    25600.00
02873             -14.00    27200.00
02874               2.00    26400.00
02875               2.00    27200.00
02876              -5.80    28000.00
02877              -1.00    28000.00
02878               0.20    28800.00
02879              -5.40    28800.00
02880              -1.20    28800.00
02881               1.00    29600.00
02882              -6.00    30400.00
02883              -1.80    30400.00
02884               0.20    30400.00
02885              -6.00    31200.00
02886              -0.20    30400.00
02887               0.20    31200.00
02888              -5.80    32000.00
02889               0.40    32000.00
02890              -2.60    32800.00
02891              -3.40    32000.00
02892              -1.40    32800.00
02893              -3.60    32800.00
02894              -0.80    32000.00
02895              -2.80    33600.00
02896              -2.80    32800.00
02897              -2.00    33600.00
02898              -3.40    32800.00
02899              -2.60    33600.00
02900              -2.40    33600.00
02901              -2.20    33600.00
02902              -2.80    33600.00
02903              -2.80    34400.00
02904              -1.20    33600.00
02905              -3.60    33600.00
02906              -2.00    33600.00
02907              -2.80    33600.00
02908              -3.00    33600.00
02909              -1.20    33600.00
02910              -3.60    34400.00
02911              -2.20    33600.00
02912              -2.20    33600.00
02913              -3.00    33600.00
02914              -2.20    33600.00
02915              -3.80    33600.00
02916              -2.80    32800.00
02917              -2.20    33600.00
02918              -2.60    33600.00
02919              -2.20    32800.00
02920              -3.00    32800.00
02921              -2.20    32000.00
02922              -2.40    32800.00
02923              -2.20    32800.00
02924              -2.00    32000.00
02925              -2.80    32800.00
02926              -2.20    32000.00
02927              -2.80    31200.00
02928              -3.00    31200.00
02929              -2.20    30400.00
02930              -2.20    31200.00
02931              -2.00    30400.00
02932              -2.20    30400.00
02933              -3.00    29600.00
02934              -2.80    29600.00
02935              -2.40    28800.00
02936              -2.00    28800.00
02937              -2.00    28000.00
02938              -2.20    28800.00
02939              -1.80    28000.00
02940              -2.00    27200.00
02941              -2.20    27200.00
02942              -2.60    27200.00
02943              -2.00    27200.00
02944              -1.40    25600.00
02945              -2.20    25600.00
02946              -2.00    24800.00
02947              -2.00    24800.00
02948              -2.20    24800.00
02949              -1.60    24000.00
02950              -2.00    23200.00
02951              -1.40    23200.00
02952              -1.80    22400.00
02953              -2.00    22400.00
02954              -1.40    21600.00
02955              -2.00    20800.00
02956              -1.80    20800.00
02957              -1.40    20000.00
02958              -1.40    19200.00
02959              -1.20    19200.00
02960              -1.20    19200.00
02961              -1.40    17600.00
02962              -1.80    18400.00
02963              -1.40    16800.00
02964              -1.40    16000.00
02965              -1.80    16000.00
02966              -1.40    15200.00
02967              -1.80    14400.00
02968              -1.00    14400.00
02969              -1.00    13600.00
02970              -1.80    13600.00
02971              -1.40    12800.00
02972              -1.00    12800.00
02973              -1.20    11200.00
02974              -1.20    10400.00
02975              -1.80    10400.00
02976              -0.60     9600.00
02977              -1.00     8800.00
02978              -1.40     8800.00
02979              -0.60     8000.00
02980              -1.20     8000.00
02981              -0.60     6400.00
02982              -0.40     5600.00
02983              -1.00     5600.00
02984              -0.40     4800.00
02985              -0.60     4800.00
02986              -0.60     3200.00
02987              -0.60     3200.00
02988              -0.60     1600.00
02989              -0.80     1600.00
02990               0.00     1600.00
02991              -0.40        0.00
02992              -0.20     -800.00
02993               0.80     -800.00
02994               4.40    -1600.00
02995              -1.00    -1600.00
02996              -0.60    -2400.00
02997               2.00    -3200.00
02998               1.00    -3200.00
02999              -0.60    -3200.00
03000               4.60    -4000.00
03001              19.00    -5600.00
03002              19.80    -7200.00
03003             -25.00    -8000.00
03004             -17.20    -8000.00
03005              25.00    -8000.00
03006             -12.40    -8800.00
03007             -25.00    -8000.00
03008              25.00    -9600.00
03009              25.00   -10400.00
03010             -25.00   -10400.00
03011              25.00   -11200.00
03012               8.60   -12000.00
03013             -25.00   -12800.00
03014              25.00   -13600.00
03015             -24.20   -13600.00
03016              14.80   -14400.00
03017              -0.40   -14400.00
03018             -21.60   -15200.00
03019              25.00   -16000.00
03020             -18.60   -16000.00
03021             -13.40   -16800.00
03022              25.00   -17600.00
03023              -5.80   -17600.00
03024             -22.40   -18400.00
03025              24.40   -19200.00
03026               1.20   -20000.00
03027             -23.00   -20000.00
03028              25.00   -20800.00
03029              -6.60   -21600.00
03030              -8.60   -22400.00
03031              17.00   -22400.00
03032              -9.80   -22400.00
03033              -2.00   -23200.00
03034              11.60   -24000.00
03035              -3.40   -24000.00
03036              -1.40   -24000.00
03037              12.80   -24800.00
03038              -9.20   -25600.00
03039               3.00   -25600.00
03040               7.60   -25600.00
03041              -7.60   -26400.00
03042               5.80   -27200.00
03043               4.20   -26400.00
03044              -2.20   -27200.00
03045               2.60   -28800.00
03046               3.80   -28000.00
03047              -2.00   -28800.00
03048               3.60   -28800.00
03049               3.40   -29600.00
03050              -2.20   -29600.00
03051               4.20   -29600.00
03052               2.20   -29600.00
03053              -1.20   -30400.00
03054               5.00   -30400.00
03055               1.40   -31200.00
03056              -0.60   -31200.00
03057               4.40   -31200.00
03058               0.00   -32000.00
03059               0.80   -32000.00
03060               3.60   -32000.00
03061               1.20   -32000.00
03062               2.20   -32000.00
03063               2.20   -32000.00
03064               1.80   -32800.00
03065               1.40   -32000.00
03066               2.00   -32800.00
03067               2.60   -32800.00
03068               1.40   -33600.00
03069               2.40   -32800.00
03070               2.20   -32800.00
03071               2.00   -33600.00
03072               1.80   -32800.00
03073               1.40   -32800.00
03074               2.80   -32800.00
03075               1.40   -33600.00
03076               2.00   -32800.00
03077               3.00   -33600.00
03078               1.20   -32800.00
03079               2.20   -33600.00
03080               2.00   -32800.00
03081               2.20   -32800.00
03082               1.80   -32800.00
03083               1.00   -32800.00
03084               2.60   -32800.00
03085               1.80   -32800.00
03086               1.20   -32000.00
03087               2.20   -32000.00
03088               1.80   -32000.00
03089               1.40   -32000.00
03090               2.20   -32000.00
03091               2.00   -32000.00
03092               1.20   -31200.00
03093               2.20   -32000.00
03094               2.60   -30400.00
03095               1.00   -30400.00
03096               2.20   -30400.00
03097               1.40   -30400.00
03098               0.80   -30400.00
03099               1.80   -29600.00
03100               1.60   -29600.00
03101               1.20   -28800.00
03102               1.80   -28800.00
03103               1.00   -28800.00
03104               1.60   -28000.00
03105               1.20   -28000.00
03106               1.80   -27200.00
03107               1.80   -26400.00
03108               1.00   -26400.00
03109               1.00   -26400.00
03110               1.60   -25600.00
03111               1.00   -25600.00
03112               1.00   -24800.00
03113               1.40   -24000.00
03114               1.00   -24800.00
03115               0.60   -24000.00
03116               1.20   -23200.00
03117               1.00   -23200.00
03118               0.60   -22400.00
03119               1.40   -22400.00
03120               0.60   -21600.00
03121               0.60   -20800.00
03122               1.20   -20800.00
03123               0.60   -20000.00
03124               0.60   -20000.00
03125               1.00   -18400.00
03126               0.60   -18400.00
03127               0.80   -17600.00
03128               0.60   -16800.00
03129               0.40   -16800.00
03130               0.60   -16800.00
03131               0.60   -16000.00
03132               0.40   -15200.00
03133               0.40   -14400.00
03134               1.00   -14400.00
03135               0.40   -13600.00
03136               0.60   -13600.00
03137               0.40   -12800.00
03138               0.20   -12000.00
03139               0.80   -11200.00
03140               0.40   -10400.00
03141               0.20   -10400.00
03142               0.20    -9600.00
03143               0.20    -8800.00
03144               0.40    -8000.00
03145               0.20    -8000.00
03146               0.40    -7200.00
03147              -0.20    -7200.00
03148               0.20    -6400.00
03149               0.00    -5600.00
03150              -0.40    -4000.00
03151              -0.20    -4000.00
03152              -0.20    -3200.00
03153              -0.40    -3200.00
03154               0.20    -2400.00
03155              -0.60    -1600.00
03156              -0.60     -800.00
03157               0.20     -800.00
03158              -0.60        0.00
03159              -0.20      800.00
03160               1.80      800.00
03161               2.80     1600.00
03162              -3.00     2400.00
03163              -0.20     3200.00
03164               1.00     3200.00
03165              -1.20     4800.00
03166               0.60     4800.00
03167              15.00     5600.00
03168              25.00     7200.00
03169             -25.00     8000.00
03170             -25.00     8000.00
03171              25.00     8000.00
03172             -13.60     8800.00
03173             -25.00     8800.00
03174              25.00    11200.00
03175             -25.00     9600.00
03176             -25.00    11200.00
03177              25.00    11200.00
03178             -25.00    12000.00
03179              24.20    12800.00
03180              15.40    12800.00
03181             -25.00    14400.00
03182              25.00    14400.00
03183             -25.00    15200.00
03184               9.00    16000.00
03185              25.00    16000.00
03186             -25.00    16000.00
03187              22.60    16800.00
03188              23.60    17600.00
03189             -25.00    18400.00
03190             -10.20    19200.00
03191              25.00    19200.00
03192             -25.00    20000.00
03193              -3.80    20800.00
03194              25.00    20800.00
03195             -25.00    21600.00
03196              15.40    22400.00
03197              -1.80    22400.00
03198             -17.60    23200.00
03199               9.00    24000.00
03200               0.40    24000.00
03201             -10.40    24000.00
03202               9.20    24800.00
03203              -0.20    25600.00
03204             -15.80    25600.00
03205              11.40    25600.00
03206              -8.60    26400.00
03207              -5.00    27200.00
03208               5.80    27200.00
03209              -6.00    27200.00
03210              -2.80    28000.00
03211               1.00    28800.00
03212              -3.80    28800.00
03213              -4.00    28800.00
03214               2.20    28800.00
03215              -4.20    30400.00
03216              -4.40    30400.00
03217               0.80    30400.00
03218              -4.40    30400.00
03219              -2.60    30400.00
03220               1.80    31200.00
03221              -5.80    31200.00
03222              -1.00    32800.00
03223              -1.20    32000.00
03224              -5.40    32000.00
03225              -0.60    32800.00
03226              -3.00    32000.00
03227              -2.60    32800.00
03228              -1.20    32800.00
03229              -2.80    32800.00
03230              -2.80    32000.00
03231              -3.20    32800.00
03232              -2.20    33600.00
03233              -2.80    33600.00
03234              -2.40    33600.00
03235              -2.00    33600.00
03236              -3.60    33600.00
03237              -1.40    33600.00
03238              -3.00    33600.00
03239              -3.00    33600.00
03240              -1.40    33600.00
03241              -4.40    33600.00
03242              -1.20    33600.00
03243              -2.20    33600.00
03244              -3.80    33600.00
03245              -1.40    33600.00
03246              -2.80    33600.00
03247              -2.60    33600.00
03248              -2.80    33600.00
03249              -2.80    33600.00
03250              -2.60    33600.00
03251              -2.20    33600.00
03252              -2.00    32800.00
03253              -3.40    32000.00
03254              -2.00    32800.00
03255              -2.20    32800.00
03256              -2.80    32000.00
03257              -1.80    32800.00
03258              -3.40    32000.00
03259              -2.60    31200.00
03260              -1.40    32000.00
03261              -2.80    31200.00
03262              -2.20    31200.00
03263              -1.80    31200.00
03264              -2.20    31200.00
03265              -2.00    30400.00
03266              -2.20    30400.00
03267              -2.20    29600.00
03268              -2.20    28800.00
03269              -2.00    28800.00
03270              -2.00    28800.00
03271              -2.20    28800.00
03272              -2.00    27200.00
03273              -2.20    28000.00
03274              -1.80    27200.00
03275              -2.20    27200.00
03276              -2.40    26400.00
03277              -1.20    26400.00
03278              -2.00    25600.00
03279              -1.80    25600.00
03280              -1.80    24800.00
03281              -2.20    24800.00
03282              -1.80    24800.00
03283              -2.00    24000.00
03284              -1.80    24000.00
03285              -1.80    23200.00
03286              -2.20    22400.00
03287              -1.40    21600.00
03288              -1.80    21600.00
03289              -2.20    20800.00
03290              -1.40    20800.00
03291              -2.00    19200.00
03292              -1.80    19200.00
03293              -0.80    19200.00
03294              -1.60    18400.00
03295              -1.40    17600.00
03296              -1.80    17600.00
03297              -2.00    16000.00
03298              -1.00    16000.00
03299              -0.60    15200.00
03300              -2.40    15200.00
03301              -1.80    14400.00
03302              -0.60    14400.00
03303              -1.80    12800.00
03304              -1.00    12800.00
03305              -0.60    12000.00
03306              -1.00    12000.00
03307              -1.40    11200.00
03308              -2.00    11200.00
03309              -0.20     9600.00
03310              -0.40     9600.00
03311              -2.60     8000.00
03312              -0.20     8000.00
03313              -1.20     7200.00
03314              -1.80     7200.00
03315               0.40     6400.00
03316              -1.00     5600.00
03317              -1.20     4800.00
03318               0.40     4800.00
03319              -0.60     4000.00
03320              -0.80     3200.00
03321              -0.20     2400.00
03322              -0.60     1600.00
03323              -0.60     1600.00
03324              -0.20     1600.00
03325               0.20        0.00
03326               0.40     -800.00
03327               3.00    -1600.00
03328               1.40    -1600.00
03329              -1.20    -1600.00
03330               1.20    -3200.00
03331               1.80    -3200.00
03332               0.20    -3200.00
03333               2.20    -4000.00
03334              11.80    -4800.00
03335              25.00    -6400.00
03336             -24.40    -7200.00
03337             -25.00    -8000.00
03338              21.80    -8000.00
03339              10.80    -9600.00
03340             -25.00    -8800.00
03341              16.20    -8800.00
03342              25.00   -11200.00
03343             -25.00    -9600.00
03344              17.80   -11200.00
03345              25.00   -11200.00
03346             -25.00   -12000.00
03347              25.00   -13600.00
03348               2.80   -13600.00
03349              -9.00   -14400.00
03350              23.40   -14400.00
03351             -25.00   -14400.00
03352              25.00   -16000.00
03353               8.40   -16000.00
03354             -25.00   -16800.00
03355              23.60   -16800.00
03356              12.60   -17600.00
03357             -25.00   -17600.00
03358               7.40   -19200.00
03359              21.80   -19200.00
03360             -25.00   -20000.00
03361              17.00   -20800.00
03362              13.20   -20800.00
03363             -18.80   -21600.00
03364              15.20   -22400.00
03365              -0.80   -22400.00
03366              -9.20   -23200.00
03367              10.00   -23200.00
03368               3.80   -24000.00
03369              -7.00   -24000.00
03370              12.40   -24000.00
03371              -2.20   -24800.00
03372              -5.80   -25600.00
03373              10.80   -25600.00
03374              -5.40   -26400.00
03375               1.80   -26400.00
03376               6.80   -27200.00
03377              -1.40   -27200.00
03378               0.40   -28000.00
03379               4.40   -28000.00
03380              -1.00   -28800.00
03381               1.40   -28800.00
03382               5.20   -29600.00
03383              -1.20   -29600.00
03384               1.80   -29600.00
03385               4.20   -29600.00
03386              -1.00   -29600.00
03387               2.60   -30400.00
03388               4.20   -30400.00
03389              -1.00   -30400.00
03390               3.00   -32000.00
03391               2.00   -31200.00
03392              -0.20   -31200.00
03393               2.60   -32000.00
03394               2.00   -32000.00
03395               2.60   -32000.00
03396               2.40   -32000.00
03397               1.80   -32800.00
03398               1.80   -32000.00
03399               1.40   -32800.00
03400               2.00   -32800.00
03401               1.80   -32800.00
03402               2.60   -32800.00
03403               2.20   -32800.00
03404               1.80   -32800.00
03405               2.60   -32800.00
03406               1.40   -32800.00
03407               2.40   -33600.00
03408               2.40   -33600.00
03409               1.00   -33600.00
03410               2.60   -32800.00
03411               1.20   -32800.00
03412               1.80   -32800.00
03413               2.80   -32800.00
03414               2.00   -32800.00
03415               2.60   -32800.00
03416               1.80   -32800.00
03417               1.80   -32800.00
03418               1.60   -32800.00
03419               1.20   -32000.00
03420               1.40   -32800.00
03421               1.80   -32000.00
03422               2.20   -32000.00
03423               1.80   -32000.00
03424               1.40   -31200.00
03425               1.80   -32000.00
03426               1.80   -31200.00
03427               2.00   -32000.00
03428               1.20   -31200.00
03429               1.20   -29600.00
03430               1.40   -30400.00
03431               1.20   -29600.00
03432               1.80   -29600.00
03433               2.00   -29600.00
03434               1.00   -28800.00
03435               1.80   -28800.00
03436               1.00   -28800.00
03437               1.60   -28000.00
03438               1.00   -27200.00
03439               1.40   -27200.00
03440               1.40   -27200.00
03441               1.20   -26400.00
03442               1.20   -26400.00
03443               1.40   -26400.00
03444               1.20   -25600.00
03445               1.00   -25600.00
03446               1.20   -24800.00
03447               1.20   -24000.00
03448               1.20   -24000.00
03449               1.20   -23200.00
03450               1.00   -23200.00
03451               1.20   -22400.00
03452               1.00   -22400.00
03453               0.60   -22400.00
03454               1.00   -20800.00
03455               1.00   -20800.00
03456               0.60   -20000.00
03457               0.40   -19200.00
03458               0.60   -18400.00
03459               1.00   -18400.00
03460               1.20   -17600.00
03461               0.60   -18400.00
03462               0.40   -16800.00
03463               1.00   -16800.00
03464               0.60   -16000.00
03465               1.00   -15200.00
03466               0.60   -14400.00
03467               0.40   -14400.00
03468               0.40   -14400.00
03469               0.40   -13600.00
03470               0.20   -12800.00
03471               0.20   -11200.00
03472               0.60   -11200.00
03473               0.20   -11200.00
03474               0.20   -10400.00
03475               0.40    -9600.00
03476               0.40    -9600.00
03477               0.40    -8800.00
03478               0.40    -7200.00
03479               0.20    -7200.00
03480               0.20    -6400.00
03481               0.20    -6400.00
03482               0.00    -5600.00
03483              -0.60    -4800.00
03484              -0.20    -4000.00
03485              -0.20    -4000.00
03486              -0.60    -3200.00
03487              -0.40    -2400.00
03488              -0.60    -1600.00
03489              -0.60    -1600.00
03490              -0.20     -800.00
03491              -0.40     -800.00
03492              -0.40      800.00
03493               0.40      800.00
03494               3.00     1600.00
03495              -0.60     2400.00
03496              -2.00     2400.00
03497               0.60     3200.00
03498               0.40     3200.00
03499              -1.80     4000.00
03500               8.20     5600.00
03501              25.00     7200.00
03502             -18.00     8000.00
03503             -25.00     8000.00
03504              18.80     8000.00
03505              11.80     8800.00
03506             -25.00     8800.00
03507              25.00    10400.00
03508              25.00     9600.00
03509             -25.00    10400.00
03510              25.00    12000.00
03511             -16.60    11200.00
03512             -25.00    12800.00
03513              25.00    12800.00
03514             -25.00    12800.00
03515              25.00    14400.00
03516              -3.80    15200.00
03517             -25.00    15200.00
03518              25.00    16000.00
03519             -25.00    16000.00
03520             -12.80    17600.00
03521              25.00    17600.00
03522             -17.20    18400.00
03523             -25.00    18400.00
03524              25.00    19200.00
03525              -2.20    20800.00
03526             -25.00    20000.00
03527              25.00    20800.00
03528             -19.00    21600.00
03529              -5.20    22400.00
03530              16.40    22400.00
03531             -22.00    23200.00
03532               3.40    24000.00
03533               5.80    24000.00
03534             -10.20    24800.00
03535               0.20    24800.00
03536              10.20    24800.00
03537             -17.80    25600.00
03538               5.80    26400.00
03539               1.00    25600.00
03540             -12.60    26400.00
03541               7.00    27200.00
03542              -3.20    27200.00
03543              -5.00    28000.00
03544               1.00    28000.00
03545              -1.60    28800.00
03546              -6.00    28800.00
03547               1.20    28800.00
03548              -1.80    29600.00
03549              -6.00    29600.00
03550               0.00    30400.00
03551              -2.20    30400.00
03552              -5.20    30400.00
03553               2.00    30400.00
03554              -3.60    31200.00
03555              -3.80    31200.00
03556               0.80    31200.00
03557              -5.20    32000.00
03558              -2.00    32800.00
03559              -2.20    32000.00
03560              -3.60    32800.00
03561              -1.20    32800.00
03562              -2.60    32800.00
03563              -3.00    32800.00
03564              -2.80    32800.00
03565              -2.60    32800.00
03566              -2.80    33600.00
03567              -2.60    33600.00
03568              -1.80    32800.00
03569              -3.60    33600.00
03570              -2.00    33600.00
03571              -2.00    33600.00
03572              -3.80    33600.00
03573              -1.20    33600.00
03574              -3.40    33600.00
03575              -2.80    33600.00
03576              -1.20    33600.00
03577              -4.40    33600.00
03578              -2.00    33600.00
03579              -2.00    33600.00
03580              -3.00    33600.00
03581              -2.20    33600.00
03582              -2.80    33600.00
03583              -2.60    33600.00
03584              -2.20    32800.00
03585              -1.80    33600.00
03586              -3.00    32000.00
03587              -2.60    32800.00
03588              -1.60    32800.00
03589              -2.80    32800.00
03590              -2.20    32000.00
03591              -2.80    32000.00
03592              -3.20    31200.00
03593              -1.60    31200.00
03594              -2.40    31200.00
03595              -2.80    32000.00
03596              -2.00    31200.00
03597              -2.00    31200.00
03598              -2.20    31200.00
03599              -2.20    30400.00
03600              -2.20    29600.00
03601              -2.40    29600.00
03602              -2.20    28800.00
03603              -1.80    28800.00
03604              -2.60    28800.00
03605              -2.00    28000.00
03606              -2.00    27200.00
03607              -2.20    27200.00
03608              -1.80    27200.00
03609              -2.60    26400.00
03610              -2.00    26400.00
03611              -1.40    25600.00
03612              -2.00    25600.00
03613              -1.80    25600.00
03614              -2.20    24800.00
03615              -2.00    24800.00
03616              -2.00    24000.00
03617              -2.00    24000.00
03618              -1.60    22400.00
03619              -2.20    22400.00
03620              -1.80    22400.00
03621              -2.00    21600.00
03622              -2.00    21600.00
03623              -1.40    20000.00
03624              -2.00    20000.00
03625              -1.40    19200.00
03626              -1.20    18400.00
03627              -2.00    18400.00
03628              -2.00    17600.00
03629              -1.80    17600.00
03630              -1.20    16800.00
03631              -1.20    16000.00
03632              -1.80    15200.00
03633              -1.40    16000.00
03634              -1.40    15200.00
03635              -1.20    14400.00
03636              -1.80    13600.00
03637              -1.20    12800.00
03638              -1.20    12800.00
03639              -1.20    12000.00
03640              -1.00    12000.00
03641              -1.40    11200.00
03642              -1.20    10400.00
03643               0.00     9600.00
03644              -1.80     8800.00
03645              -1.00     8000.00
03646              -0.40     8000.00
03647              -1.00     6400.00
03648              -0.40     7200.00
03649              -0.40     5600.00
03650              -1.20     5600.00
03651              -0.20     4800.00
03652              -0.60     4000.00
03653              -0.40     3200.00
03654              -0.20     2400.00
03655              -1.00     2400.00
03656              -0.40     1600.00
03657               0.40      800.00
03658              -0.60        0.00
03659               0.40        0.00
03660               2.20     -800.00
03661               3.00    -1600.00
03662              -1.80    -1600.00
03663               0.60    -3200.00
03664               1.80    -3200.00
03665               0.40    -4000.00
03666               0.20    -4000.00
03667               7.60    -4800.00
03668              25.00    -6400.00
03669               1.80    -7200.00
03670             -25.00    -8000.00
03671               3.40    -8000.00
03672              25.00    -8000.00
03673             -25.00    -9600.00
03674             -18.40    -9600.00
03675              25.00   -10400.00
03676             -21.80   -10400.00
03677             -25.00   -10400.00
03678              25.00   -12000.00
03679             -25.00   -11200.00
03680             -11.00   -12800.00
03681              25.00   -13600.00
03682             -25.00   -13600.00
03683              25.00   -14400.00
03684             -24.40   -14400.00
03685               1.40   -16000.00
03686              25.00   -16000.00
03687             -25.00   -16000.00
03688               5.20   -17600.00
03689              25.00   -17600.00
03690             -18.80   -17600.00
03691             -11.20   -19200.00
03692              25.00   -20000.00
03693             -18.80   -20000.00
03694              -5.20   -20800.00
03695              25.00   -20800.00
03696             -18.00   -21600.00
03697               5.00   -22400.00
03698              10.20   -22400.00
03699             -12.60   -23200.00
03700               4.60   -23200.00
03701               9.00   -23200.00
03702              -8.20   -24000.00
03703               6.20   -24800.00
03704               7.00   -24800.00
03705             -10.20   -25600.00
03706              10.00   -25600.00
03707               1.80   -26400.00
03708              -4.00   -26400.00
03709               7.60   -27200.00
03710              -0.20   -27200.00
03711              -1.40   -27200.00
03712               4.40   -28000.00
03713               2.00   -28800.00
03714               0.20   -28800.00
03715               5.20   -29600.00
03716               0.20   -29600.00
03717              -1.80   -28800.00
03718               4.40   -29600.00
03719               1.00   -30400.00
03720               1.00   -30400.00
03721               5.20   -31200.00
03722               0.20   -30400.00
03723               1.80   -31200.00
03724               3.00   -32000.00
03725               0.20   -32000.00
03726               2.60   -32000.00
03727               2.40   -32000.00
03728               1.80   -32000.00
03729               2.20   -32000.00
03730               1.20   -32800.00
03731               2.00   -32000.00
03732               2.60   -32800.00
03733               1.80   -32800.00
03734               1.80   -32800.00
03735               2.20   -33600.00
03736               2.60   -33600.00
03737               1.00   -32800.00
03738               2.60   -33600.00
03739               1.80   -32800.00
03740               1.60   -32800.00
03741               2.60   -32800.00
03742               0.40   -32800.00
03743               2.60   -32800.00
03744               2.80   -32800.00
03745               1.80   -33600.00
03746               2.60   -33600.00
03747               2.00   -32800.00
03748               1.40   -32800.00
03749               0.60   -32800.00
03750               1.20   -32800.00
03751               2.20   -32800.00
03752               1.80   -32000.00
03753               2.60   -32800.00
03754               1.80   -32000.00
03755               1.80   -32000.00
03756               2.20   -32000.00
03757               1.80   -32000.00
03758               1.40   -32000.00
03759               1.00   -31200.00
03760               1.80   -30400.00
03761               1.80   -30400.00
03762               1.40   -30400.00
03763               2.20   -30400.00
03764               2.00   -29600.00
03765               1.00   -29600.00
03766               1.80   -29600.00
03767               1.00   -28800.00
03768               1.40   -29600.00
03769               2.00   -28800.00
03770               1.60   -28800.00
03771               1.20   -27200.00
03772               1.80   -27200.00
03773               1.40   -27200.00
03774               1.00   -27200.00
03775               1.20   -26400.00
03776               1.20   -25600.00
03777               1.00   -25600.00
03778               1.20   -25600.00
03779               1.40   -25600.00
03780               1.00   -24800.00
03781               1.40   -24800.00
03782               1.20   -23200.00
03783               1.20   -23200.00
03784               1.20   -22400.00
03785               1.00   -22400.00
03786               1.00   -22400.00
03787               1.00   -20800.00
03788               1.00   -20800.00
03789               1.00   -20000.00
03790               1.00   -20000.00
03791               1.00   -18400.00
03792               0.60   -18400.00
03793               1.00   -18400.00
03794               0.20   -17600.00
03795               0.40   -17600.00
03796               1.00   -16000.00
03797               0.60   -16000.00
03798               0.60   -16000.00
03799               0.60   -15200.00
03800               0.60   -14400.00
03801               1.00   -13600.00
03802               0.20   -13600.00
03803               0.20   -12800.00
03804               0.00   -12800.00
03805               0.20   -11200.00
03806               0.80   -11200.00
03807               0.20   -11200.00
03808               0.20   -10400.00
03809               0.60    -9600.00
03810               0.20    -9600.00
03811              -0.40    -8000.00
03812              -0.20    -8000.00
03813              -0.20    -7200.00
03814               0.20    -7200.00
03815              -0.20    -6400.00
03816               0.20    -4800.00
03817              -0.20    -4000.00
03818              -0.60    -4000.00
03819              -0.40    -3200.00
03820              -0.40    -2400.00
03821              -0.40    -1600.00
03822              -0.60    -1600.00
03823              -0.60     -800.00
03824              -0.60        0.00
03825              -0.20      800.00
03826               0.40      800.00
03827               2.20     1600.00
03828               1.80     1600.00
03829              -2.80     2400.00
03830              -0.20     3200.00
03831               0.40     3200.00
03832              -1.20     4800.00
03833               3.40     4800.00
03834              24.80     7200.00
03835              14.00     7200.00
03836             -25.00     8000.00
03837              -3.80     8000.00
03838              25.00     8800.00
03839             -25.00     8800.00
03840               1.00     9600.00
03841              25.00    10400.00
03842             -25.00    10400.00
03843              25.00    11200.00
03844              25.00    12000.00
03845             -25.00    12000.00
03846              25.00    12800.00
03847             -25.00    12800.00
03848               2.00    14400.00
03849              25.00    14400.00
03850             -25.00    15200.00
03851              25.00    16000.00
03852               8.80    16000.00
03853             -25.00    16800.00
03854              25.00    17600.00
03855               4.40    18400.00
03856             -25.00    19200.00
03857               8.20    18400.00
03858              22.00    19200.00
03859             -25.00    20000.00
03860              20.60    21600.00
03861               9.80    21600.00
03862             -24.60    22400.00
03863              22.80    21600.00
03864             -15.00    23200.00
03865              -8.20    23200.00
03866               8.40    24000.00
03867              -4.40    24000.00
03868              -7.20    24800.00
03869              13.00    24800.00
03870             -10.20    25600.00
03871              -7.00    25600.00
03872               9.20    26400.00
03873             -13.80    27200.00
03874               2.00    27200.00
03875               2.20    27200.00
03876              -6.00    28000.00
03877              -1.00    28000.00
03878              -0.40    28000.00
03879              -5.40    28800.00
03880              -1.60    28800.00
03881               1.20    28800.00
03882              -5.40    30400.00
03883              -2.00    29600.00
03884              -0.20    30400.00
03885              -6.00    31200.00
03886              -0.40    30400.00
03887              -0.40    31200.00
03888              -5.80    31200.00
03889               0.60    31200.00
03890              -3.00    32800.00
03891              -3.80    32000.00
03892              -1.00    32000.00
03893              -3.80    32800.00
03894              -1.00    32800.00
03895              -1.80    32800.00
03896              -3.20    32800.00
03897              -2.20    32800.00
03898              -3.40    33600.00
03899              -2.60    32800.00
03900              -3.00    33600.00
03901              -2.20    33600.00
03902              -2.60    33600.00
03903              -3.00    33600.00
03904              -1.40    33600.00
03905              -3.80    33600.00
03906              -2.20    33600.00
03907              -2.20    33600.00
03908              -3.60    33600.00
03909              -0.60    33600.00
03910              -3.40    33600.00
03911              -3.00    32800.00
03912              -1.80    33600.00
03913              -3.00    33600.00
03914              -2.20    33600.00
03915              -2.80    33600.00
03916              -2.20    33600.00
03917              -2.40    33600.00
03918              -2.60    33600.00
03919              -2.20    32800.00
03920              -3.00    32800.00
03921              -1.60    32800.00
03922              -2.20    32800.00
03923              -2.20    32000.00
03924              -2.20    32800.00
03925              -3.20    32000.00
03926              -1.80    31200.00
03927              -2.00    31200.00
03928              -2.80    31200.00
03929              -2.20    31200.00
03930              -2.20    30400.00
03931              -2.20    30400.00
03932              -2.00    30400.00
03933              -2.20    29600.00
03934              -2.20    30400.00
03935              -2.20    28800.00
03936              -2.00    28800.00
03937              -2.20    28800.00
03938              -2.60    28800.00
03939              -2.20    28000.00
03940              -2.20    28000.00
03941              -1.80    27200.00
03942              -2.20    27200.00
03943              -2.40    27200.00
03944              -1.40    25600.00
03945              -2.20    25600.00
03946              -2.20    24800.00
03947              -2.00    24800.00
03948              -2.20    24800.00
03949              -2.20    24000.00
03950              -2.00    24000.00
03951              -1.40    24000.00
03952              -2.20    22400.00
03953              -2.00    22400.00
03954              -1.40    21600.00
03955              -2.20    21600.00
03956              -1.80    20800.00
03957              -2.00    20000.00
03958              -1.60    20800.00
03959              -1.00    19200.00
03960              -2.00    18400.00
03961              -1.80    17600.00
03962              -1.40    17600.00
03963              -1.80    17600.00
03964              -1.40    16000.00
03965              -2.00    16000.00
03966              -1.20    15200.00
03967              -1.60    14400.00
03968              -1.00    14400.00
03969              -1.20    13600.00
03970              -1.40    12800.00
03971              -1.20    12800.00
03972              -0.60    12000.00
03973              -1.20    12000.00
03974              -1.20    11200.00
03975              -1.80    11200.00
03976              -0.40     9600.00
03977              -1.20     9600.00
03978              -1.20     8000.00
03979              -0.40     8000.00
03980              -1.80     7200.00
03981              -0.60     6400.00
03982              -0.40     5600.00
03983              -1.20     5600.00
03984               0.20     4800.00
03985              -0.60     4000.00
03986              -0.60     3200.00
03987              -0.20     3200.00
03988              -0.60     2400.00
03989              -0.60     1600.00
03990              -0.40      800.00
03991               0.20        0.00
03992               0.20     -800.00
03993               0.60     -800.00
03994               4.20    -1600.00
03995              -0.60    -1600.00
03996              -0.40    -2400.00
03997               1.80    -2400.00
03998               1.20    -3200.00
03999              -0.40    -3200.00
04000               4.20    -4800.00
04001              18.60    -5600.00
04002              21.80    -7200.00
04003             -25.00    -8000.00
04004             -19.80    -8000.00
04005              25.00    -8800.00
04006              -9.40    -9600.00
04007             -25.00    -9600.00
04008              25.00    -9600.00
04009              25.00   -10400.00
04010             -25.00   -10400.00
04011              25.00   -11200.00
04012              16.20   -11200.00
04013             -25.00   -12800.00
04014              25.00   -13600.00
04015             -22.20   -13600.00
04016              11.60   -14400.00
04017               4.20   -14400.00
04018             -25.00   -16000.00
04019              25.00   -16000.00
04020             -15.20   -16000.00
04021             -16.60   -16800.00
04022              25.00   -17600.00
04023              -3.00   -18400.00
04024             -23.80   -19200.00
04025              23.00   -19200.00
04026               5.00   -20000.00
04027             -25.00   -20000.00
04028              25.00   -20000.00
04029              -3.80   -20800.00
04030             -10.60   -22400.00
04031              17.40   -22400.00
04032              -8.80   -23200.00
04033              -2.80   -23200.00
04034              12.20   -24000.00
04035              -2.80   -24000.00
04036              -2.20   -24000.00
04037              13.40   -24800.00
04038              -9.00   -25600.00
04039               1.40   -25600.00
04040               8.40   -26400.00
04041              -6.80   -26400.00
04042               6.00   -27200.00
04043               4.20   -27200.00
04044              -1.80   -27200.00
04045               2.20   -28000.00
04046               3.40   -28000.00
04047              -1.20   -28800.00
04048               3.60   -28800.00
04049               3.60   -29600.00
04050              -1.20   -29600.00
04051               4.20   -29600.00
04052               2.60   -29600.00
04053              -0.60   -29600.00
04054               4.40   -30400.00
04055               2.00   -30400.00
04056              -0.60   -31200.00
04057               4.20   -30400.00
04058               1.00   -32000.00
04059               1.00   -32000.00
04060               3.40   -32000.00
04061               1.40   -32000.00
04062               2.60   -32000.00
04063               2.00   -32000.00
04064               1.40   -32800.00
04065               1.80   -32800.00
04066               1.80   -32800.00
04067               2.00   -32800.00
04068               1.80   -32800.00
04069               2.40   -33600.00
04070               1.80   -32800.00
04071               2.20   -32800.00
04072               1.40   -32800.00
04073               1.00   -32800.00
04074               2.60   -32800.00
04075               1.40   -32800.00
04076               2.00   -32000.00
04077               2.60   -33600.00
04078               1.00   -32800.00
04079               2.60   -33600.00
04080               2.00   -32800.00
04081               1.20   -32800.00
04082               2.00   -32800.00
04083               1.20   -32800.00
04084               2.00   -32800.00
04085               1.40   -32000.00
04086               1.80   -32000.00
04087               1.80   -32000.00
04088               1.40   -32000.00
04089               2.00   -32000.00
04090               1.00   -32000.00
04091               1.80   -31200.00
04092               2.00   -32000.00
04093               1.40   -30400.00
04094               2.20   -31200.00
04095               1.80   -30400.00
04096               1.40   -30400.00
04097               1.20   -30400.00
04098               1.40   -29600.00
04099               1.20   -29600.00
04100               1.80   -29600.00
04101               1.80   -28800.00
04102               1.40   -29600.00
04103               1.40   -28000.00
04104               1.60   -28000.00
04105               1.00   -27200.00
04106               2.00   -27200.00
04107               1.80   -27200.00
04108               1.00   -26400.00
04109               2.00   -26400.00
04110               1.20   -25600.00
04111               0.60   -25600.00
04112               2.20   -25600.00
04113               1.20   -24000.00
04114               1.00   -24000.00
04115               1.80   -24000.00
04116               1.00   -23200.00
04117               0.60   -23200.00
04118               1.80   -22400.00
04119               1.20   -22400.00
04120               0.80   -20800.00
04121               1.80   -20800.00
04122               1.20   -20800.00
04123               0.40   -20000.00
04124               1.00   -19200.00
04125               0.80   -18400.00
04126               1.00   -18400.00
04127               1.20   -17600.00
04128               0.40   -17600.00
04129               0.80   -17600.00
04130               1.00   -16800.00
04131               0.40   -16000.00
04132               0.20   -15200.00
04133               1.00   -14400.00
04134               0.60   -14400.00
04135               0.00   -13600.00
04136               0.40   -12800.00
04137               0.60   -12800.00
04138               0.20   -12000.00
04139               0.20   -11200.00
04140               0.40   -11200.00
04141               0.00   -10400.00
04142              -0.40    -9600.00
04143               0.20    -9600.00
04144               0.40    -8000.00
04145               0.20    -8000.00
04146              -0.40    -7200.00
04147              -0.20    -7200.00
04148               0.20    -6400.00
04149              -0.60    -4800.00
04150              -0.40    -4800.00
04151               0.00    -4000.00
04152              -1.00    -3200.00
04153              -0.60    -3200.00
04154               0.40    -2400.00
04155              -1.00    -1600.00
04156              -0.40     -800.00
04157               0.20     -800.00
04158              -1.20        0.00
04159               0.20      800.00
04160               1.20     1600.00
04161               3.00     1600.00
04162              -2.00     1600.00
04163              -1.20     2400.00
04164               0.60     3200.00
04165              -0.60     4000.00
04166              -0.40     4800.00
04167              14.80     5600.00
04168              25.00     7200.00
04169             -25.00     8000.00
04170             -25.00     8800.00
04171              25.00     8000.00
04172             -10.60     8800.00
04173             -25.00     8800.00
04174              25.00     9600.00
04175             -22.00     9600.00
04176             -25.00    11200.00
04177              25.00    11200.00
04178             -25.00    12000.00
04179              16.40    12800.00
04180              23.00    12800.00
04181             -25.00    14400.00
04182              25.00    14400.00
04183             -25.00    15200.00
04184              -0.20    15200.00
04185              25.00    16000.00
04186             -25.00    16800.00
04187              19.00    17600.00
04188              25.00    17600.00
04189             -25.00    18400.00
04190             -13.40    19200.00
04191              25.00    19200.00
04192             -25.00    20000.00
04193              -7.80    20800.00
04194              25.00    20800.00
04195             -25.00    21600.00
04196              12.80    22400.00
04197               0.60    22400.00
04198             -19.20    24000.00
04199               8.40    24000.00
04200               1.40    24000.00
04201             -10.80    24000.00
04202               8.20    24800.00
04203               1.80    24800.00
04204             -17.00    25600.00
04205              10.60    25600.00
04206              -7.40    25600.00
04207              -6.00    27200.00
04208               6.00    27200.00
04209              -6.40    27200.00
04210              -2.80    28000.00
04211               0.40    28000.00
04212              -3.80    28800.00
04213              -3.80    28800.00
04214               2.20    28800.00
04215              -4.40    29600.00
04216              -4.40    30400.00
04217               1.20    30400.00
04218              -5.00    30400.00
04219              -3.80    31200.00
04220               2.60    31200.00
04221              -5.60    31200.00
04222              -2.20    31200.00
04223              -0.20    32000.00
04224              -5.20    31200.00
04225              -2.20    32800.00
04226              -2.60    32800.00
04227              -2.00    32800.00
04228              -1.40    32800.00
04229              -2.60    32800.00
04230              -2.00    32800.00
04231              -3.60    32800.00
04232              -2.80    33600.00
04233              -2.20    33600.00
04234              -2.80    33600.00
04235              -2.00    33600.00
04236              -3.00    33600.00
04237              -0.80    33600.00
04238              -3.00    33600.00
04239              -3.00    33600.00
04240              -1.00    33600.00
04241              -4.20    33600.00
04242              -1.80    33600.00
04243              -1.80    33600.00
04244              -3.80    33600.00
04245              -2.00    33600.00
04246              -2.60    33600.00
04247              -2.60    33600.00
04248              -3.00    33600.00
04249              -2.20    33600.00
04250              -1.80    33600.00
04251              -2.80    32800.00
04252              -1.40    32800.00
04253              -2.80    32800.00
04254              -2.80    32800.00
04255              -2.00    32800.00
04256              -2.40    32800.00
04257              -2.00    32000.00
04258              -3.40    32800.00
04259              -2.60    31200.00
04260              -1.40    31200.00
04261              -2.80    31200.00
04262              -2.20    31200.00
04263              -2.00    31200.00
04264              -2.20    30400.00
04265              -2.00    30400.00
04266              -2.60    30400.00
04267              -2.60    29600.00
04268              -3.00    28800.00
04269              -2.00    28800.00
04270              -1.80    28800.00
04271              -2.20    28800.00
04272              -2.20    28000.00
04273              -3.40    28000.00
04274              -1.40    27200.00
04275              -1.40    27200.00
04276              -2.40    26400.00
04277              -1.40    26400.00
04278              -2.20    26400.00
04279              -1.60    25600.00
04280              -1.40    25600.00
04281              -3.40    24800.00
04282              -2.00    24000.00
04283              -1.40    24000.00
04284              -2.80    24000.00
04285              -1.40    22400.00
04286              -1.40    22400.00
04287              -2.20    21600.00
04288              -1.80    21600.00
04289              -1.80    20800.00
04290              -2.20    20800.00
04291              -2.20    19200.00
04292              -1.40    19200.00
04293              -1.80    18400.00
04294              -1.80    18400.00
04295              -1.40    17600.00
04296              -1.40    16800.00
04297              -1.20    16800.00
04298              -1.40    16000.00
04299              -1.40    16000.00
04300              -1.20    15200.00
04301              -1.20    14400.00
04302              -1.00    13600.00
04303              -1.20    13600.00
04304              -1.20    12800.00
04305              -0.60    12000.00
04306              -0.60    12000.00
04307              -1.80    11200.00
04308              -1.20     9600.00
04309              -0.60     9600.00
04310              -1.20     9600.00
04311              -1.40     8000.00
04312              -0.40     8000.00
04313              -1.20     8000.00
04314              -0.60     6400.00
04315              -0.60     7200.00
04316              -1.20     5600.00
04317              -0.60     5600.00
04318              -0.20     4000.00
04319              -1.00     4000.00
04320               0.40     3200.00
04321              -0.60     2400.00
04322              -1.20     1600.00
04323               0.20     1600.00
04324              -0.20      800.00
04325              -0.60        0.00
04326               0.40     -800.00
04327               2.80    -1600.00
04328               1.80     -800.00
04329              -1.60    -2400.00
04330               1.40    -3200.00
04331               1.80    -3200.00
04332              -0.60    -3200.00
04333               1.80    -4000.00
04334              11.60    -4800.00
04335              25.00    -6400.00
04336             -21.00    -8000.00
04337             -25.00    -8000.00
04338              19.60    -8000.00
04339              13.20    -8800.00
04340             -25.00    -8800.00
04341              10.40    -9600.00
04342              25.00   -10400.00
04343             -25.00   -10400.00
04344               9.00   -11200.00
04345              25.00   -12000.00
04346             -25.00   -12800.00
04347              24.40   -13600.00
04348               7.80   -13600.00
04349             -11.80   -13600.00
04350              24.40   -14400.00
04351             -25.00   -15200.00
04352              25.00   -16000.00
04353              12.00   -16000.00
04354             -25.00   -16800.00
04355              22.00   -16800.00
04356              14.60   -17600.00
04357             -25.00   -18400.00
04358               5.20   -19200.00
04359              24.40   -19200.00
04360             -25.00   -20000.00
04361              14.40   -20800.00
04362              16.20   -20800.00
04363             -19.60   -21600.00
04364              14.00   -21600.00
04365               0.60   -22400.00
04366             -10.20   -23200.00
04367               9.00   -23200.00
04368               4.40   -24000.00
04369              -7.00   -24000.00
04370              12.20   -24800.00
04371              -1.20   -25600.00
04372              -6.00   -25600.00
04373              11.60   -25600.00
04374              -4.40   -26400.00
04375               1.00   -27200.00
04376               7.40   -27200.00
04377              -1.20   -28000.00
04378               0.20   -27200.00
04379               5.20   -28000.00
04380              -0.20   -28800.00
04381               1.00   -28800.00
04382               5.20   -28800.00
04383              -0.40   -29600.00
04384               1.20   -29600.00
04385               4.40   -29600.00
04386              -0.60   -29600.00
04387               2.60   -30400.00
04388               4.40   -30400.00
04389              -0.60   -30400.00
04390               3.00   -31200.00
04391               2.20   -31200.00
04392              -0.20   -32000.00
04393               2.60   -32000.00
04394               1.80   -32000.00
04395               2.20   -32000.00
04396               2.40   -32800.00
04397               1.40   -32800.00
04398               1.60   -32800.00
04399               1.80   -32800.00
04400               2.20   -32800.00
04401               1.80   -32800.00
04402               2.20   -32800.00
04403               2.00   -32800.00
04404               1.60   -32800.00
04405               2.60   -32800.00
04406               0.60   -32800.00
04407               2.20   -32800.00
04408               2.60   -32800.00
04409               1.20   -32800.00
04410               2.80   -32800.00
04411               1.20   -32800.00
04412               1.40   -32800.00
04413               2.60   -32800.00
04414               1.80   -32800.00
04415               2.00   -32800.00
04416               1.40   -32800.00
04417               1.80   -32800.00
04418               1.80   -32800.00
04419               1.40   -32800.00
04420               1.80   -32000.00
04421               1.80   -32000.00
04422               2.00   -32000.00
04423               1.40   -32000.00
04424               1.40   -32000.00
04425               2.00   -31200.00
04426               1.20   -30400.00
04427               2.00   -30400.00
04428               2.00   -30400.00
04429               1.20   -30400.00
04430               1.80   -29600.00
04431               1.80   -29600.00
04432               1.20   -29600.00
04433               1.80   -28800.00
04434               1.20   -28800.00
04435               1.80   -28800.00
04436               2.00   -28000.00
04437               1.80   -28800.00
04438               1.40   -27200.00
04439               1.60   -27200.00
04440               1.40   -27200.00
04441               1.20   -26400.00
04442               1.20   -26400.00
04443               1.20   -25600.00
04444               1.40   -25600.00
04445               1.80   -24800.00
04446               1.20   -24000.00
04447               1.80   -24800.00
04448               1.40   -24000.00
04449               1.00   -24000.00
04450               1.20   -23200.00
04451               1.00   -22400.00
04452               1.00   -22400.00
04453               1.00   -22400.00
04454               1.40   -20800.00
04455               1.00   -20800.00
04456               0.80   -20000.00
04457               0.60   -19200.00
04458               0.80   -18400.00
04459               0.80   -18400.00
04460               0.60   -18400.00
04461               0.40   -17600.00
04462               1.00   -17600.00
04463               0.60   -16800.00
04464               0.80   -16000.00
04465               0.40   -16000.00
04466               0.20   -14400.00
04467               1.00   -13600.00
04468               0.20   -13600.00
04469               0.20   -13600.00
04470               0.40   -12800.00
04471              -0.60   -12000.00
04472               0.20   -11200.00
04473               0.60   -11200.00
04474              -0.20   -10400.00
04475               0.20   -10400.00
04476               0.40    -9600.00
04477               0.20    -8800.00
04478               0.00    -8000.00
04479              -0.60    -7200.00
04480              -0.20    -6400.00
04481               0.20    -6400.00
04482              -0.40    -6400.00
04483              -0.20    -4800.00
04484               0.00    -4000.00
04485              -0.80    -3200.00
04486              -0.40    -3200.00
04487               0.00    -2400.00
04488              -0.40    -1600.00
04489              -0.40    -1600.00
04490              -0.60     -800.00
04491              -0.60        0.00
04492               0.20        0.00
04493               0.40      800.00
04494               2.80     1600.00
04495               0.40     2400.00
04496              -2.40     2400.00
04497               0.40     4000.00
04498               0.40     3200.00
04499              -2.00     4000.00
04500               7.80     4800.00
04501              25.00     7200.00
04502             -13.80     8000.00
04503             -25.00     8000.00
04504              16.40     8000.00
04505              14.80     8800.00
04506             -25.00     8800.00
04507              25.00     9600.00
04508              25.00     9600.00
04509             -25.00    11200.00
04510              25.00    12000.00
04511              -6.80    11200.00
04512             -25.00    12800.00
04513              25.00    12800.00
04514             -25.00    12800.00
04515              25.00    14400.00
04516               5.40    14400.00
04517             -25.00    15200.00
04518              25.00    16000.00
04519             -25.00    16000.00
04520             -18.40    16800.00
04521              25.00    17600.00
04522             -14.20    17600.00
04523             -25.00    19200.00
04524              24.60    18400.00
04525               2.00    19200.00
04526             -25.00    20000.00
04527              25.00    20800.00
04528             -15.80    21600.00
04529              -8.40    22400.00
04530              18.40    21600.00
04531             -22.00    22400.00
04532               1.00    22400.00
04533               6.20    24000.00
04534              -9.20    24000.00
04535              -2.00    24800.00
04536              11.40    24800.00
04537             -16.40    24800.00
04538               2.80    25600.00
04539               2.00    26400.00
04540             -12.40    26400.00
04541               6.20    27200.00
04542              -2.80    28000.00
04543              -4.60    28000.00
04544               0.40    28000.00
04545              -1.40    28800.00
04546              -5.40    28800.00
04547               0.40    28800.00
04548              -1.20    29600.00
04549              -5.80    30400.00
04550              -0.80    30400.00
04551              -2.00    31200.00
04552              -5.20    30400.00
04553               1.20    31200.00
04554              -3.40    31200.00
04555              -2.80    31200.00
04556              -0.20    31200.00
04557              -5.80    32800.00
04558              -0.40    32000.00
04559              -2.20    32000.00
04560              -4.20    32800.00
04561               0.40    32800.00
04562              -2.80    32800.00
04563              -3.80    32800.00
04564              -3.40    33600.00
04565              -3.00    33600.00
04566              -0.20    33600.00
04567              -2.80    33600.00
04568              -2.60    33600.00
04569              -2.00    33600.00
04570              -3.00    33600.00
04571              -2.80    33600.00
04572              -1.80    33600.00
04573              -1.80    33600.00
04574              -3.00    33600.00
04575              -0.20    33600.00
04576              -2.80    33600.00
04577              -6.00    33600.00
04578              -1.00    33600.00
04579              -3.00    33600.00
04580              -2.20    33600.00
04581               0.40    33600.00
04582              -3.80    33600.00
04583              -2.80    33600.00
04584              -1.80    33600.00
04585              -3.40    32800.00
04586              -2.80    32800.00
04587              -1.40    32800.00
04588              -1.40    32800.00
04589              -2.80    32000.00
04590              -3.00    32800.00
04591              -3.00    32000.00
04592              -2.00    31200.00
04593              -1.80    31200.00
04594              -3.40    32000.00
04595              -2.20    32000.00
04596              -3.00    31200.00
04597              -2.60    31200.00
04598              -1.20    30400.00
04599              -2.00    30400.00
04600              -2.60    29600.00
04601              -1.80    29600.00
04602              -2.80    28800.00
04603              -3.00    28800.00
04604              -2.60    28800.00
04605              -2.20    28000.00
04606              -2.00    28000.00
04607              -1.20    27200.00
04608              -1.80    27200.00
04609              -2.80    27200.00
04610              -2.20    25600.00
04611              -2.40    25600.00
04612              -2.20    25600.00
04613              -1.80    25600.00
04614              -2.20    24800.00
04615              -1.80    24800.00
04616              -1.80    24000.00
04617              -2.00    24000.00
04618              -1.40    23200.00
04619              -2.00    22400.00
04620              -2.00    22400.00
04621              -1.80    22400.00
04622              -2.20    21600.00
04623              -2.20    20800.00
04624              -1.40    20800.00
04625              -1.00    19200.00
04626              -1.20    19200.00
04627              -1.00    18400.00
04628              -1.80    18400.00
04629              -2.20    17600.00
04630              -1.20    16800.00
04631              -1.40    16000.00
04632              -1.60    16000.00
04633              -0.40    15200.00
04634              -0.60    14400.00
04635              -1.40    14400.00
04636              -1.40    13600.00
04637              -1.40    12800.00
04638              -1.20    12800.00
04639              -0.60    12000.00
04640              -0.80    11200.00
04641              -1.00    11200.00
04642              -1.20    10400.00
04643              -0.60     9600.00
04644              -1.00     8800.00
04645              -1.00     8800.00
04646              -0.80     8000.00
04647              -0.60     7200.00
04648              -0.60     5600.00
04649              -0.60     6400.00
04650              -0.40     4800.00
04651              -0.60     4800.00
04652              -0.60     4000.00
04653              -0.20     3200.00
04654              -0.60     2400.00
04655              -0.80     2400.00
04656              -0.60     1600.00
04657              -0.60      800.00
04658              -0.60        0.00
04659               0.40     -800.00
04660               1.40     -800.00
04661               3.60    -1600.00
04662              -1.20    -1600.00
04663              -0.20    -2400.00
04664               1.80    -3200.00
04665               0.40    -3200.00
04666              -0.40    -4000.00
04667               7.20    -4000.00
04668              24.40    -6400.00
04669               5.20    -6400.00
04670             -25.00    -8000.00
04671              -0.60    -8000.00
04672              25.00    -8800.00
04673             -25.00    -9600.00
04674             -22.80    -8800.00
04675              25.00    -9600.00
04676             -13.00   -10400.00
04677             -25.00   -10400.00
04678              25.00   -12800.00
04679             -25.00   -12000.00
04680             -18.00   -12800.00
04681              25.00   -12800.00
04682             -25.00   -13600.00
04683              25.00   -14400.00
04684             -21.00   -14400.00
04685              -2.20   -16000.00
04686              25.00   -16000.00
04687             -25.00   -16800.00
04688               1.80   -16800.00
04689              25.00   -17600.00
04690             -17.20   -17600.00
04691             -13.00   -19200.00
04692              25.00   -19200.00
04693             -15.60   -20000.00
04694              -8.20   -20000.00
04695              25.00   -20800.00
04696             -17.20   -20800.00
04697               2.60   -22400.00
04698              11.00   -23200.00
04699             -13.20   -23200.00
04700               4.20   -23200.00
04701              10.00   -24000.00
04702              -7.00   -24000.00
04703               6.60   -24000.00
04704               9.20   -24800.00
04705             -10.20   -25600.00
04706               8.60   -25600.00
04707               1.80   -25600.00
04708              -6.00   -26400.00
04709               7.60   -26400.00
04710               1.00   -27200.00
04711              -1.20   -27200.00
04712               5.20   -28800.00
04713               2.80   -28000.00
04714               0.40   -28800.00
04715               4.40   -28800.00
04716               0.40   -28800.00
04717              -1.20   -29600.00
04718               3.60   -29600.00
04719              -0.20   -29600.00
04720               0.60   -29600.00
04721               6.20   -30400.00
04722               0.60   -30400.00
04723               1.60   -31200.00
04724               4.60   -31200.00
04725              -0.40   -32000.00
04726               1.00   -32000.00
04727               2.20   -32000.00
04728               1.80   -32000.00
04729               1.80   -32000.00
04730               1.40   -32800.00
04731               2.60   -32800.00
04732               2.20   -32000.00
04733               2.00   -32800.00
04734               2.00   -32800.00
04735               1.40   -32800.00
04736               1.60   -33600.00
04737               0.40   -32800.00
04738               2.80   -32800.00
04739               1.40   -32800.00
04740               1.20   -32800.00
04741               3.80   -32800.00
04742               1.20   -32800.00
04743               2.20   -32800.00
04744               2.00   -32800.00
04745               1.20   -33600.00
04746               2.00   -32800.00
04747               1.40   -32800.00
04748               1.40   -32800.00
04749               1.80   -32800.00
04750               2.20   -32800.00
04751               2.60   -32000.00
04752               2.00   -32000.00
04753               2.00   -32800.00
04754               1.20   -32000.00
04755               2.00   -32000.00
04756               2.00   -32000.00
04757               1.00   -32000.00
04758               2.40   -31200.00
04759               2.20   -32000.00
04760               1.80   -31200.00
04761               2.00   -30400.00
04762               1.80   -30400.00
04763               1.60   -30400.00
04764               2.00   -29600.00
04765               1.20   -29600.00
04766               1.40   -29600.00
04767               1.80   -28800.00
04768               1.00   -28800.00
04769               2.00   -28800.00
04770               2.00   -28800.00
04771               1.60   -28000.00
04772               1.40   -27200.00
04773               2.00   -27200.00
04774               1.00   -27200.00
04775               1.20   -26400.00
04776               1.40   -26400.00
04777               1.00   -25600.00
04778               1.80   -25600.00
04779               1.40   -25600.00
04780               1.20   -24000.00
04781               1.60   -24000.00
04782               0.60   -24000.00
04783               1.20   -23200.00
04784               1.40   -23200.00
04785               1.00   -22400.00
04786               1.20   -22400.00
04787               1.20   -21600.00
04788               1.20   -20800.00
04789               1.00   -20000.00
04790               0.60   -20000.00
04791               0.80   -18400.00
04792               0.60   -18400.00
04793               0.40   -17600.00
04794               0.60   -17600.00
04795               0.40   -17600.00
04796               0.40   -16000.00
04797               0.40   -16800.00
04798               1.00   -16000.00
04799               0.40   -15200.00
04800               0.40   -14400.00
04801               0.60   -14400.00
04802               0.20   -13600.00
04803               0.40   -12800.00
04804               0.20   -12000.00
04805               0.20   -12000.00
04806               0.20   -11200.00
04807              -0.20   -10400.00
04808               0.20   -10400.00
04809               0.20    -9600.00
04810              -0.20    -8000.00
04811               0.00    -8000.00
04812               0.20    -8000.00
04813               0.20    -6400.00
04814              -0.20    -7200.00
04815              -0.40    -6400.00
04816              -0.20    -4800.00
04817               0.20    -4800.00
04818              -0.40    -4000.00
04819               0.00    -3200.00
04820              -0.40    -2400.00
04821              -0.40    -1600.00
04822              -0.60    -1600.00
04823              -0.80     -800.00
04824               0.20        0.00
04825              -0.60        0.00
04826               0.40        0.00
04827               2.00     1600.00
04828               1.80     1600.00
04829              -2.60     2400.00
04830               0.00     3200.00
04831               0.40     4000.00
04832              -0.20     4800.00
04833               2.20     4800.00
04834              22.60     6400.00
04835              18.20     8000.00
04836             -25.00     8000.00
04837              -8.00     8000.00
04838              25.00     8000.00
04839             -25.00     8800.00
04840              -6.20     9600.00
04841              25.00     9600.00
04842             -25.00    10400.00
04843              21.20    11200.00
04844              25.00    12000.00
04845             -25.00    12000.00
04846              25.00    13600.00
04847             -25.00    12800.00
04848              -5.40    14400.00
04849              25.00    15200.00
04850             -25.00    15200.00
04851              25.00    16000.00
04852              15.40    16000.00
04853             -25.00    16800.00
04854              25.00    16800.00
04855               7.40    17600.00
04856             -25.00    18400.00
04857               5.20    19200.00
04858              24.40    19200.00
04859             -25.00    19200.00
04860              16.60    20800.00
04861              13.20    20800.00
04862             -25.00    21600.00
04863              22.60    22400.00
04864             -14.00    22400.00
04865              -9.80    23200.00
04866               8.40    24000.00
04867              -3.80    24000.00
04868              -8.20    24000.00
04869              12.60    24800.00
04870              -9.00    25600.00
04871              -8.60    25600.00
04872              10.00    25600.00
04873             -13.80    27200.00
04874               1.20    27200.00
04875               2.80    27200.00
04876              -6.20    28000.00
04877              -1.00    27200.00
04878              -0.20    28000.00
04879              -5.00    28800.00
04880              -1.80    28800.00
04881               1.20    29600.00
04882              -5.20    29600.00
04883              -2.20    30400.00
04884              -0.20    30400.00
04885              -6.00    30400.00
04886              -0.60    31200.00
04887               0.00    31200.00
04888              -5.80    31200.00
04889               0.60    31200.00
04890              -3.00    32000.00
04891              -4.20    32000.00
04892              -0.40    32800.00
04893              -3.40    32800.00
04894              -1.40    32800.00
04895              -1.20    32800.00
04896              -3.00    32800.00
04897              -2.20    32800.00
04898              -3.00    32800.00
04899              -2.20    33600.00
04900              -2.20    32800.00
04901              -1.80    33600.00
04902              -2.80    33600.00
04903              -2.80    33600.00
04904              -1.00    33600.00
04905              -3.80    33600.00
04906              -1.20    33600.00
04907              -2.20    33600.00
04908              -3.80    33600.00
04909               0.20    33600.00
04910              -3.80    33600.00
04911              -3.00    33600.00
04912              -1.00    33600.00
04913              -3.80    33600.00
04914              -2.00    33600.00
04915              -2.20    33600.00
04916              -3.00    33600.00
04917              -2.20    33600.00
04918              -2.00    33600.00
04919              -2.80    32800.00
04920              -2.80    32800.00
04921              -2.00    32800.00
04922              -3.00    32800.00
04923              -2.20    32800.00
04924              -2.20    32000.00
04925              -3.40    32000.00
04926              -1.80    32000.00
04927              -2.00    31200.00
04928              -2.80    31200.00
04929              -2.20    31200.00
04930              -2.20    30400.00
04931              -2.60    30400.00
04932              -2.20    30400.00
04933              -2.60    29600.00
04934              -2.60    29600.00
04935              -2.40    28800.00
04936              -2.00    28800.00
04937              -2.60    28800.00
04938              -2.00    28000.00
04939              -2.20    28000.00
04940              -2.20    27200.00
04941              -1.60    27200.00
04942              -2.20    26400.00
04943              -2.60    26400.00
04944              -1.40    26400.00
04945              -2.00    25600.00
04946              -1.80    25600.00
04947              -2.00    24800.00
04948              -2.20    24800.00
04949              -2.00    24000.00
04950              -1.80    24000.00
04951              -1.80    23200.00
04952              -2.00    22400.00
04953              -2.00    22400.00
04954              -1.80    22400.00
04955              -1.80    21600.00
04956              -1.80    20800.00
04957              -2.20    20000.00
04958              -1.20    19200.00
04959              -1.20    19200.00
04960              -2.00    18400.00
04961              -1.40    18400.00
04962              -1.60    17600.00
04963              -1.40    17600.00
04964              -1.20    16000.00
04965              -1.80    16800.00
04966              -1.20    16000.00
04967              -1.20    15200.00
04968              -1.20    14400.00
04969              -1.20    14400.00
04970              -1.20    13600.00
04971              -1.40    12800.00
04972              -0.40    12000.00
04973              -0.80    11200.00
04974              -1.20    11200.00
04975              -1.00    10400.00
04976              -0.40     9600.00
04977              -1.20     8800.00
04978              -1.20     8800.00
04979              -0.60     8000.00
04980              -1.20     8000.00
04981              -0.60     6400.00
04982              -0.60     6400.00
04983              -1.00     5600.00
04984              -0.20     4800.00
04985              -1.20     4000.00
04986              -0.60     3200.00
04987              -0.40     2400.00
04988              -0.60     2400.00
04989              -0.60     1600.00
04990              -0.20      800.00
04991              -0.60        0.00
04992               0.40        0.00
04993               0.60     -800.00
04994               3.20    -1600.00
04995              -0.20    -1600.00
04996              -1.40    -1600.00
04997               1.80    -2400.00
04998               1.20    -3200.00
04999              -0.60    -3200.00
05000               3.80    -4800.00
