Unit:(mV)
                     CH1         CH2
Frequency              ? 299.945 kHz
00001              25.00    -6400.00
00002             -25.00    -7200.00
00003             -25.00    -8000.00
00004              25.00    -8800.00
00005               1.00    -9600.00
00006             -25.00    -8800.00
00007              25.00    -9600.00
00008              25.00   -10400.00
00009             -25.00   -10400.00
00010              25.00   -12000.00
00011              25.00   -12000.00
00012             -25.00   -12800.00
00013              25.00   -13600.00
00014             -13.20   -13600.00
00015               4.20   -14400.00
00016              13.80   -14400.00
00017             -25.00   -16000.00
00018              25.00   -16000.00
00019              -6.00   -16000.00
00020             -23.60   -17600.00
00021              25.00   -17600.00
00022               3.60   -18400.00
00023             -25.00   -18400.00
00024              16.40   -19200.00
00025              12.20   -20000.00
00026             -25.00   -20800.00
00027              25.00   -20800.00
00028               1.40   -20800.00
00029             -13.80   -22400.00
00030              18.00   -22400.00
00031              -8.20   -23200.00
00032              -4.60   -24000.00
00033              11.00   -24000.00
00034              -1.80   -24000.00
00035              -4.20   -24000.00
00036              14.00   -25600.00
00037              -7.80   -25600.00
00038              -0.80   -26400.00
00039               9.80   -26400.00
00040              -8.40   -26400.00
00041               4.40   -27200.00
00042               4.40   -27200.00
00043              -2.80   -27200.00
00044               2.20   -28800.00
00045               3.40   -28800.00
00046              -1.80   -29600.00
00047               2.60   -28800.00
00048               3.00   -29600.00
00049              -2.20   -29600.00
00050               2.80   -30400.00
00051               2.20   -30400.00
00052              -1.80   -31200.00
00053               4.20   -31200.00
00054               2.40   -31200.00
00055              -1.40   -32000.00
00056               4.20   -32000.00
00057               0.40   -32000.00
00058              -0.20   -32000.00
00059               2.60   -32800.00
00060               1.00   -32800.00
00061               2.00   -32800.00
00062               1.80   -32800.00
00063               0.80   -32800.00
00064               1.20   -32800.00
00065               1.60   -33600.00
00066               1.40   -33600.00
00067               1.60   -33600.00
00068               2.00   -33600.00
00069               1.00   -33600.00
00070               1.80   -33600.00
00071               1.80   -33600.00
00072               0.40   -33600.00
00073               2.60   -33600.00
00074               1.80   -33600.00
00075               1.00   -33600.00
00076               2.60   -33600.00
00077               0.60   -33600.00
00078               1.40   -33600.00
00079               2.20   -33600.00
00080               1.20   -33600.00
00081               1.80   -33600.00
00082               1.40   -32800.00
00083               1.80   -32800.00
00084               1.40   -32800.00
00085               1.80   -33600.00
00086               1.80   -32800.00
00087               1.60   -32000.00
00088               2.00   -32000.00
00089               1.20   -32000.00
00090               1.20   -32000.00
00091               1.80   -32000.00
00092               1.00   -32000.00
00093               2.20   -31200.00
00094               1.20   -32000.00
00095               1.20   -31200.00
00096               1.80   -31200.00
00097               1.20   -30400.00
00098               1.20   -30400.00
00099               1.40   -29600.00
00100               1.00   -29600.00
00101               1.00   -29600.00
00102               1.20   -28800.00
00103               1.20   -28800.00
00104               1.00   -28000.00
00105               1.20   -28000.00
00106               1.00   -27200.00
00107               1.20   -27200.00
00108               0.60   -27200.00
00109               1.00   -26400.00
00110               1.20   -26400.00
00111               1.00   -25600.00
00112               0.40   -25600.00
00113               1.00   -24800.00
00114               1.00   -24000.00
00115               0.40   -24000.00
00116               0.80   -23200.00
00117               1.00   -23200.00
00118               0.60   -22400.00
00119               0.60   -21600.00
00120               0.60   -20800.00
00121               1.00   -20800.00
00122               0.20   -20800.00
00123               0.40   -18400.00
00124               0.60   -19200.00
00125               0.40   -19200.00
00126               0.40   -17600.00
00127               0.20   -18400.00
00128               0.40   -16800.00
00129               0.20   -16800.00
00130               0.60   -16000.00
00131               0.60   -16000.00
00132               0.20   -15200.00
00133               0.40   -14400.00
00134               0.40   -14400.00
00135               0.20   -13600.00
00136               0.20   -13600.00
00137               0.20   -12000.00
00138               0.00   -11200.00
00139              -0.20   -11200.00
00140               0.20   -11200.00
00141               0.40   -10400.00
00142              -0.40    -9600.00
00143               0.20    -8800.00
00144               0.40    -8000.00
00145              -0.40    -7200.00
00146              -0.20    -7200.00
00147               0.20    -6400.00
00148               0.20    -4800.00
00149              -0.40    -4800.00
00150              -0.40    -4000.00
00151              -0.20    -3200.00
00152              -0.20    -3200.00
00153              -0.40    -1600.00
00154              -0.40    -1600.00
00155              -0.40    -1600.00
00156              -0.60     -800.00
00157              -0.40        0.00
00158               0.00      800.00
00159               0.20     1600.00
00160               3.40     1600.00
00161              -0.80     2400.00
00162              -1.80     2400.00
00163               0.60     3200.00
00164               0.40     3200.00
00165              -1.40     4800.00
00166              10.80     5600.00
00167              25.00     7200.00
00168             -25.00     8000.00
00169             -25.00     8000.00
00170              25.00     8800.00
00171               2.20     8800.00
00172             -25.00     8000.00
00173              25.00    11200.00
00174              11.80    10400.00
00175             -25.00    11200.00
00176              25.00    12000.00
00177             -25.00    12000.00
00178              -7.60    12800.00
00179              25.00    12800.00
00180             -25.00    14400.00
00181              25.00    14400.00
00182             -25.00    15200.00
00183             -25.00    16000.00
00184              25.00    16000.00
00185             -25.00    16800.00
00186               6.20    17600.00
00187              25.00    18400.00
00188             -23.80    18400.00
00189             -19.60    19200.00
00190              25.00    19200.00
00191             -16.40    20800.00
00192             -18.20    20800.00
00193              25.00    21600.00
00194             -25.00    22400.00
00195               8.80    22400.00
00196               7.40    24000.00
00197             -22.00    24000.00
00198               9.20    24000.00
00199               2.20    24000.00
00200             -11.80    24000.00
00201               5.40    24800.00
00202               5.80    25600.00
00203             -17.40    25600.00
00204              11.80    26400.00
00205              -4.60    27200.00
00206              -9.00    27200.00
00207               8.20    27200.00
00208              -7.20    28000.00
00209              -3.00    28000.00
00210               2.00    28000.00
00211              -3.00    29600.00
00212              -3.20    28800.00
00213               2.20    30400.00
00214              -3.40    30400.00
00215              -4.20    30400.00
00216               1.20    31200.00
00217              -4.20    30400.00
00218              -3.60    31200.00
00219               2.40    31200.00
00220              -4.40    32000.00
00221              -1.20    32800.00
00222               0.40    32000.00
00223              -4.60    32800.00
00224              -0.20    32800.00
00225              -2.80    32800.00
00226              -3.40    33600.00
00227               0.20    33600.00
00228              -2.20    33600.00
00229              -2.20    33600.00
00230              -2.20    33600.00
00231              -2.60    34400.00
00232              -1.80    33600.00
00233              -2.20    34400.00
00234              -2.00    33600.00
00235              -3.20    34400.00
00236              -1.20    34400.00
00237              -2.20    33600.00
00238              -3.40    33600.00
00239              -0.60    34400.00
00240              -3.60    34400.00
00241              -1.20    33600.00
00242              -1.00    33600.00
00243              -3.80    34400.00
00244              -1.40    33600.00
00245              -2.60    33600.00
00246              -2.60    34400.00
00247              -2.20    34400.00
00248              -2.60    33600.00
00249              -1.80    33600.00
00250              -2.20    33600.00
00251              -1.80    33600.00
00252              -3.00    33600.00
00253              -2.20    33600.00
00254              -1.60    33600.00
00255              -2.40    33600.00
00256              -1.20    33600.00
00257              -2.60    32000.00
00258              -2.20    32800.00
00259              -1.20    32800.00
00260              -2.60    32800.00
00261              -2.20    31200.00
00262              -2.00    32000.00
00263              -2.20    31200.00
00264              -2.00    31200.00
00265              -2.00    31200.00
00266              -2.20    30400.00
00267              -1.80    30400.00
00268              -1.80    30400.00
00269              -1.80    29600.00
00270              -2.00    28800.00
00271              -1.80    28800.00
00272              -2.00    28800.00
00273              -1.40    28000.00
00274              -1.20    28000.00
00275              -2.20    27200.00
00276              -1.40    27200.00
00277              -1.40    27200.00
00278              -2.00    26400.00
00279              -1.40    25600.00
00280              -2.00    25600.00
00281              -1.60    24800.00
00282              -1.40    24800.00
00283              -1.20    24000.00
00284              -1.20    24000.00
00285              -1.40    23200.00
00286              -1.00    22400.00
00287              -1.40    22400.00
00288              -1.80    21600.00
00289              -1.40    20800.00
00290              -1.40    20000.00
00291              -1.00    19200.00
00292              -1.20    19200.00
00293              -1.40    18400.00
00294              -1.20    18400.00
00295              -1.40    17600.00
00296              -1.00    17600.00
00297              -1.80    16800.00
00298              -1.20    16000.00
00299              -1.40    15200.00
00300              -1.20    14400.00
00301              -0.60    14400.00
00302              -1.20    13600.00
00303              -1.80    13600.00
00304              -0.60    12800.00
00305              -0.80    12000.00
00306              -1.20    11200.00
00307              -1.00    11200.00
00308              -1.00    10400.00
00309              -1.00     9600.00
00310              -0.60     9600.00
00311              -0.60     8800.00
00312              -1.40     8000.00
00313              -0.60     8000.00
00314              -0.60     6400.00
00315              -1.00     6400.00
00316              -0.60     5600.00
00317              -0.60     4800.00
00318              -0.60     4000.00
00319              -0.60     3200.00
00320              -0.60     2400.00
00321              -0.20     2400.00
00322              -0.60     1600.00
00323              -0.40      800.00
00324               0.40        0.00
00325               0.20        0.00
00326               1.80     -800.00
00327               3.40    -1600.00
00328              -2.20    -2400.00
00329              -0.40    -3200.00
00330               2.00    -3200.00
00331               0.40    -4000.00
00332               0.40    -4000.00
00333               9.20    -4000.00
00334              25.00    -6400.00
00335              -7.60    -8000.00
00336             -25.00    -8000.00
00337              11.00    -8000.00
00338              21.40    -8800.00
00339             -25.00    -8800.00
00340              -9.20    -9600.00
00341              25.00   -10400.00
00342             -25.00   -10400.00
00343             -25.00   -11200.00
00344              25.00   -12000.00
00345             -25.00   -12000.00
00346               4.40   -13600.00
00347              22.80   -13600.00
00348             -22.20   -13600.00
00349              25.00   -14400.00
00350             -25.00   -14400.00
00351              14.20   -16000.00
00352              25.00   -16800.00
00353             -25.00   -16800.00
00354              13.00   -17600.00
00355              22.00   -17600.00
00356             -23.60   -19200.00
00357              -4.40   -19200.00
00358              25.00   -20000.00
00359             -25.00   -20000.00
00360               5.80   -20800.00
00361              22.40   -21600.00
00362             -20.60   -21600.00
00363              11.40   -22400.00
00364               4.20   -22400.00
00365             -12.20   -23200.00
00366               7.60   -24000.00
00367               5.80   -24000.00
00368              -8.60   -24000.00
00369              10.00   -25600.00
00370               2.60   -25600.00
00371              -9.40   -25600.00
00372              11.60   -26400.00
00373              -3.00   -27200.00
00374              -2.60   -27200.00
00375               7.80   -27200.00
00376              -2.00   -27200.00
00377              -0.40   -27200.00
00378               4.60   -28800.00
00379              -0.20   -28800.00
00380               0.40   -28800.00
00381               4.40   -29600.00
00382              -1.20   -29600.00
00383              -0.20   -29600.00
00384               4.20   -30400.00
00385              -1.40   -30400.00
00386               1.60   -30400.00
00387               4.60   -31200.00
00388              -1.40   -32000.00
00389               2.00   -31200.00
00390               2.60   -32000.00
00391              -0.80   -32000.00
00392               2.20   -32000.00
00393               1.80   -32800.00
00394               1.20   -32800.00
00395               2.60   -32800.00
00396               0.60   -33600.00
00397               1.20   -32800.00
00398               1.60   -32800.00
00399               1.00   -32800.00
00400               1.80   -32800.00
00401               1.80   -32800.00
00402               1.40   -33600.00
00403               1.20   -32800.00
00404               2.40   -33600.00
00405               0.40   -33600.00
00406               1.80   -33600.00
00407               2.60   -33600.00
00408               0.40   -33600.00
00409               2.80   -33600.00
00410               1.40   -33600.00
00411               0.60   -32800.00
00412               2.60   -33600.00
00413               1.20   -33600.00
00414               1.40   -32800.00
00415               1.60   -33600.00
00416               1.20   -33600.00
00417               1.40   -32800.00
00418               1.40   -32800.00
00419               1.60   -32800.00
00420               1.20   -32800.00
00421               1.80   -32800.00
00422               1.60   -32800.00
00423               1.00   -32000.00
00424               1.80   -32000.00
00425               1.00   -32000.00
00426               1.20   -32000.00
00427               1.80   -31200.00
00428               1.20   -30400.00
00429               1.80   -30400.00
00430               1.80   -29600.00
00431               0.80   -30400.00
00432               1.00   -29600.00
00433               1.40   -29600.00
00434               0.40   -28800.00
00435               1.20   -28800.00
00436               1.20   -28800.00
00437               0.60   -28800.00
00438               1.00   -28000.00
00439               1.60   -27200.00
00440               1.20   -27200.00
00441               1.00   -27200.00
00442               1.00   -27200.00
00443               1.00   -26400.00
00444               1.00   -25600.00
00445               1.00   -25600.00
00446               1.00   -24800.00
00447               0.80   -24800.00
00448               0.40   -24000.00
00449               0.60   -24000.00
00450               0.80   -23200.00
00451               0.60   -22400.00
00452               1.00   -22400.00
00453               1.00   -21600.00
00454               1.00   -20800.00
00455               0.40   -20800.00
00456               0.20   -20000.00
00457               0.40   -19200.00
00458               0.40   -19200.00
00459               0.40   -18400.00
00460               0.40   -17600.00
00461               0.80   -17600.00
00462               0.40   -16800.00
00463               0.40   -16000.00
00464               1.00   -16000.00
00465               0.20   -16000.00
00466               0.40   -14400.00
00467               0.40   -14400.00
00468               0.20   -13600.00
00469               0.60   -12800.00
00470               0.20   -12800.00
00471               0.40   -12000.00
00472               0.40   -11200.00
00473              -0.20   -10400.00
00474              -0.20   -10400.00
00475               0.20    -9600.00
00476              -0.40    -8000.00
00477               0.40    -8000.00
00478              -0.20    -8000.00
00479              -0.40    -7200.00
00480               0.20    -7200.00
00481              -0.20    -6400.00
00482              -0.20    -4800.00
00483               0.20    -4000.00
00484              -0.40    -4800.00
00485              -0.40    -3200.00
00486              -0.20    -3200.00
00487              -0.60    -1600.00
00488              -0.40    -1600.00
00489              -0.40     -800.00
00490              -0.20        0.00
00491              -0.40        0.00
00492               0.20     1600.00
00493               1.80     1600.00
00494               2.00     2400.00
00495              -3.00     2400.00
00496              -0.20     3200.00
00497               1.00     3200.00
00498              -1.60     4800.00
00499               4.60     5600.00
00500              25.00     7200.00
00501               3.80     8000.00
00502             -25.00     8000.00
00503               4.60     8800.00
00504              24.40     8800.00
00505             -25.00     8800.00
00506              13.40     9600.00
00507              25.00    10400.00
00508             -25.00    10400.00
00509              25.00    12000.00
00510              25.00    12000.00
00511             -25.00    12800.00
00512              25.00    13600.00
00513             -25.00    14400.00
00514              25.00    14400.00
00515              25.00    15200.00
00516             -25.00    15200.00
00517              25.00    16000.00
00518             -12.20    16800.00
00519             -25.00    17600.00
00520              25.00    17600.00
00521              -4.40    19200.00
00522             -25.00    18400.00
00523              16.40    19200.00
00524              14.00    20000.00
00525             -25.00    21600.00
00526              25.00    21600.00
00527              -4.60    21600.00
00528             -16.40    22400.00
00529              23.80    23200.00
00530             -22.00    23200.00
00531              -1.40    24000.00
00532               8.40    24000.00
00533              -8.60    24800.00
00534              -3.80    24800.00
00535              14.20    25600.00
00536             -14.60    25600.00
00537              -0.60    25600.00
00538               7.40    26400.00
00539             -15.40    27200.00
00540               6.20    27200.00
00541              -0.40    28000.00
00542              -5.80    28000.00
00543               2.00    28800.00
00544              -1.40    28800.00
00545              -5.80    28800.00
00546               1.00    29600.00
00547              -0.40    30400.00
00548              -5.80    30400.00
00549               0.60    31200.00
00550              -1.00    30400.00
00551              -6.20    30400.00
00552               2.00    31200.00
00553              -1.20    32000.00
00554              -5.20    32000.00
00555               1.80    32800.00
00556              -3.80    32000.00
00557              -3.60    32800.00
00558              -0.60    32800.00
00559              -3.60    33600.00
00560              -0.60    32800.00
00561              -1.00    32800.00
00562              -3.20    33600.00
00563              -2.20    33600.00
00564              -2.20    33600.00
00565              -2.20    33600.00
00566              -2.00    33600.00
00567              -1.40    33600.00
00568              -3.60    34400.00
00569              -2.00    34400.00
00570              -0.60    34400.00
00571              -4.40    34400.00
00572              -0.60    34400.00
00573              -2.80    34400.00
00574              -3.60    34400.00
00575               0.20    34400.00
00576              -3.60    34400.00
00577              -2.20    34400.00
00578              -0.60    33600.00
00579              -3.40    34400.00
00580              -2.00    34400.00
00581              -2.60    34400.00
00582              -2.60    33600.00
00583              -2.00    33600.00
00584              -1.20    33600.00
00585              -2.00    33600.00
00586              -2.60    33600.00
00587              -1.20    32800.00
00588              -3.00    33600.00
00589              -2.20    32800.00
00590              -1.80    33600.00
00591              -2.80    32800.00
00592              -1.00    32800.00
00593              -1.40    32000.00
00594              -2.60    32000.00
00595              -2.00    32000.00
00596              -2.00    31200.00
00597              -2.20    31200.00
00598              -1.80    31200.00
00599              -1.80    30400.00
00600              -2.20    30400.00
00601              -1.80    30400.00
00602              -1.00    30400.00
00603              -1.80    28800.00
00604              -2.00    28800.00
00605              -2.00    28000.00
00606              -2.00    28000.00
00607              -1.60    28000.00
00608              -2.00    28000.00
00609              -1.40    27200.00
00610              -0.40    27200.00
00611              -1.80    25600.00
00612              -1.40    25600.00
00613              -2.00    24800.00
00614              -2.20    24800.00
00615              -1.20    24800.00
00616              -1.40    24800.00
00617              -1.20    24000.00
00618              -1.20    23200.00
00619              -1.60    23200.00
00620              -1.20    22400.00
00621              -1.80    21600.00
00622              -1.40    21600.00
00623              -1.60    20800.00
00624              -1.40    20800.00
00625              -1.20    19200.00
00626              -1.40    19200.00
00627              -1.40    18400.00
00628              -1.40    18400.00
00629              -0.60    17600.00
00630              -1.20    16000.00
00631              -1.80    16000.00
00632              -0.60    16000.00
00633              -2.00    15200.00
00634              -1.20    14400.00
00635              -0.60    14400.00
00636              -1.20    13600.00
00637              -1.00    12800.00
00638              -0.60    12000.00
00639              -1.00    12000.00
00640              -0.60    11200.00
00641              -1.20    10400.00
00642              -0.60     9600.00
00643              -0.60     9600.00
00644              -1.00     8800.00
00645              -1.00     8000.00
00646              -0.60     7200.00
00647              -1.00     7200.00
00648              -0.60     6400.00
00649              -1.00     5600.00
00650              -0.40     4800.00
00651              -0.80     4800.00
00652              -0.60     4000.00
00653              -0.40     3200.00
00654              -0.20     2400.00
00655              -0.60     1600.00
00656               0.40     1600.00
00657              -0.20        0.00
00658              -0.20        0.00
00659               0.40     -800.00
00660               4.20     -800.00
00661              -0.60    -1600.00
00662              -1.00    -1600.00
00663               2.00    -3200.00
00664               1.00    -3200.00
00665              -0.40    -4000.00
00666               5.20    -4800.00
00667              20.20    -5600.00
00668              17.80    -7200.00
00669             -25.00    -7200.00
00670             -14.80    -8000.00
00671              25.00    -8000.00
00672             -14.40    -8800.00
00673             -25.00    -8800.00
00674              25.00   -10400.00
00675              25.00   -10400.00
00676             -25.00   -10400.00
00677              25.00   -12000.00
00678               2.80   -11200.00
00679             -25.00   -12800.00
00680              25.00   -13600.00
00681             -25.00   -13600.00
00682              19.60   -14400.00
00683              -6.00   -14400.00
00684             -19.40   -16000.00
00685              25.00   -16000.00
00686             -22.60   -16800.00
00687             -10.60   -17600.00
00688              25.00   -17600.00
00689              -9.00   -18400.00
00690             -21.40   -19200.00
00691              25.00   -19200.00
00692              -3.40   -20000.00
00693             -19.80   -20800.00
00694              25.00   -20800.00
00695             -11.40   -21600.00
00696              -5.00   -22400.00
00697              15.40   -22400.00
00698             -12.60   -23200.00
00699               0.80   -24000.00
00700              10.80   -24000.00
00701              -6.00   -24000.00
00702               1.00   -25600.00
00703              11.80   -25600.00
00704             -11.60   -26400.00
00705               5.40   -26400.00
00706               6.00   -26400.00
00707              -7.80   -27200.00
00708               7.40   -27200.00
00709               2.00   -27200.00
00710              -2.20   -28000.00
00711               3.40   -28800.00
00712               2.20   -28800.00
00713              -1.40   -28800.00
00714               3.80   -29600.00
00715               2.00   -29600.00
00716              -1.80   -30400.00
00717               3.80   -30400.00
00718               0.60   -30400.00
00719              -0.60   -31200.00
00720               4.60   -30400.00
00721               1.00   -31200.00
00722               0.00   -32000.00
00723               3.80   -32000.00
00724              -0.20   -32800.00
00725               1.20   -32000.00
00726               2.40   -32800.00
00727               0.80   -32800.00
00728               2.60   -32800.00
00729               1.20   -32800.00
00730               1.20   -32800.00
00731               1.80   -32800.00
00732               1.40   -33600.00
00733               1.80   -33600.00
00734               1.80   -32800.00
00735               2.00   -33600.00
00736               1.40   -33600.00
00737               2.00   -33600.00
00738               1.20   -33600.00
00739               0.40   -32800.00
00740               2.60   -33600.00
00741               1.00   -33600.00
00742               1.80   -33600.00
00743               2.60   -33600.00
00744               0.40   -33600.00
00745               2.00   -33600.00
00746               2.00   -33600.00
00747               1.00   -33600.00
00748               2.00   -32800.00
00749               1.40   -33600.00
00750               1.00   -32800.00
00751               1.60   -33600.00
00752               1.40   -33600.00
00753               1.00   -32800.00
00754               1.60   -32800.00
00755               1.20   -32800.00
00756               0.80   -32800.00
00757               2.00   -32800.00
00758               1.00   -32000.00
00759               1.00   -32000.00
00760               2.80   -32000.00
00761               0.40   -32000.00
00762               0.40   -30400.00
00763               2.20   -30400.00
00764               1.40   -30400.00
00765               0.40   -30400.00
00766               1.60   -29600.00
00767               0.60   -29600.00
00768               1.00   -29600.00
00769               1.20   -28800.00
00770               1.20   -28800.00
00771               0.60   -28800.00
00772               1.20   -27200.00
00773               1.00   -27200.00
00774               1.40   -26400.00
00775               1.00   -26400.00
00776               0.20   -26400.00
00777               1.20   -26400.00
00778               1.20   -25600.00
00779               0.40   -25600.00
00780               1.40   -24800.00
00781               1.00   -24000.00
00782               0.60   -24000.00
00783               0.40   -23200.00
00784               0.60   -22400.00
00785               0.60   -22400.00
00786               0.60   -22400.00
00787               1.40   -21600.00
00788               0.40   -20800.00
00789               0.20   -20000.00
00790               1.20   -18400.00
00791               0.40   -19200.00
00792               0.40   -18400.00
00793               1.00   -18400.00
00794               0.40   -17600.00
00795               0.20   -16800.00
00796               0.60   -16800.00
00797               0.60   -16000.00
00798               0.20   -15200.00
00799               0.60   -14400.00
00800               0.40   -14400.00
00801               0.20   -14400.00
00802               0.40   -13600.00
00803               0.20   -12800.00
00804               0.20   -12800.00
00805               0.60   -12000.00
00806               0.20   -11200.00
00807              -0.20   -10400.00
00808               0.00    -9600.00
00809              -0.20    -9600.00
00810               0.20    -8000.00
00811               0.20    -8000.00
00812              -0.20    -7200.00
00813               0.40    -6400.00
00814              -0.20    -6400.00
00815              -0.40    -4800.00
00816              -0.20    -4800.00
00817              -0.60    -4000.00
00818              -0.60    -3200.00
00819              -0.20    -2400.00
00820              -0.80    -1600.00
00821              -0.60    -1600.00
00822              -0.40     -800.00
00823              -0.60     -800.00
00824              -0.20        0.00
00825               0.40      800.00
00826               0.40     1600.00
00827               3.20     2400.00
00828              -2.20     3200.00
00829              -1.20     2400.00
00830               0.60     3200.00
00831              -0.40     3200.00
00832               0.20     4800.00
00833              16.40     5600.00
00834              25.00     7200.00
00835             -25.00     8000.00
00836             -25.00     8000.00
00837              25.00     8800.00
00838             -15.60     8800.00
00839             -25.00     8800.00
00840              25.00    11200.00
00841             -25.00     9600.00
00842             -25.00    11200.00
00843              25.00    12000.00
00844             -25.00    11200.00
00845              25.00    13600.00
00846               8.20    12800.00
00847             -25.00    14400.00
00848              25.00    14400.00
00849             -25.00    14400.00
00850              16.60    16000.00
00851              25.00    16000.00
00852             -25.00    17600.00
00853              25.00    17600.00
00854              21.20    18400.00
00855             -25.00    18400.00
00856              -7.80    20000.00
00857              25.00    19200.00
00858             -25.00    20800.00
00859               2.60    21600.00
00860              25.00    21600.00
00861             -25.00    22400.00
00862              20.60    22400.00
00863              -6.80    23200.00
00864             -16.20    24000.00
00865              11.40    24000.00
00866              -2.00    24000.00
00867             -10.00    24800.00
00868              11.80    25600.00
00869              -3.00    25600.00
00870             -14.00    25600.00
00871              13.20    26400.00
00872             -11.60    27200.00
00873              -2.00    27200.00
00874               6.20    28000.00
00875              -8.00    28000.00
00876              -0.60    28800.00
00877               0.20    28800.00
00878              -4.60    28800.00
00879              -1.80    29600.00
00880               2.00    30400.00
00881              -4.40    30400.00
00882              -2.40    30400.00
00883               0.40    30400.00
00884              -5.40    31200.00
00885              -1.20    31200.00
00886               1.20    32800.00
00887              -5.40    32000.00
00888               0.20    32800.00
00889              -2.00    32000.00
00890              -5.00    32800.00
00891               0.60    32800.00
00892              -3.40    33600.00
00893              -2.00    32800.00
00894               0.20    33600.00
00895              -3.60    33600.00
00896              -2.40    33600.00
00897              -2.60    34400.00
00898              -2.80    33600.00
00899              -2.00    33600.00
00900              -1.80    34400.00
00901              -2.20    34400.00
00902              -2.60    33600.00
00903              -0.60    34400.00
00904              -3.60    34400.00
00905              -2.60    34400.00
00906              -1.20    34400.00
00907              -4.20    34400.00
00908              -0.40    34400.00
00909              -2.20    34400.00
00910              -3.60    34400.00
00911              -0.60    34400.00
00912              -2.40    34400.00
00913              -2.00    34400.00
00914              -2.20    33600.00
00915              -3.00    33600.00
00916              -2.20    33600.00
00917              -2.00    33600.00
00918              -1.80    33600.00
00919              -2.60    33600.00
00920              -1.20    33600.00
00921              -1.80    33600.00
00922              -2.40    32800.00
00923              -1.40    32800.00
00924              -3.00    33600.00
00925              -1.80    32000.00
00926              -1.40    32800.00
00927              -2.20    32000.00
00928              -2.00    32000.00
00929              -2.00    31200.00
00930              -1.80    31200.00
00931              -2.00    31200.00
00932              -2.00    30400.00
00933              -2.00    30400.00
00934              -2.00    30400.00
00935              -2.00    29600.00
00936              -2.00    28800.00
00937              -2.00    28800.00
00938              -1.80    28800.00
00939              -2.00    28800.00
00940              -1.40    28000.00
00941              -1.40    27200.00
00942              -2.20    27200.00
00943              -1.20    27200.00
00944              -1.40    26400.00
00945              -2.00    25600.00
00946              -1.40    25600.00
00947              -2.00    24800.00
00948              -1.40    24800.00
00949              -1.80    24800.00
00950              -1.40    24000.00
00951              -1.40    23200.00
00952              -2.00    23200.00
00953              -1.20    22400.00
00954              -1.40    21600.00
00955              -1.80    20800.00
00956              -1.80    20800.00
00957              -1.40    20800.00
00958              -1.00    19200.00
00959              -1.40    19200.00
00960              -1.20    18400.00
00961              -1.20    18400.00
00962              -0.60    17600.00
00963              -1.80    16800.00
00964              -1.20    16000.00
00965              -1.00    16000.00
00966              -2.20    15200.00
00967              -1.20    14400.00
00968              -1.00    14400.00
00969              -1.20    14400.00
00970              -0.80    12800.00
00971              -1.40    12800.00
00972              -0.60    12000.00
00973              -1.00    11200.00
00974              -2.00    11200.00
00975              -0.40    10400.00
00976              -0.20     9600.00
00977              -1.20     8800.00
00978              -0.40     8800.00
00979              -1.00     8000.00
00980              -1.20     7200.00
00981              -0.40     7200.00
00982              -0.60     5600.00
00983              -1.00     5600.00
00984               1.00     4800.00
00985              -0.60     3200.00
00986              -0.60     3200.00
00987               0.20     2400.00
00988              -1.20     2400.00
00989              -1.20     1600.00
00990               0.60      800.00
00991               0.40        0.00
00992               0.20     -800.00
00993               3.80    -1600.00
00994               2.00    -1600.00
00995              -2.20    -1600.00
00996               1.80    -3200.00
00997               1.00    -3200.00
00998              -0.60    -4000.00
00999               2.60    -4000.00
01000              12.60    -4800.00
01001              25.00    -6400.00
01002             -25.00    -7200.00
01003             -25.00    -8000.00
01004              21.60    -8800.00
01005              10.00    -8800.00
01006             -25.00    -8800.00
01007              15.60    -9600.00
01008              25.00   -10400.00
01009             -25.00   -10400.00
01010              16.40   -11200.00
01011              25.00   -12000.00
01012             -25.00   -12800.00
01013              25.00   -13600.00
01014               0.20   -13600.00
01015              -6.80   -14400.00
01016              22.80   -15200.00
01017             -25.00   -16000.00
01018              25.00   -16000.00
01019               6.20   -16000.00
01020             -25.00   -17600.00
01021              24.60   -17600.00
01022              11.00   -17600.00
01023             -25.00   -19200.00
01024               8.40   -18400.00
01025              20.20   -20000.00
01026             -25.00   -20000.00
01027              19.60   -20800.00
01028              10.20   -20800.00
01029             -18.00   -21600.00
01030              16.60   -22400.00
01031              -4.20   -22400.00
01032              -8.60   -23200.00
01033               9.80   -23200.00
01034               1.80   -24000.00
01035              -7.00   -24800.00
01036              13.20   -24800.00
01037              -3.80   -25600.00
01038              -4.60   -26400.00
01039              10.80   -26400.00
01040              -6.60   -26400.00
01041               2.20   -26400.00
01042               6.60   -27200.00
01043              -2.60   -28000.00
01044               1.00   -28000.00
01045               4.20   -28800.00
01046              -1.60   -28800.00
01047               1.80   -28800.00
01048               4.40   -29600.00
01049              -2.20   -29600.00
01050               2.00   -29600.00
01051               3.40   -30400.00
01052              -1.80   -30400.00
01053               3.40   -30400.00
01054               3.40   -31200.00
01055              -1.40   -31200.00
01056               3.60   -32000.00
01057               1.40   -32000.00
01058              -0.40   -32000.00
01059               2.80   -32000.00
01060               1.00   -32800.00
01061               2.00   -32800.00
01062               2.00   -32800.00
01063               0.80   -33600.00
01064               1.40   -32800.00
01065               1.80   -33600.00
01066               1.20   -32800.00
01067               1.40   -33600.00
01068               2.00   -33600.00
01069               1.20   -33600.00
01070               1.40   -33600.00
01071               2.00   -33600.00
01072               0.40   -33600.00
01073               2.60   -33600.00
01074               2.00   -33600.00
01075               0.40   -33600.00
01076               2.60   -33600.00
01077               0.60   -33600.00
01078               1.00   -33600.00
01079               2.00   -33600.00
01080               1.00   -33600.00
01081               1.40   -33600.00
01082               1.40   -33600.00
01083               1.60   -33600.00
01084               1.40   -33600.00
01085               1.80   -32800.00
01086               1.20   -32800.00
01087               1.20   -32800.00
01088               1.80   -32000.00
01089               0.60   -32000.00
01090               1.00   -32000.00
01091               1.80   -32000.00
01092               0.60   -32000.00
01093               1.80   -31200.00
01094               1.40   -31200.00
01095               1.00   -31200.00
01096               1.80   -30400.00
01097               1.00   -29600.00
01098               0.80   -30400.00
01099               1.20   -30400.00
01100               1.00   -29600.00
01101               1.20   -28800.00
01102               1.40   -29600.00
01103               0.60   -28800.00
01104               1.00   -28800.00
01105               1.00   -28000.00
01106               1.20   -28000.00
01107               1.20   -27200.00
01108               1.20   -26400.00
01109               0.60   -26400.00
01110               0.80   -25600.00
01111               1.20   -25600.00
01112               0.60   -25600.00
01113               1.00   -24800.00
01114               1.20   -24000.00
01115               0.60   -24000.00
01116               1.00   -23200.00
01117               1.00   -23200.00
01118               1.00   -22400.00
01119               1.00   -22400.00
01120               0.60   -21600.00
01121               0.60   -21600.00
01122               0.20   -20800.00
01123               0.80   -20000.00
01124               0.80   -20000.00
01125               1.00   -18400.00
01126               1.40   -18400.00
01127               0.40   -17600.00
01128               1.00   -17600.00
01129               0.20   -16800.00
01130               0.20   -16000.00
01131               0.20   -16000.00
01132               0.20   -15200.00
01133               0.60   -14400.00
01134               0.40   -13600.00
01135               1.00   -13600.00
01136               1.00   -12800.00
01137               0.20   -12000.00
01138               0.60   -12000.00
01139               0.20   -11200.00
01140              -1.00   -10400.00
01141              -0.60    -9600.00
01142              -0.60    -9600.00
01143              -0.20    -8000.00
01144               0.60    -8000.00
01145               0.60    -8000.00
01146               0.40    -7200.00
01147               0.40    -6400.00
01148              -0.40    -4800.00
01149              -0.80    -4800.00
01150              -0.60    -4000.00
01151              -1.20    -4000.00
01152              -0.60    -3200.00
01153               0.20    -3200.00
01154              -0.40    -1600.00
01155               0.00    -1600.00
01156               0.20     -800.00
01157              -0.60        0.00
01158              -0.20        0.00
01159               0.20     1600.00
01160               2.00     1600.00
01161              -0.20     2400.00
01162              -2.20     3200.00
01163               0.60     3200.00
01164               0.80     4000.00
01165              -1.00     4800.00
01166               8.40     5600.00
01167              25.00     7200.00
01168             -18.00     8000.00
01169             -25.00     8000.00
01170              18.80     8800.00
01171              11.60     8800.00
01172             -25.00     8800.00
01173              25.00     9600.00
01174              25.00    10400.00
01175             -25.00    11200.00
01176              25.00    12000.00
01177             -17.00    12000.00
01178             -25.00    12800.00
01179              25.00    13600.00
01180             -25.00    14400.00
01181              25.00    14400.00
01182              -4.80    15200.00
01183             -25.00    15200.00
01184              25.00    16000.00
01185             -25.00    16800.00
01186             -10.20    17600.00
01187              25.00    18400.00
01188             -17.80    18400.00
01189             -24.40    19200.00
01190              25.00    19200.00
01191              -4.40    20800.00
01192             -25.00    20800.00
01193              25.00    21600.00
01194             -22.60    21600.00
01195              -1.20    22400.00
01196              15.40    23200.00
01197             -23.80    24000.00
01198               6.60    24000.00
01199               5.80    24000.00
01200             -11.00    24800.00
01201               1.80    24800.00
01202               9.80    25600.00
01203             -18.80    25600.00
01204               7.60    25600.00
01205               0.60    27200.00
01206             -12.40    27200.00
01207               8.40    27200.00
01208              -5.00    28000.00
01209              -4.60    28000.00
01210               2.00    28800.00
01211              -2.20    28800.00
01212              -4.40    29600.00
01213               2.00    30400.00
01214              -2.20    30400.00
01215              -5.40    30400.00
01216               0.40    31200.00
01217              -2.80    31200.00
01218              -4.20    31200.00
01219               2.60    31200.00
01220              -4.00    32000.00
01221              -3.00    32000.00
01222               0.40    32800.00
01223              -5.20    32000.00
01224              -1.00    32800.00
01225              -1.80    32800.00
01226              -3.60    32800.00
01227               0.20    33600.00
01228              -2.60    33600.00
01229              -3.00    33600.00
01230              -1.80    33600.00
01231              -2.80    33600.00
01232              -2.00    33600.00
01233              -2.20    33600.00
01234              -1.80    34400.00
01235              -3.00    34400.00
01236              -1.20    33600.00
01237              -1.40    33600.00
01238              -3.20    34400.00
01239              -0.40    34400.00
01240              -3.00    34400.00
01241              -2.00    34400.00
01242              -1.20    34400.00
01243              -3.60    34400.00
01244              -1.40    34400.00
01245              -2.00    34400.00
01246              -2.20    33600.00
01247              -2.00    33600.00
01248              -2.80    33600.00
01249              -2.00    33600.00
01250              -2.00    33600.00
01251              -1.40    33600.00
01252              -2.60    33600.00
01253              -2.20    33600.00
01254              -1.20    33600.00
01255              -2.80    32800.00
01256              -1.40    33600.00
01257              -1.80    32800.00
01258              -2.60    32000.00
01259              -1.00    32800.00
01260              -2.00    32800.00
01261              -2.80    32000.00
01262              -2.00    32000.00
01263              -2.20    31200.00
01264              -1.60    31200.00
01265              -1.80    30400.00
01266              -2.00    30400.00
01267              -2.00    30400.00
01268              -2.00    30400.00
01269              -1.80    29600.00
01270              -2.00    28800.00
01271              -1.80    28800.00
01272              -2.00    28800.00
01273              -1.80    28000.00
01274              -1.40    28000.00
01275              -2.60    27200.00
01276              -2.00    27200.00
01277              -1.20    26400.00
01278              -2.00    26400.00
01279              -1.20    25600.00
01280              -2.00    25600.00
01281              -2.00    24800.00
01282              -1.40    24800.00
01283              -1.60    24000.00
01284              -1.60    24000.00
01285              -2.00    24000.00
01286              -1.40    22400.00
01287              -1.20    22400.00
01288              -2.00    21600.00
01289              -1.80    20800.00
01290              -1.80    20000.00
01291              -1.20    20000.00
01292              -1.20    19200.00
01293              -1.40    19200.00
01294              -1.20    18400.00
01295              -1.40    17600.00
01296              -1.20    17600.00
01297              -1.40    16800.00
01298              -1.40    16000.00
01299              -1.00    15200.00
01300              -1.40    15200.00
01301              -0.60    14400.00
01302              -1.20    14400.00
01303              -1.20    12800.00
01304              -1.00    12800.00
01305              -1.00    12000.00
01306              -1.00    12000.00
01307              -1.00    11200.00
01308              -0.60    10400.00
01309              -0.20     9600.00
01310              -1.20     8800.00
01311              -0.80     8800.00
01312              -1.00     8000.00
01313              -1.00     7200.00
01314              -0.40     6400.00
01315              -0.20     6400.00
01316              -1.00     5600.00
01317              -0.20     4800.00
01318              -0.60     4000.00
01319              -0.40     3200.00
01320              -0.40     3200.00
01321              -0.60     2400.00
01322              -0.40     1600.00
01323              -0.40     1600.00
01324              -0.20        0.00
01325               0.40     -800.00
01326               1.40     -800.00
01327               4.20     -800.00
01328              -1.20    -1600.00
01329              -0.20    -3200.00
01330               2.00    -2400.00
01331               0.60    -3200.00
01332               0.20    -4000.00
01333               7.60    -4800.00
01334              25.00    -5600.00
01335               4.20    -7200.00
01336             -25.00    -8000.00
01337               1.20    -8800.00
01338              25.00    -8800.00
01339             -25.00    -9600.00
01340             -21.80    -8800.00
01341              25.00   -10400.00
01342             -14.40   -10400.00
01343             -25.00   -10400.00
01344              25.00   -12000.00
01345             -25.00   -12800.00
01346             -15.60   -12800.00
01347              25.00   -13600.00
01348             -25.00   -14400.00
01349              25.00   -15200.00
01350             -25.00   -14400.00
01351               0.60   -16000.00
01352              25.00   -16800.00
01353             -25.00   -16800.00
01354               3.60   -16800.00
01355              25.00   -17600.00
01356             -19.00   -18400.00
01357             -12.20   -19200.00
01358              25.00   -19200.00
01359             -18.80   -20000.00
01360              -5.00   -20000.00
01361              25.00   -20000.00
01362             -19.40   -22400.00
01363               5.40   -22400.00
01364               9.20   -22400.00
01365             -13.20   -23200.00
01366               5.80   -24000.00
01367               9.00   -24000.00
01368              -8.20   -24000.00
01369               6.80   -25600.00
01370               5.80   -25600.00
01371             -12.00   -25600.00
01372              10.20   -26400.00
01373               0.60   -26400.00
01374              -3.80   -27200.00
01375               9.00   -27200.00
01376              -0.40   -27200.00
01377              -1.40   -27200.00
01378               4.00   -28800.00
01379               0.40   -28800.00
01380              -1.00   -28800.00
01381               5.00   -29600.00
01382               0.40   -29600.00
01383              -0.60   -29600.00
01384               5.00   -30400.00
01385              -0.40   -30400.00
01386               1.00   -30400.00
01387               4.60   -32000.00
01388              -1.20   -32000.00
01389               0.80   -32000.00
01390               3.00   -32000.00
01391              -0.60   -32000.00
01392               2.60   -32800.00
01393               2.60   -32800.00
01394               1.80   -32800.00
01395               2.60   -32800.00
01396               0.60   -32800.00
01397               0.60   -32800.00
01398               1.20   -32800.00
01399               1.00   -32800.00
01400               2.00   -33600.00
01401               2.20   -32800.00
01402               2.20   -33600.00
01403               1.80   -33600.00
01404               1.80   -33600.00
01405               0.20   -33600.00
01406               1.00   -33600.00
01407               1.80   -33600.00
01408               0.60   -33600.00
01409               2.80   -33600.00
01410               2.00   -33600.00
01411               1.00   -33600.00
01412               2.60   -33600.00
01413               1.00   -33600.00
01414               1.00   -33600.00
01415               1.20   -33600.00
01416               1.00   -32800.00
01417               1.40   -32800.00
01418               1.20   -32800.00
01419               1.60   -32800.00
01420               1.80   -32800.00
01421               1.20   -32800.00
01422               1.00   -32000.00
01423               1.00   -32800.00
01424               1.00   -32000.00
01425               1.20   -32000.00
01426               1.40   -32000.00
01427               2.00   -31200.00
01428               1.20   -30400.00
01429               1.80   -31200.00
01430               1.00   -30400.00
01431               0.60   -30400.00
01432               1.20   -29600.00
01433               1.40   -29600.00
01434               1.00   -28800.00
01435               1.20   -28800.00
01436               1.20   -28800.00
01437               1.40   -28000.00
01438               1.20   -28800.00
01439               1.40   -27200.00
01440               1.40   -28000.00
01441               1.00   -27200.00
01442               0.60   -26400.00
01443               1.00   -26400.00
01444               1.20   -25600.00
01445               1.00   -25600.00
01446               1.00   -25600.00
01447               1.20   -24000.00
01448               0.80   -24000.00
01449               0.60   -24000.00
01450               0.40   -23200.00
01451               0.80   -22400.00
01452               1.20   -22400.00
01453               0.80   -21600.00
01454               0.60   -20800.00
01455               1.00   -20800.00
01456               0.40   -20000.00
01457               0.40   -19200.00
01458               1.00   -18400.00
01459               0.20   -18400.00
01460               0.40   -17600.00
01461               1.00   -17600.00
01462               0.20   -16800.00
01463               0.40   -16800.00
01464               1.00   -16000.00
01465               0.40   -15200.00
01466               0.20   -14400.00
01467               0.20   -14400.00
01468               0.40   -13600.00
01469               0.60   -13600.00
01470              -0.40   -12800.00
01471              -0.20   -12000.00
01472               0.40   -11200.00
01473              -0.20   -11200.00
01474              -0.20   -10400.00
01475               0.00    -9600.00
01476              -0.40    -8800.00
01477              -0.20    -8000.00
01478               0.20    -8000.00
01479              -0.40    -7200.00
01480              -0.20    -6400.00
01481              -0.40    -5600.00
01482              -0.20    -4800.00
01483               0.20    -4000.00
01484              -0.60    -4000.00
01485              -0.40    -4000.00
01486               0.00    -3200.00
01487              -1.20    -1600.00
01488              -0.40    -1600.00
01489              -0.40    -1600.00
01490              -0.20        0.00
01491              -0.20        0.00
01492              -0.20     1600.00
01493               1.80     1600.00
01494               2.80     2400.00
01495              -2.80     2400.00
01496              -0.40     3200.00
01497               1.20     3200.00
01498              -1.40     4000.00
01499               2.80     4800.00
01500              24.20     6400.00
01501              16.60     8000.00
01502             -25.00     8000.00
01503              -6.20     8800.00
01504              25.00     8800.00
01505             -25.00     8800.00
01506              -5.80     9600.00
01507              25.00    10400.00
01508             -25.00    10400.00
01509              21.80    12000.00
01510              25.00    12000.00
01511             -25.00    12800.00
01512              25.00    13600.00
01513             -25.00    14400.00
01514              -0.20    14400.00
01515              25.00    15200.00
01516             -25.00    15200.00
01517              25.00    16000.00
01518              12.40    16800.00
01519             -25.00    17600.00
01520              25.00    17600.00
01521               5.60    18400.00
01522             -25.00    19200.00
01523               7.40    19200.00
01524              23.40    20000.00
01525             -25.00    21600.00
01526              21.80    21600.00
01527               9.20    22400.00
01528             -24.60    22400.00
01529              25.00    23200.00
01530             -17.80    24000.00
01531              -6.80    24000.00
01532              10.00    24800.00
01533              -6.00    24800.00
01534              -7.00    24800.00
01535              14.20    25600.00
01536             -10.80    25600.00
01537              -6.80    25600.00
01538              10.80    27200.00
01539             -15.00    27200.00
01540               3.40    27200.00
01541               2.60    28000.00
01542              -7.00    28000.00
01543               1.00    28800.00
01544              -0.60    28800.00
01545              -5.80    28800.00
01546              -0.20    30400.00
01547               0.60    30400.00
01548              -5.40    30400.00
01549              -0.80    30400.00
01550              -0.40    31200.00
01551              -6.00    31200.00
01552               1.00    31200.00
01553              -0.60    32800.00
01554              -5.20    32000.00
01555               1.00    32000.00
01556              -4.20    32800.00
01557              -2.80    32800.00
01558              -0.40    33600.00
01559              -4.20    32800.00
01560              -0.20    33600.00
01561              -1.20    33600.00
01562              -3.80    33600.00
01563              -1.40    33600.00
01564              -2.20    33600.00
01565              -2.20    33600.00
01566              -1.40    33600.00
01567              -1.80    34400.00
01568              -2.80    33600.00
01569              -2.20    34400.00
01570              -1.00    34400.00
01571              -3.80    34400.00
01572              -0.80    34400.00
01573              -1.80    34400.00
01574              -3.40    34400.00
01575               0.40    34400.00
01576              -3.40    34400.00
01577              -2.60    34400.00
01578              -0.60    34400.00
01579              -3.00    34400.00
01580              -2.20    33600.00
01581              -2.00    33600.00
01582              -2.20    34400.00
01583              -1.80    33600.00
01584              -1.40    33600.00
01585              -1.80    33600.00
01586              -2.20    33600.00
01587              -1.80    33600.00
01588              -2.20    33600.00
01589              -1.80    32800.00
01590              -2.20    32800.00
01591              -2.40    33600.00
01592              -1.00    32000.00
01593              -2.00    32800.00
01594              -2.00    32000.00
01595              -1.20    32000.00
01596              -2.80    31200.00
01597              -2.00    31200.00
01598              -1.20    31200.00
01599              -2.80    30400.00
01600              -2.00    30400.00
01601              -1.80    30400.00
01602              -2.20    30400.00
01603              -2.00    29600.00
01604              -2.00    28800.00
01605              -2.20    28800.00
01606              -2.00    28800.00
01607              -1.00    28000.00
01608              -2.60    28000.00
01609              -2.80    27200.00
01610               0.20    27200.00
01611              -2.00    26400.00
01612              -2.60    25600.00
01613              -1.20    25600.00
01614              -2.20    25600.00
01615              -2.20    24800.00
01616              -1.00    24800.00
01617              -1.80    24000.00
01618              -2.20    24000.00
01619              -1.20    22400.00
01620              -2.00    22400.00
01621              -1.80    21600.00
01622              -1.40    21600.00
01623              -1.80    20800.00
01624              -1.00    20000.00
01625              -1.40    19200.00
01626              -1.80    19200.00
01627              -0.40    19200.00
01628              -2.20    18400.00
01629              -1.80    17600.00
01630               0.20    17600.00
01631              -2.20    16000.00
01632              -1.40    16000.00
01633              -0.60    15200.00
01634              -1.40    14400.00
01635              -1.20    14400.00
01636              -0.60    12800.00
01637              -1.00    12800.00
01638              -0.40    12000.00
01639              -0.40    12000.00
01640              -1.20    12000.00
01641              -1.80    11200.00
01642              -0.60    10400.00
01643              -0.60     9600.00
01644              -0.20     8800.00
01645              -0.20     8000.00
01646              -1.20     8000.00
01647              -0.60     8000.00
01648              -1.20     6400.00
01649              -1.00     5600.00
01650               0.80     5600.00
01651              -0.60     4800.00
01652              -0.60     4000.00
01653               1.00     3200.00
01654              -1.20     2400.00
01655              -1.40     2400.00
01656               1.40      800.00
01657              -0.40        0.00
01658              -0.40        0.00
01659               1.20     -800.00
01660               3.00     -800.00
01661               0.20    -1600.00
01662              -1.20    -1600.00
01663               2.00    -2400.00
01664               1.80    -3200.00
01665              -1.00    -4000.00
01666               3.40    -4000.00
01667              17.00    -5600.00
01668              23.60    -7200.00
01669             -25.00    -7200.00
01670             -23.80    -8000.00
01671              25.00    -8000.00
01672              -5.00    -8800.00
01673             -25.00    -8800.00
01674              25.00    -9600.00
01675              25.00   -10400.00
01676             -25.00   -10400.00
01677              25.00   -12000.00
01678              25.00   -12000.00
01679             -25.00   -12800.00
01680              25.00   -13600.00
01681             -19.80   -13600.00
01682              10.20   -14400.00
01683               7.00   -14400.00
01684             -25.00   -16000.00
01685              25.00   -16000.00
01686             -13.40   -16800.00
01687             -19.80   -17600.00
01688              25.00   -17600.00
01689              -2.00   -18400.00
01690             -24.40   -19200.00
01691              21.20   -19200.00
01692               6.20   -20000.00
01693             -25.00   -20000.00
01694              25.00   -20800.00
01695              -6.00   -21600.00
01696             -10.60   -22400.00
01697              18.20   -22400.00
01698             -11.40   -23200.00
01699              -1.20   -23200.00
01700              12.20   -24000.00
01701              -4.40   -24800.00
01702              -1.40   -24800.00
01703              14.00   -24800.00
01704             -10.80   -25600.00
01705               2.40   -26400.00
01706               9.00   -26400.00
01707              -8.60   -26400.00
01708               5.80   -27200.00
01709               2.20   -27200.00
01710              -1.80   -28800.00
01711               5.20   -28000.00
01712               2.20   -29600.00
01713              -2.40   -28800.00
01714               3.60   -29600.00
01715               1.20   -29600.00
01716              -1.80   -29600.00
01717               5.80   -30400.00
01718               1.60   -30400.00
01719              -1.00   -31200.00
01720               5.00   -32000.00
01721               1.20   -31200.00
01722              -1.80   -31200.00
01723               4.00   -32000.00
01724               0.20   -32800.00
01725               1.00   -32000.00
01726               3.40   -32000.00
01727              -0.40   -32800.00
01728               2.20   -32800.00
01729               2.60   -32800.00
01730              -0.80   -33600.00
01731               1.40   -32800.00
01732               2.60   -33600.00
01733               1.00   -32800.00
01734               1.00   -33600.00
01735               2.60   -33600.00
01736               1.20   -33600.00
01737               1.40   -33600.00
01738               1.80   -33600.00
01739               0.60   -33600.00
01740               1.80   -33600.00
01741               0.20   -33600.00
01742               1.20   -33600.00
01743               3.00   -33600.00
01744               0.60   -33600.00
01745               2.00   -33600.00
01746               2.00   -33600.00
01747               0.40   -33600.00
01748               1.00   -33600.00
01749               1.00   -33600.00
01750               1.40   -33600.00
01751               1.40   -32800.00
01752               1.80   -32800.00
01753               1.80   -32000.00
01754               1.00   -32800.00
01755               1.20   -32800.00
01756               1.20   -32000.00
01757               1.80   -32000.00
01758               1.20   -32000.00
01759               1.40   -32000.00
01760               2.00   -31200.00
01761               0.40   -32000.00
01762               1.20   -31200.00
01763               2.20   -30400.00
01764               1.00   -30400.00
01765               1.20   -29600.00
01766               1.80   -30400.00
01767               0.20   -29600.00
01768               1.00   -29600.00
01769               1.40   -28800.00
01770               1.40   -28800.00
01771               1.20   -28800.00
01772               1.40   -27200.00
01773               1.00   -27200.00
01774               1.60   -27200.00
01775               1.00   -26400.00
01776               0.40   -26400.00
01777               1.20   -25600.00
01778               1.40   -25600.00
01779               0.40   -25600.00
01780               1.20   -24000.00
01781               1.40   -24000.00
01782               0.80   -24000.00
01783               1.00   -24000.00
01784               1.00   -23200.00
01785               0.40   -22400.00
01786               0.80   -22400.00
01787               1.20   -20800.00
01788               0.60   -20800.00
01789               0.80   -20000.00
01790               1.00   -20000.00
01791               0.20   -18400.00
01792               1.00   -19200.00
01793               1.00   -18400.00
01794              -0.20   -17600.00
01795               0.40   -17600.00
01796               0.60   -16800.00
01797              -0.20   -16000.00
01798               0.80   -15200.00
01799               0.40   -15200.00
01800              -0.20   -14400.00
01801               0.80   -14400.00
01802               0.20   -12800.00
01803              -0.60   -12800.00
01804               0.20   -12000.00
01805               0.20   -11200.00
01806              -0.60   -11200.00
01807               0.40   -10400.00
01808              -0.20    -9600.00
01809              -0.60    -9600.00
01810               0.80    -8800.00
01811               0.20    -8000.00
01812              -0.60    -8000.00
01813               0.20    -6400.00
01814              -0.40    -6400.00
01815              -0.60    -5600.00
01816               0.20    -4800.00
01817              -0.60    -4000.00
01818              -0.60    -4000.00
01819              -0.20    -3200.00
01820              -0.60    -1600.00
01821              -0.60    -1600.00
01822              -0.20     -800.00
01823              -0.40     -800.00
01824              -0.40        0.00
01825               0.20      800.00
01826               0.60     1600.00
01827               2.60     1600.00
01828              -1.00     2400.00
01829              -1.20     2400.00
01830               0.20     3200.00
01831               1.00     4000.00
01832              -1.20     4800.00
01833              12.20     5600.00
01834              25.00     7200.00
01835             -25.00     8000.00
01836             -25.00     8000.00
01837              25.00     8800.00
01838              -5.60     8800.00
01839             -25.00     8800.00
01840              25.00    10400.00
01841              -6.20    10400.00
01842             -25.00    11200.00
01843              25.00    12000.00
01844             -25.00    12000.00
01845               7.40    13600.00
01846              25.00    13600.00
01847             -25.00    14400.00
01848              25.00    14400.00
01849             -25.00    15200.00
01850             -10.60    16000.00
01851              25.00    16000.00
01852             -25.00    17600.00
01853              14.80    17600.00
01854              25.00    18400.00
01855             -25.00    18400.00
01856             -15.20    19200.00
01857              25.00    20000.00
01858             -23.60    20800.00
01859             -10.80    21600.00
01860              25.00    21600.00
01861             -25.00    22400.00
01862              13.20    22400.00
01863               2.00    22400.00
01864             -20.40    24000.00
01865              10.00    24000.00
01866               1.00    24800.00
01867             -10.60    24000.00
01868               7.80    25600.00
01869               2.60    25600.00
01870             -17.20    25600.00
01871              11.60    26400.00
01872              -7.40    27200.00
01873              -6.60    27200.00
01874               7.40    27200.00
01875              -7.20    28000.00
01876              -1.80    28800.00
01877               1.20    28800.00
01878              -3.80    28800.00
01879              -3.00    29600.00
01880               1.80    29600.00
01881              -4.20    30400.00
01882              -3.80    31200.00
01883               0.60    31200.00
01884              -4.20    31200.00
01885              -2.60    31200.00
01886               2.60    31200.00
01887              -5.00    32000.00
01888              -1.00    32800.00
01889              -0.60    32000.00
01890              -4.60    32800.00
01891              -0.20    32800.00
01892              -2.80    32800.00
01893              -2.60    32800.00
01894               0.20    33600.00
01895              -3.00    33600.00
01896              -2.20    33600.00
01897              -2.20    33600.00
01898              -2.20    34400.00
01899              -1.40    33600.00
01900              -2.20    33600.00
01901              -1.40    34400.00
01902              -2.80    34400.00
01903              -1.20    34400.00
01904              -2.60    34400.00
01905              -2.80    34400.00
01906              -0.60    34400.00
01907              -3.60    34400.00
01908              -0.60    34400.00
01909              -1.40    33600.00
01910              -3.80    34400.00
01911              -0.60    33600.00
01912              -2.20    34400.00
01913              -2.20    34400.00
01914              -1.80    34400.00
01915              -2.80    33600.00
01916              -1.80    33600.00
01917              -2.00    33600.00
01918              -1.60    33600.00
01919              -2.40    33600.00
01920              -1.80    33600.00
01921              -1.60    33600.00
01922              -2.60    32800.00
01923              -1.40    32800.00
01924              -2.80    32000.00
01925              -2.40    32800.00
01926              -1.20    32000.00
01927              -2.80    32000.00
01928              -2.20    32000.00
01929              -2.00    31200.00
01930              -2.00    31200.00
01931              -1.80    31200.00
01932              -2.20    31200.00
01933              -2.20    30400.00
01934              -2.00    30400.00
01935              -1.80    29600.00
01936              -2.00    28800.00
01937              -2.20    28800.00
01938              -2.20    28800.00
01939              -2.00    28000.00
01940              -1.60    28000.00
01941              -2.00    28000.00
01942              -2.60    27200.00
01943              -1.40    27200.00
01944              -1.40    25600.00
01945              -2.00    26400.00
01946              -1.20    25600.00
01947              -1.80    25600.00
01948              -1.60    25600.00
01949              -1.40    24800.00
01950              -1.60    24000.00
01951              -1.80    24000.00
01952              -2.00    23200.00
01953              -1.00    22400.00
01954              -1.40    21600.00
01955              -2.00    21600.00
01956              -1.20    20800.00
01957              -2.00    20800.00
01958              -1.20    20000.00
01959              -1.20    19200.00
01960              -1.60    18400.00
01961              -1.00    18400.00
01962              -1.20    17600.00
01963              -1.20    17600.00
01964              -1.20    16000.00
01965              -1.20    16000.00
01966              -1.20    15200.00
01967              -1.20    15200.00
01968              -1.00    14400.00
01969              -1.60    14400.00
01970              -0.60    13600.00
01971              -0.60    12800.00
01972              -0.80    12000.00
01973              -0.60    11200.00
01974              -1.20    11200.00
01975              -1.00    10400.00
01976              -0.20     9600.00
01977              -1.60     8800.00
01978              -0.60     8800.00
01979              -0.60     8000.00
01980              -1.00     7200.00
01981              -0.40     6400.00
01982              -0.40     6400.00
01983              -0.60     5600.00
01984              -0.20     4800.00
01985              -0.60     3200.00
01986              -0.20     3200.00
01987              -0.60     2400.00
01988              -1.00     2400.00
01989              -0.40     1600.00
01990              -0.20     1600.00
01991              -0.40        0.00
01992               0.20        0.00
01993               2.60     -800.00
01994               2.60    -1600.00
01995              -2.00    -1600.00
01996               1.00    -2400.00
01997               1.60    -3200.00
01998              -0.20    -3200.00
01999               1.20    -4000.00
02000              10.00    -4800.00
02001              25.00    -6400.00
02002             -14.00    -8000.00
02003             -25.00    -8000.00
02004              15.20    -8000.00
02005              18.00    -8800.00
02006             -25.00    -8800.00
02007              -1.40    -9600.00
02008              25.00   -10400.00
02009             -25.00   -10400.00
02010             -11.40   -11200.00
02011              25.00   -12000.00
02012             -25.00   -12800.00
02013              14.00   -13600.00
02014              15.60   -13600.00
02015             -17.40   -14400.00
02016              25.00   -14400.00
02017             -25.00   -14400.00
02018              20.20   -16000.00
02019              19.40   -16800.00
02020             -25.00   -17600.00
02021              17.40   -17600.00
02022              19.00   -17600.00
02023             -24.60   -19200.00
02024              -0.20   -19200.00
02025              25.00   -19200.00
02026             -25.00   -20000.00
02027              10.40   -20800.00
02028              18.80   -21600.00
02029             -20.40   -22400.00
02030              13.40   -22400.00
02031               1.80   -23200.00
02032             -11.00   -23200.00
02033               9.00   -24000.00
02034               5.20   -24000.00
02035              -8.40   -24800.00
02036              11.80   -24800.00
02037               0.60   -25600.00
02038              -9.00   -25600.00
02039              12.20   -26400.00
02040              -4.00   -26400.00
02041              -0.60   -27200.00
02042               7.80   -27200.00
02043              -2.00   -28000.00
02044               0.20   -28000.00
02045               4.20   -28800.00
02046              -0.60   -28800.00
02047               1.00   -29600.00
02048               4.80   -29600.00
02049              -1.20   -29600.00
02050               1.00   -30400.00
02051               4.40   -29600.00
02052              -1.60   -30400.00
02053               2.20   -30400.00
02054               4.20   -32000.00
02055              -1.60   -31200.00
02056               2.60   -32000.00
02057               2.00   -32000.00
02058              -0.60   -32000.00
02059               2.60   -32000.00
02060               1.40   -32800.00
02061               1.40   -32800.00
02062               2.60   -32800.00
02063               0.60   -32800.00
02064               1.20   -33600.00
02065               0.80   -32800.00
02066               1.40   -32800.00
02067               2.40   -33600.00
02068               1.20   -33600.00
02069               1.00   -33600.00
02070               1.80   -33600.00
02071               2.60   -33600.00
02072              -0.20   -33600.00
02073               2.00   -33600.00
02074               2.60   -33600.00
02075              -0.20   -33600.00
02076               2.60   -33600.00
02077               1.00   -33600.00
02078               0.20   -32800.00
02079               2.60   -33600.00
02080               1.40   -33600.00
02081               1.00   -33600.00
02082               1.00   -33600.00
02083               1.80   -33600.00
02084               1.60   -32800.00
02085               1.40   -32800.00
02086               1.60   -32800.00
02087               1.20   -32800.00
02088               1.80   -32800.00
02089               0.60   -32000.00
02090               0.40   -32000.00
02091               2.00   -32000.00
02092               1.80   -32000.00
02093               2.00   -32000.00
02094               2.00   -31200.00
02095               1.20   -30400.00
02096               1.20   -30400.00
02097               0.40   -30400.00
02098               0.60   -30400.00
02099               1.40   -29600.00
02100               1.40   -28800.00
02101               2.00   -29600.00
02102               2.00   -28800.00
02103               1.00   -28800.00
02104               1.00   -28800.00
02105               1.20   -27200.00
02106               0.80   -27200.00
02107               0.40   -27200.00
02108               1.20   -26400.00
02109               1.20   -26400.00
02110               1.20   -26400.00
02111               1.80   -26400.00
02112               1.00   -25600.00
02113               0.60   -25600.00
02114               1.00   -24800.00
02115               0.20   -24000.00
02116               1.00   -24000.00
02117               1.00   -23200.00
02118               1.00   -23200.00
02119               1.20   -22400.00
02120               0.60   -22400.00
02121               0.60   -22400.00
02122               0.40   -20800.00
02123              -0.20   -20000.00
02124               0.00   -20000.00
02125               0.20   -18400.00
02126               1.00   -17600.00
02127               0.60   -17600.00
02128               0.20   -17600.00
02129               0.60   -17600.00
02130               0.60   -16000.00
02131               0.20   -16000.00
02132               0.00   -15200.00
02133               0.40   -15200.00
02134              -0.60   -14400.00
02135              -0.60   -13600.00
02136               0.60   -12800.00
02137              -0.20   -12800.00
02138               0.20   -12000.00
02139               0.60   -11200.00
02140              -0.20   -10400.00
02141              -1.20   -10400.00
02142              -0.60    -9600.00
02143               0.40    -8000.00
02144               0.20    -8000.00
02145              -0.20    -7200.00
02146               0.60    -7200.00
02147              -0.20    -6400.00
02148              -0.60    -5600.00
02149               0.20    -4800.00
02150              -0.40    -4000.00
02151              -0.60    -4000.00
02152              -0.60    -3200.00
02153              -0.40    -2400.00
02154              -0.60    -1600.00
02155              -0.60    -1600.00
02156               0.20     -800.00
02157               0.20        0.00
02158              -0.20        0.00
02159               0.20     1600.00
02160               2.20     1600.00
02161               1.00     1600.00
02162              -2.80     2400.00
02163               0.40     3200.00
02164               1.20     3200.00
02165              -1.80     4800.00
02166               6.00     4800.00
02167              25.00     7200.00
02168              -3.60     7200.00
02169             -25.00     8000.00
02170              10.20     8000.00
02171              21.00     8000.00
02172             -25.00     8800.00
02173              24.40     9600.00
02174              25.00    11200.00
02175             -25.00    11200.00
02176              25.00    12000.00
02177              14.80    12000.00
02178             -25.00    12800.00
02179              25.00    12800.00
02180             -25.00    13600.00
02181              25.00    14400.00
02182              24.40    14400.00
02183             -25.00    16000.00
02184              25.00    16000.00
02185             -24.60    16800.00
02186             -25.00    17600.00
02187              25.00    17600.00
02188              -9.40    18400.00
02189             -25.00    19200.00
02190              21.00    19200.00
02191               8.20    20000.00
02192             -25.00    20800.00
02193              25.00    21600.00
02194             -11.40    21600.00
02195             -11.00    21600.00
02196              22.00    22400.00
02197             -23.20    24000.00
02198               1.20    24000.00
02199               6.80    24000.00
02200              -9.80    24800.00
02201              -2.60    24800.00
02202              13.40    25600.00
02203             -16.60    25600.00
02204               2.00    26400.00
02205               5.20    27200.00
02206             -15.40    28000.00
02207               7.40    27200.00
02208              -1.80    28000.00
02209              -5.40    28000.00
02210               2.00    28800.00
02211              -1.80    29600.00
02212              -5.40    28800.00
02213               0.60    28800.00
02214              -0.80    30400.00
02215              -5.40    30400.00
02216               0.20    31200.00
02217              -1.80    31200.00
02218              -5.20    31200.00
02219               2.00    31200.00
02220              -2.80    31200.00
02221              -3.80    32800.00
02222               1.60    32000.00
02223              -4.40    32800.00
02224              -2.00    32800.00
02225              -1.00    32800.00
02226              -3.80    33600.00
02227               0.20    33600.00
02228              -1.80    33600.00
02229              -2.80    33600.00
02230              -2.00    33600.00
02231              -2.80    33600.00
02232              -2.00    33600.00
02233              -2.00    34400.00
02234              -1.40    33600.00
02235              -2.60    34400.00
02236              -1.40    34400.00
02237              -1.20    34400.00
02238              -3.60    34400.00
02239              -0.60    34400.00
02240              -2.60    34400.00
02241              -2.20    34400.00
02242               0.20    34400.00
02243              -3.80    34400.00
02244              -2.00    33600.00
02245              -1.20    33600.00
02246              -2.80    34400.00
02247              -1.80    33600.00
02248              -2.40    34400.00
02249              -2.20    34400.00
02250              -2.00    33600.00
02251              -2.00    33600.00
02252              -2.20    33600.00
02253              -2.60    33600.00
02254              -1.20    32800.00
02255              -2.80    33600.00
02256              -1.40    32800.00
02257              -2.00    32000.00
02258              -3.00    32800.00
02259              -1.00    32800.00
02260              -2.00    32000.00
02261              -2.60    32000.00
02262              -1.80    32000.00
02263              -2.20    31200.00
02264              -2.00    31200.00
02265              -1.80    30400.00
02266              -2.20    31200.00
02267              -2.20    30400.00
02268              -1.80    30400.00
02269              -2.00    29600.00
02270              -2.20    29600.00
02271              -2.00    28800.00
02272              -2.20    28800.00
02273              -2.20    28800.00
02274              -1.20    28000.00
02275              -2.20    27200.00
02276              -2.00    27200.00
02277              -1.20    27200.00
02278              -1.80    26400.00
02279              -1.40    25600.00
02280              -2.00    25600.00
02281              -1.80    25600.00
02282              -1.80    24800.00
02283              -2.00    24000.00
02284              -1.20    24000.00
02285              -1.80    24000.00
02286              -1.20    22400.00
02287              -1.20    22400.00
02288              -1.40    21600.00
02289              -1.40    20800.00
02290              -1.40    20800.00
02291              -1.20    20000.00
02292              -1.20    19200.00
02293              -1.20    19200.00
02294              -1.40    18400.00
02295              -1.40    18400.00
02296              -1.00    17600.00
02297              -1.20    16800.00
02298              -1.40    16000.00
02299              -0.60    16000.00
02300              -1.20    15200.00
02301              -0.60    14400.00
02302              -1.20    14400.00
02303              -1.20    12800.00
02304              -0.60    12800.00
02305              -0.60    12800.00
02306              -1.20    12000.00
02307              -1.00    11200.00
02308              -1.00    11200.00
02309              -0.40     9600.00
02310              -1.20     8800.00
02311              -0.60     8800.00
02312              -0.60     8000.00
02313              -0.60     8000.00
02314              -0.60     7200.00
02315              -0.40     5600.00
02316              -0.80     5600.00
02317              -0.60     4800.00
02318              -0.60     4000.00
02319              -0.40     3200.00
02320              -0.60     3200.00
02321              -1.20     2400.00
02322              -0.60     1600.00
02323              -0.40      800.00
02324              -0.60        0.00
02325               0.20        0.00
02326               1.20     -800.00
02327               3.60     -800.00
02328              -1.20    -1600.00
02329              -0.60    -1600.00
02330               1.40    -3200.00
02331               1.00    -3200.00
02332              -0.20    -4000.00
02333               5.40    -4800.00
02334              22.00    -5600.00
02335              13.60    -7200.00
02336             -25.00    -8000.00
02337              -9.40    -8000.00
02338              25.00    -8000.00
02339             -20.80    -8800.00
02340             -25.00    -8800.00
02341              25.00    -9600.00
02342              13.40   -11200.00
02343             -25.00   -10400.00
02344              25.00   -12000.00
02345             -10.20   -12000.00
02346             -25.00   -12800.00
02347              25.00   -13600.00
02348             -25.00   -13600.00
02349              23.40   -14400.00
02350             -12.60   -14400.00
02351             -12.80   -16000.00
02352              25.00   -16800.00
02353             -25.00   -16800.00
02354              -6.00   -17600.00
02355              25.00   -17600.00
02356             -12.40   -18400.00
02357             -18.80   -19200.00
02358              25.00   -19200.00
02359              -8.40   -20000.00
02360             -15.40   -20800.00
02361              25.00   -20800.00
02362             -14.20   -21600.00
02363              -1.00   -22400.00
02364              13.80   -22400.00
02365             -13.00   -23200.00
02366               2.60   -23200.00
02367              10.60   -24000.00
02368              -7.60   -24000.00
02369               4.20   -24800.00
02370              10.20   -25600.00
02371             -12.20   -25600.00
02372               7.80   -26400.00
02373               4.20   -26400.00
02374              -7.60   -27200.00
02375               8.40   -27200.00
02376               1.20   -27200.00
02377              -2.80   -28000.00
02378               4.60   -28000.00
02379               2.00   -28800.00
02380              -2.20   -28800.00
02381               4.60   -29600.00
02382               1.00   -29600.00
02383              -2.20   -30400.00
02384               5.20   -30400.00
02385               0.20   -30400.00
02386              -0.60   -30400.00
02387               5.40   -31200.00
02388              -0.40   -32000.00
02389              -0.20   -32000.00
02390               4.20   -32000.00
02391              -0.60   -32000.00
02392               1.20   -32000.00
02393               2.80   -32000.00
02394               0.60   -32800.00
02395               2.60   -32800.00
02396               1.40   -32800.00
02397               0.40   -33600.00
02398               1.80   -33600.00
02399               1.20   -33600.00
02400               1.40   -33600.00
02401               1.40   -32800.00
02402               1.40   -33600.00
02403               1.40   -33600.00
02404               2.00   -33600.00
02405               1.00   -33600.00
02406               1.20   -33600.00
02407               2.80   -33600.00
02408               0.40   -33600.00
02409               2.20   -33600.00
02410               2.00   -33600.00
02411               0.20   -33600.00
02412               2.60   -33600.00
02413               2.00   -33600.00
02414               1.60   -33600.00
02415               1.20   -33600.00
02416               0.80   -33600.00
02417               1.80   -33600.00
02418               1.00   -32800.00
02419               1.60   -32800.00
02420               2.00   -32800.00
02421               1.00   -32800.00
02422               1.80   -32000.00
02423               1.80   -32000.00
02424               1.40   -32800.00
02425               1.60   -32000.00
02426               1.80   -32000.00
02427               1.40   -32000.00
02428               1.20   -32000.00
02429               1.80   -30400.00
02430               1.40   -30400.00
02431               1.00   -30400.00
02432               1.00   -30400.00
02433               1.40   -29600.00
02434               1.00   -29600.00
02435               1.00   -29600.00
02436               1.40   -28000.00
02437               1.80   -28800.00
02438               1.20   -28000.00
02439               2.00   -27200.00
02440               1.00   -27200.00
02441               0.80   -27200.00
02442               0.60   -26400.00
02443               0.60   -26400.00
02444               1.40   -26400.00
02445               1.40   -25600.00
02446               1.00   -24800.00
02447               1.00   -24800.00
02448               0.40   -24000.00
02449               0.40   -24000.00
02450               0.40   -24000.00
02451               1.00   -23200.00
02452               0.60   -22400.00
02453               0.60   -22400.00
02454               1.00   -21600.00
02455               0.60   -20800.00
02456               0.60   -20800.00
02457               0.40   -20000.00
02458               0.20   -19200.00
02459               0.40   -19200.00
02460              -0.20   -17600.00
02461               0.20   -17600.00
02462               1.00   -17600.00
02463               0.60   -16800.00
02464               0.60   -16000.00
02465               0.40   -15200.00
02466               0.20   -14400.00
02467               0.20   -14400.00
02468              -0.40   -12800.00
02469               0.40   -13600.00
02470               0.40   -12800.00
02471              -0.20   -12000.00
02472               0.60   -11200.00
02473               0.40   -11200.00
02474              -0.60   -10400.00
02475               0.20    -9600.00
02476               0.20    -9600.00
02477              -0.40    -8800.00
02478              -0.20    -8000.00
02479              -0.20    -7200.00
02480              -0.20    -6400.00
02481              -0.20    -5600.00
02482               0.20    -6400.00
02483              -0.20    -4000.00
02484              -0.20    -4000.00
02485              -0.20    -3200.00
02486              -0.60    -3200.00
02487              -0.40    -1600.00
02488              -0.60     -800.00
02489              -0.40     -800.00
02490               0.00        0.00
02491               0.20      800.00
02492               0.20        0.00
02493               1.20     1600.00
02494               3.00     1600.00
02495              -2.80     2400.00
02496              -1.00     3200.00
02497               1.00     3200.00
02498              -0.60     4000.00
02499               1.40     4800.00
02500              19.00     5600.00
02501              25.00     8000.00
02502             -25.00     8000.00
02503             -19.20     8000.00
02504              25.00     8800.00
02505             -21.40     8800.00
02506             -24.20     9600.00
02507              25.00    10400.00
02508             -25.00    10400.00
02509             -10.00    11200.00
02510              25.00    12000.00
02511             -25.00    12000.00
02512              25.00    13600.00
02513              -6.20    13600.00
02514             -25.00    14400.00
02515              25.00    15200.00
02516             -25.00    15200.00
02517              25.00    16000.00
02518              25.00    16000.00
02519             -25.00    17600.00
02520              25.00    17600.00
02521              15.40    18400.00
02522             -25.00    18400.00
02523              -2.20    19200.00
02524              25.00    20000.00
02525             -25.00    20800.00
02526               9.80    21600.00
02527              21.60    21600.00
02528             -25.00    21600.00
02529              23.20    22400.00
02530             -10.80    23200.00
02531             -13.40    24000.00
02532              10.60    24800.00
02533              -2.80    24800.00
02534              -9.20    24800.00
02535              13.00    25600.00
02536              -5.40    25600.00
02537             -12.20    26400.00
02538              12.60    26400.00
02539             -13.40    27200.00
02540              -0.60    27200.00
02541               5.60    28000.00
02542              -7.60    28800.00
02543               0.20    28000.00
02544               0.60    28800.00
02545              -5.40    28800.00
02546              -1.80    30400.00
02547               2.00    30400.00
02548              -4.80    30400.00
02549              -2.20    30400.00
02550               1.00    31200.00
02551              -5.20    31200.00
02552              -0.60    32000.00
02553               1.00    32000.00
02554              -5.40    32800.00
02555               0.40    32000.00
02556              -2.00    32000.00
02557              -4.20    32800.00
02558               0.20    32800.00
02559              -3.60    33600.00
02560              -1.20    33600.00
02561              -0.20    33600.00
02562              -3.00    33600.00
02563              -2.20    33600.00
02564              -2.20    33600.00
02565              -2.00    33600.00
02566              -2.20    33600.00
02567              -1.40    33600.00
02568              -1.80    34400.00
02569              -3.00    34400.00
02570              -0.40    33600.00
02571              -3.40    34400.00
02572              -2.20    34400.00
02573              -1.00    34400.00
02574              -3.60    34400.00
02575              -0.20    34400.00
02576              -2.60    34400.00
02577              -3.40    34400.00
02578              -0.80    33600.00
02579              -2.60    34400.00
02580              -2.20    34400.00
02581              -2.20    34400.00
02582              -2.60    33600.00
02583              -2.20    33600.00
02584              -2.20    33600.00
02585              -2.00    33600.00
02586              -2.20    33600.00
02587              -1.40    33600.00
02588              -2.00    33600.00
02589              -2.00    32800.00
02590              -2.20    32800.00
02591              -3.00    32800.00
02592              -1.20    32000.00
02593              -2.00    32000.00
02594              -2.00    32000.00
02595              -1.40    31200.00
02596              -2.60    32000.00
02597              -1.40    31200.00
02598              -1.80    31200.00
02599              -2.40    31200.00
02600              -2.20    30400.00
02601              -2.20    30400.00
02602              -1.40    29600.00
02603              -1.80    28800.00
02604              -2.20    28800.00
02605              -1.60    28800.00
02606              -2.20    28800.00
02607              -1.80    28000.00
02608              -2.00    27200.00
02609              -2.40    27200.00
02610              -0.40    27200.00
02611              -1.20    27200.00
02612              -2.00    25600.00
02613              -1.20    25600.00
02614              -2.00    25600.00
02615              -2.20    24800.00
02616              -1.20    24000.00
02617              -1.40    24000.00
02618              -2.00    24000.00
02619              -1.20    23200.00
02620              -1.20    22400.00
02621              -2.20    22400.00
02622              -1.20    20800.00
02623              -1.00    20800.00
02624              -1.40    20000.00
02625              -1.00    20000.00
02626              -1.20    19200.00
02627              -1.20    19200.00
02628              -1.40    17600.00
02629              -1.20    16800.00
02630              -0.40    16800.00
02631              -1.80    16000.00
02632              -1.20    16000.00
02633              -0.60    15200.00
02634              -1.20    14400.00
02635              -1.20    14400.00
02636              -1.20    13600.00
02637              -1.00    12800.00
02638              -1.00    12800.00
02639              -0.60    12000.00
02640              -0.40    11200.00
02641              -2.20    11200.00
02642              -0.60     9600.00
02643              -0.40     9600.00
02644              -1.20     8800.00
02645              -0.40     8000.00
02646              -1.20     8000.00
02647              -1.00     7200.00
02648              -0.60     6400.00
02649              -1.20     6400.00
02650              -0.40     5600.00
02651              -0.40     4800.00
02652              -0.60     3200.00
02653              -0.20     3200.00
02654              -1.00     3200.00
02655              -1.20     2400.00
02656              -0.20     1600.00
02657              -0.40        0.00
02658              -0.40        0.00
02659               0.60     -800.00
02660               3.00    -1600.00
02661               1.20    -1600.00
02662              -2.00    -1600.00
02663               1.40    -3200.00
02664               1.40    -3200.00
02665              -0.60    -4000.00
02666               2.60    -4000.00
02667              14.00    -5600.00
02668              25.00    -6400.00
02669             -25.00    -8000.00
02670             -25.00    -8800.00
02671              24.60    -8000.00
02672               5.20    -8800.00
02673             -25.00    -9600.00
02674              23.40    -9600.00
02675              25.00   -11200.00
02676             -25.00   -10400.00
02677              25.00   -11200.00
02678              25.00   -12000.00
02679             -25.00   -12800.00
02680              25.00   -13600.00
02681              -6.80   -13600.00
02682              -1.20   -14400.00
02683              18.80   -14400.00
02684             -25.00   -15200.00
02685              25.00   -16000.00
02686               1.00   -16800.00
02687             -25.00   -17600.00
02688              25.00   -17600.00
02689               8.20   -17600.00
02690             -25.00   -19200.00
02691              12.60   -19200.00
02692              17.00   -20000.00
02693             -25.00   -20800.00
02694              23.80   -20800.00
02695               5.80   -20800.00
02696             -16.40   -22400.00
02697              18.00   -22400.00
02698              -7.00   -23200.00
02699              -6.20   -23200.00
02700              11.60   -23200.00
02701               0.20   -24000.00
02702              -5.40   -24800.00
02703              13.40   -25600.00
02704              -5.40   -25600.00
02705              -2.20   -26400.00
02706               9.80   -26400.00
02707              -8.00   -26400.00
02708               4.20   -27200.00
02709               4.80   -27200.00
02710              -3.00   -28800.00
02711               2.60   -28000.00
02712               3.00   -28800.00
02713              -2.00   -28800.00
02714               2.60   -28800.00
02715               3.60   -29600.00
02716              -2.00   -30400.00
02717               2.80   -29600.00
02718               2.80   -30400.00
02719              -1.80   -30400.00
02720               3.60   -30400.00
02721               2.80   -31200.00
02722              -1.60   -32000.00
02723               3.60   -32000.00
02724               1.00   -32000.00
02725              -0.40   -32000.00
02726               2.60   -32800.00
02727               1.20   -32800.00
02728               2.00   -32800.00
02729               1.60   -33600.00
02730               1.00   -32800.00
02731               1.80   -33600.00
02732               1.20   -33600.00
02733               1.20   -32800.00
02734               1.80   -33600.00
02735               2.20   -33600.00
02736               1.20   -33600.00
02737               1.40   -33600.00
02738               2.20   -33600.00
02739               0.40   -33600.00
02740               2.00   -32800.00
02741               2.20   -33600.00
02742               1.00   -33600.00
02743               2.20   -33600.00
02744               1.20   -33600.00
02745               1.80   -33600.00
02746               2.20   -32800.00
02747               1.20   -33600.00
02748               1.80   -33600.00
02749               1.20   -33600.00
02750               1.60   -33600.00
02751               1.20   -32800.00
02752               1.80   -32800.00
02753               1.80   -32800.00
02754               1.40   -32000.00
02755               2.00   -32800.00
02756               1.40   -32000.00
02757               1.20   -32000.00
02758               1.40   -32000.00
02759               1.20   -32000.00
02760               2.00   -31200.00
02761               1.40   -32000.00
02762               0.80   -31200.00
02763               1.80   -30400.00
02764               1.20   -30400.00
02765               1.20   -30400.00
02766               2.00   -29600.00
02767               1.00   -29600.00
02768               0.60   -29600.00
02769               2.00   -28800.00
02770               1.20   -28800.00
02771               0.80   -28800.00
02772               1.40   -27200.00
02773               0.60   -28000.00
02774               0.60   -27200.00
02775               0.60   -27200.00
02776               1.40   -26400.00
02777               1.20   -26400.00
02778               1.00   -26400.00
02779               0.40   -25600.00
02780               1.00   -24800.00
02781               1.00   -24800.00
02782               0.60   -24000.00
02783               1.00   -24000.00
02784               0.20   -23200.00
02785               0.40   -22400.00
02786               1.40   -22400.00
02787               0.40   -21600.00
02788               0.40   -20800.00
02789               0.80   -20800.00
02790               0.20   -20000.00
02791               0.20   -19200.00
02792               0.60   -18400.00
02793               0.40   -18400.00
02794               0.20   -17600.00
02795               1.00   -17600.00
02796               0.60   -16800.00
02797               1.00   -16000.00
02798               0.40   -16000.00
02799               0.40   -15200.00
02800               0.40   -14400.00
02801              -0.20   -14400.00
02802               0.20   -13600.00
02803              -0.20   -12800.00
02804              -0.60   -12800.00
02805               0.40   -12000.00
02806               0.40   -11200.00
02807              -0.60   -10400.00
02808               1.20    -9600.00
02809               0.20    -9600.00
02810              -0.60    -8800.00
02811               0.60    -8000.00
02812              -0.20    -7200.00
02813              -1.20    -6400.00
02814               1.20    -6400.00
02815              -0.40    -6400.00
02816              -1.00    -4800.00
02817               1.00    -4000.00
02818              -1.00    -4000.00
02819              -0.40    -3200.00
02820               0.60    -2400.00
02821              -2.20    -1600.00
02822               0.40     -800.00
02823               0.60     -800.00
02824              -2.20        0.00
02825               1.20      800.00
02826               1.00      800.00
02827               2.00     2400.00
02828               0.80     2400.00
02829              -2.00     2400.00
02830              -0.20     3200.00
02831               0.80     4800.00
02832              -1.40     4800.00
02833               9.40     5600.00
02834              25.00     7200.00
02835             -23.60     8000.00
02836             -25.00     8000.00
02837              22.00     8800.00
02838               7.60     8800.00
02839             -25.00     8800.00
02840              25.00     9600.00
02841              24.40    10400.00
02842             -25.00    11200.00
02843              25.00    12000.00
02844             -25.00    12000.00
02845             -21.80    12800.00
02846              25.00    13600.00
02847             -25.00    13600.00
02848              25.00    15200.00
02849             -21.20    15200.00
02850             -25.00    16000.00
02851              25.00    16000.00
02852             -25.00    17600.00
02853              -2.20    17600.00
02854              25.00    18400.00
02855             -20.20    18400.00
02856             -22.00    19200.00
02857              25.00    19200.00
02858              -9.80    20800.00
02859             -24.20    20800.00
02860              25.00    21600.00
02861             -25.00    21600.00
02862               3.40    22400.00
02863              11.00    22400.00
02864             -22.80    24000.00
02865               7.80    24000.00
02866               4.20    24800.00
02867             -11.80    24000.00
02868               3.40    25600.00
02869               9.60    25600.00
02870             -18.60    25600.00
02871               8.60    26400.00
02872              -1.40    26400.00
02873             -11.60    27200.00
02874               7.40    27200.00
02875              -4.40    28000.00
02876              -3.20    28800.00
02877               1.20    28800.00
02878              -2.20    28800.00
02879              -4.20    28800.00
02880               1.40    29600.00
02881              -2.20    30400.00
02882              -5.00    30400.00
02883               0.40    30400.00
02884              -1.40    31200.00
02885              -4.20    32000.00
02886               1.20    31200.00
02887              -3.40    32000.00
02888              -2.20    32000.00
02889               0.20    32800.00
02890              -3.80    32000.00
02891              -0.40    32800.00
02892              -3.40    33600.00
02893              -2.80    33600.00
02894               0.20    33600.00
02895              -3.40    33600.00
02896              -1.80    33600.00
02897              -1.20    33600.00
02898              -3.00    34400.00
02899              -2.20    33600.00
02900              -2.00    34400.00
02901              -1.60    34400.00
02902              -3.40    33600.00
02903              -1.20    34400.00
02904              -1.80    33600.00
02905              -2.80    34400.00
02906              -0.60    34400.00
02907              -3.80    34400.00
02908              -1.60    34400.00
02909              -1.20    34400.00
02910              -4.60    33600.00
02911              -1.00    34400.00
02912              -2.20    33600.00
02913              -2.40    33600.00
02914              -1.20    33600.00
02915              -2.80    33600.00
02916              -2.20    34400.00
02917              -2.20    33600.00
02918              -2.20    33600.00
02919              -2.60    33600.00
02920              -2.00    33600.00
02921              -1.80    32800.00
02922              -2.20    33600.00
02923              -1.20    33600.00
02924              -3.00    32800.00
02925              -2.80    32000.00
02926              -1.40    32800.00
02927              -2.20    32000.00
02928              -1.80    32000.00
02929              -1.80    31200.00
02930              -2.00    31200.00
02931              -0.80    31200.00
02932              -2.00    31200.00
02933              -2.80    31200.00
02934              -2.00    30400.00
02935              -2.20    28800.00
02936              -1.40    28800.00
02937              -1.60    29600.00
02938              -1.80    28800.00
02939              -1.80    28000.00
02940              -2.00    28000.00
02941              -2.20    28000.00
02942              -2.20    27200.00
02943              -1.20    27200.00
02944              -1.00    25600.00
02945              -1.80    25600.00
02946              -1.20    25600.00
02947              -2.20    25600.00
02948              -1.00    25600.00
02949              -1.00    24000.00
02950              -1.60    24000.00
02951              -0.80    24000.00
02952              -2.20    24000.00
02953              -1.20    22400.00
02954              -1.20    21600.00
02955              -2.40    21600.00
02956              -1.00    20800.00
02957              -0.80    20800.00
02958              -1.40    20800.00
02959              -1.00    19200.00
02960              -1.20    19200.00
02961              -1.80    18400.00
02962              -1.20    18400.00
02963              -1.20    17600.00
02964              -1.00    16000.00
02965              -0.60    16000.00
02966              -1.20    15200.00
02967              -1.40    15200.00
02968              -1.00    14400.00
02969              -1.80    13600.00
02970              -1.40    12800.00
02971              -0.60    12800.00
02972              -1.00    12000.00
02973              -1.00    11200.00
02974              -1.20    11200.00
02975              -1.20    10400.00
02976              -0.60     9600.00
02977              -1.20     8800.00
02978              -0.60     8800.00
02979              -1.00     8000.00
02980              -1.00     8000.00
02981              -0.20     7200.00
02982              -0.60     6400.00
02983              -1.00     5600.00
02984              -0.20     4800.00
02985              -0.80     4000.00
02986              -0.60     3200.00
02987              -0.60     3200.00
02988              -1.00     2400.00
02989              -0.40     1600.00
02990              -0.40      800.00
02991              -0.40        0.00
02992               0.20        0.00
02993               1.40    -1600.00
02994               3.60     -800.00
02995              -1.40    -1600.00
02996               0.40    -2400.00
02997               1.80    -3200.00
02998               0.40    -4000.00
02999               0.20    -4000.00
03000               8.20    -4800.00
03001              25.00    -6400.00
03002              -1.80    -7200.00
03003             -25.00    -8000.00
03004               6.00    -8000.00
03005              24.20    -8800.00
03006             -25.00    -8800.00
03007             -15.60    -8800.00
03008              25.00   -10400.00
03009             -25.00   -10400.00
03010             -25.00   -11200.00
03011              25.00   -12800.00
03012             -25.00   -12000.00
03013              -5.40   -13600.00
03014              25.00   -13600.00
03015             -25.00   -14400.00
03016              25.00   -14400.00
03017             -25.00   -14400.00
03018               7.40   -16000.00
03019              25.00   -16000.00
03020             -25.00   -16800.00
03021               9.00   -17600.00
03022              25.00   -17600.00
03023             -21.00   -19200.00
03024              -8.20   -19200.00
03025              25.00   -20000.00
03026             -22.80   -20000.00
03027              -0.20   -20800.00
03028              25.00   -20800.00
03029             -20.40   -22400.00
03030               8.20   -22400.00
03031               6.80   -23200.00
03032             -13.00   -23200.00
03033               6.60   -23200.00
03034               7.00   -24000.00
03035              -8.40   -24800.00
03036               8.80   -25600.00
03037               4.40   -25600.00
03038             -10.80   -25600.00
03039              11.00   -26400.00
03040              -1.40   -26400.00
03041              -3.60   -27200.00
03042               8.40   -27200.00
03043              -1.20   -28000.00
03044              -1.00   -28000.00
03045               4.40   -28000.00
03046               0.20   -28800.00
03047              -0.40   -28800.00
03048               4.60   -29600.00
03049              -0.40   -30400.00
03050              -0.40   -29600.00
03051               4.40   -30400.00
03052              -1.00   -30400.00
03053               1.20   -30400.00
03054               4.40   -32000.00
03055              -1.20   -32000.00
03056               2.00   -32000.00
03057               2.80   -32000.00
03058              -1.00   -32000.00
03059               2.20   -32000.00
03060               1.80   -32800.00
03061               1.20   -32800.00
03062               2.60   -32800.00
03063               0.40   -32800.00
03064               1.20   -32800.00
03065               1.80   -33600.00
03066               1.00   -33600.00
03067               1.80   -33600.00
03068               2.00   -32800.00
03069               1.80   -33600.00
03070               1.20   -33600.00
03071               2.60   -33600.00
03072               1.00   -32800.00
03073               1.80   -33600.00
03074               2.20   -33600.00
03075               0.40   -33600.00
03076               2.60   -33600.00
03077               1.40   -33600.00
03078               0.40   -33600.00
03079               2.60   -33600.00
03080               1.00   -33600.00
03081               1.40   -33600.00
03082               1.80   -33600.00
03083               1.40   -33600.00
03084               1.80   -32800.00
03085               1.00   -32800.00
03086               1.80   -32800.00
03087               1.60   -32800.00
03088               1.40   -32800.00
03089               2.20   -32000.00
03090               1.80   -32800.00
03091               1.00   -32000.00
03092               0.60   -32000.00
03093               1.80   -32000.00
03094               2.00   -32000.00
03095               1.20   -30400.00
03096               1.80   -30400.00
03097               1.20   -30400.00
03098               0.40   -30400.00
03099               1.20   -29600.00
03100               1.20   -29600.00
03101               1.00   -29600.00
03102               1.80   -28800.00
03103               1.00   -28800.00
03104               0.80   -28000.00
03105               1.00   -27200.00
03106               1.40   -28000.00
03107               1.20   -27200.00
03108               1.00   -27200.00
03109               0.60   -26400.00
03110               0.40   -26400.00
03111               1.20   -26400.00
03112               1.20   -25600.00
03113               0.80   -24800.00
03114               1.60   -25600.00
03115               0.60   -24000.00
03116               0.20   -23200.00
03117               0.40   -23200.00
03118               0.60   -23200.00
03119               1.40   -22400.00
03120               1.00   -22400.00
03121               0.60   -20800.00
03122               0.40   -20800.00
03123               0.20   -20000.00
03124               0.40   -19200.00
03125               1.00   -19200.00
03126               1.20   -18400.00
03127               0.00   -17600.00
03128               0.40   -17600.00
03129               1.20   -16800.00
03130              -0.20   -16000.00
03131              -3.80   -16000.00
03132               6.00   -16000.00
03133              -2.80   -14400.00
03134              -1.80   -14400.00
03135               2.20   -13600.00
03136               2.20   -13600.00
03137               3.60   -12800.00
03138              -6.00   -11200.00
03139               4.20   -11200.00
03140              -0.60   -11200.00
03141              -2.00   -10400.00
03142              -1.20    -9600.00
03143               0.00    -9600.00
03144               3.80    -8000.00
03145              -3.40    -8000.00
03146               3.40    -7200.00
03147              -1.80    -6400.00
03148              -0.60    -6400.00
03149               3.80    -4800.00
03150              -5.20    -4000.00
03151               0.40    -4000.00
03152               0.60    -3200.00
03153              -1.20    -3200.00
03154              -1.60    -1600.00
03155               1.20    -1600.00
03156               1.00     -800.00
03157              -1.20        0.00
03158               2.20        0.00
03159              -3.40      800.00
03160               2.60     1600.00
03161               2.40     2400.00
03162              -6.20     2400.00
03163               2.00     3200.00
03164               2.00     4000.00
03165              -1.20     4800.00
03166               4.40     4800.00
03167              25.00     6400.00
03168               9.20     8000.00
03169             -25.00     8000.00
03170              -1.40     8000.00
03171              25.00     8800.00
03172             -25.00     8000.00
03173               1.80     9600.00
03174              25.00    11200.00
03175             -25.00    10400.00
03176              25.00    12000.00
03177              25.00    12000.00
03178             -25.00    12800.00
03179              25.00    13600.00
03180             -25.00    13600.00
03181              13.20    14400.00
03182              25.00    15200.00
03183             -25.00    15200.00
03184              25.00    16000.00
03185               0.60    16000.00
03186             -25.00    17600.00
03187              25.00    17600.00
03188               0.40    18400.00
03189             -25.00    19200.00
03190              12.20    19200.00
03191              18.80    20000.00
03192             -25.00    20800.00
03193              25.00    21600.00
03194               2.60    21600.00
03195             -20.80    22400.00
03196              25.00    22400.00
03197             -20.40    23200.00
03198              -4.40    24000.00
03199               9.20    24000.00
03200              -7.80    24800.00
03201              -5.20    24800.00
03202              14.80    25600.00
03203             -13.40    25600.00
03204              -3.20    27200.00
03205               9.00    26400.00
03206             -16.60    27200.00
03207               4.60    28000.00
03208               1.20    28000.00
03209              -6.80    28000.00
03210               1.80    28800.00
03211              -0.60    28800.00
03212              -5.80    28800.00
03213               0.40    29600.00
03214               0.40    30400.00
03215              -5.40    30400.00
03216              -0.40    30400.00
03217              -1.00    31200.00
03218              -6.00    31200.00
03219               1.80    32800.00
03220              -1.00    31200.00
03221              -4.80    32800.00
03222               1.80    32800.00
03223              -3.60    32800.00
03224              -2.80    32800.00
03225              -0.40    32800.00
03226              -4.40    32800.00
03227              -0.60    33600.00
03228              -1.20    33600.00
03229              -3.40    33600.00
03230              -1.80    33600.00
03231              -2.80    33600.00
03232              -2.40    33600.00
03233              -2.00    33600.00
03234              -1.40    34400.00
03235              -2.60    34400.00
03236              -1.80    34400.00
03237              -1.20    34400.00
03238              -4.60    34400.00
03239              -1.00    33600.00
03240              -2.20    34400.00
03241              -3.40    34400.00
03242               0.40    34400.00
03243              -2.80    34400.00
03244              -2.80    34400.00
03245              -1.00    34400.00
03246              -2.80    34400.00
03247              -2.00    34400.00
03248              -2.60    34400.00
03249              -2.80    33600.00
03250              -2.20    33600.00
03251              -2.00    33600.00
03252              -2.20    33600.00
03253              -2.20    33600.00
03254              -1.20    33600.00
03255              -2.20    33600.00
03256              -1.80    33600.00
03257              -2.00    33600.00
03258              -3.80    32800.00
03259              -1.20    32800.00
03260              -1.60    32000.00
03261              -2.60    32000.00
03262              -0.80    32000.00
03263              -1.80    32000.00
03264              -2.20    31200.00
03265              -1.80    31200.00
03266              -2.20    31200.00
03267              -2.60    30400.00
03268              -2.00    30400.00
03269              -1.40    28800.00
03270              -1.80    29600.00
03271              -0.80    28800.00
03272              -1.20    28800.00
03273              -1.80    28000.00
03274              -1.20    28000.00
03275              -2.20    27200.00
03276              -2.20    27200.00
03277              -1.20    27200.00
03278              -1.80    26400.00
03279              -1.40    25600.00
03280              -1.20    25600.00
03281              -1.40    25600.00
03282              -1.20    24800.00
03283              -1.40    24000.00
03284              -1.80    24000.00
03285              -2.20    24000.00
03286              -1.20    22400.00
03287              -1.80    22400.00
03288              -1.20    21600.00
03289              -0.60    21600.00
03290              -1.40    20800.00
03291              -1.40    20800.00
03292              -0.60    18400.00
03293              -2.20    19200.00
03294              -1.20    18400.00
03295              -1.40    18400.00
03296              -1.20    17600.00
03297              -0.80    16000.00
03298              -1.00    16000.00
03299              -1.00    16000.00
03300              -1.20    15200.00
03301              -1.40    14400.00
03302              -1.20    14400.00
03303              -1.40    13600.00
03304              -1.40    12800.00
03305              -0.40    12800.00
03306              -0.60    12000.00
03307              -1.20    11200.00
03308              -1.00    11200.00
03309              -0.60     9600.00
03310              -1.40     9600.00
03311              -1.20     8800.00
03312              -1.20     8000.00
03313              -1.20     7200.00
03314              -0.60     6400.00
03315              -0.40     6400.00
03316              -0.60     5600.00
03317              -0.40     4800.00
03318              -0.60     4800.00
03319              -0.40     3200.00
03320              -0.60     3200.00
03321              -1.00     2400.00
03322              -0.60     1600.00
03323               0.20     1600.00
03324              -0.20      800.00
03325               0.20        0.00
03326               0.60     -800.00
03327               3.60     -800.00
03328              -0.40    -1600.00
03329              -1.20    -1600.00
03330               1.40    -3200.00
03331               1.20    -3200.00
03332              -0.60    -4000.00
03333               4.40    -4000.00
03334              18.80    -5600.00
03335              21.80    -7200.00
03336             -25.00    -8000.00
03337             -19.80    -8000.00
03338              25.00    -8000.00
03339              -9.80    -8800.00
03340             -25.00    -8800.00
03341              25.00    -9600.00
03342              25.00   -10400.00
03343             -25.00   -10400.00
03344              25.00   -11200.00
03345              16.60   -12000.00
03346             -25.00   -12800.00
03347              25.00   -13600.00
03348             -23.40   -14400.00
03349              14.60   -14400.00
03350               1.20   -15200.00
03351             -24.40   -16000.00
03352              25.00   -16000.00
03353             -18.00   -16800.00
03354             -15.20   -16800.00
03355              25.00   -17600.00
03356              -4.60   -18400.00
03357             -22.80   -19200.00
03358              22.80   -19200.00
03359               2.00   -20800.00
03360             -23.80   -20000.00
03361              25.00   -21600.00
03362              -7.40   -21600.00
03363              -8.00   -22400.00
03364              17.00   -22400.00
03365             -11.40   -23200.00
03366              -1.40   -23200.00
03367              10.80   -24000.00
03368              -4.40   -24000.00
03369              -0.60   -24800.00
03370              13.20   -25600.00
03371             -10.60   -25600.00
03372               3.60   -26400.00
03373               7.40   -26400.00
03374              -8.60   -27200.00
03375               6.60   -27200.00
03376               2.80   -27200.00
03377              -2.60   -28000.00
03378               3.20   -28800.00
03379               2.20   -28800.00
03380              -2.00   -28800.00
03381               3.80   -29600.00
03382               2.20   -29600.00
03383              -2.00   -30400.00
03384               3.60   -29600.00
03385               1.00   -31200.00
03386              -1.00   -31200.00
03387               4.40   -31200.00
03388               1.20   -32000.00
03389              -0.40   -32000.00
03390               3.60   -32000.00
03391              -0.40   -32000.00
03392               1.00   -32000.00
03393               2.20   -32800.00
03394               0.80   -32800.00
03395               2.60   -32800.00
03396               1.40   -32800.00
03397               1.20   -32800.00
03398               1.60   -32800.00
03399               1.20   -33600.00
03400               1.80   -32800.00
03401               1.80   -33600.00
03402               1.80   -33600.00
03403               1.60   -33600.00
03404               1.80   -32800.00
03405               1.20   -33600.00
03406               1.20   -33600.00
03407               2.60   -34400.00
03408               1.00   -33600.00
03409               2.00   -33600.00
03410               2.80   -33600.00
03411               0.00   -32800.00
03412               1.80   -33600.00
03413               2.60   -33600.00
03414               1.00   -33600.00
03415               2.00   -32800.00
03416               1.40   -33600.00
03417               1.60   -32800.00
03418               1.00   -32800.00
03419               1.20   -32800.00
03420               1.40   -32000.00
03421               1.20   -32800.00
03422               1.80   -32000.00
03423               1.80   -32000.00
03424               1.00   -32800.00
03425               1.40   -32000.00
03426               1.80   -32000.00
03427               1.80   -32000.00
03428               1.20   -31200.00
03429               1.20   -31200.00
03430               1.00   -30400.00
03431               1.20   -30400.00
03432               1.00   -29600.00
03433               1.20   -29600.00
03434               1.20   -29600.00
03435               1.00   -28800.00
03436               1.20   -28800.00
03437               1.00   -28800.00
03438               0.60   -28800.00
03439               2.00   -27200.00
03440               1.40   -27200.00
03441               0.40   -27200.00
03442               0.60   -26400.00
03443               0.80   -26400.00
03444               0.80   -26400.00
03445               1.80   -25600.00
03446               1.20   -25600.00
03447               0.60   -24800.00
03448               1.00   -24000.00
03449               0.40   -24000.00
03450               0.40   -24000.00
03451               1.20   -22400.00
03452               1.20   -23200.00
03453               0.80   -21600.00
03454               1.00   -21600.00
03455               0.40   -20800.00
03456               0.40   -20800.00
03457               0.20   -20000.00
03458               0.20   -19200.00
03459               1.00   -18400.00
03460               1.00   -18400.00
03461               0.40   -17600.00
03462               1.20   -16800.00
03463               0.60   -16800.00
03464               0.60   -16000.00
03465               0.20   -16000.00
03466               0.40   -14400.00
03467               0.20   -14400.00
03468              -0.20   -13600.00
03469               0.60   -12800.00
03470               0.40   -12800.00
03471               0.40   -12800.00
03472               1.00   -12000.00
03473               0.60   -11200.00
03474              -0.80   -10400.00
03475              -0.60    -9600.00
03476              -0.20    -9600.00
03477               0.20    -9600.00
03478               0.40    -8000.00
03479               1.00    -7200.00
03480               0.40    -6400.00
03481              -0.20    -6400.00
03482              -0.60    -5600.00
03483              -0.40    -4800.00
03484              -0.60    -4000.00
03485              -0.40    -3200.00
03486               0.20    -3200.00
03487              -0.20    -3200.00
03488              -0.60    -1600.00
03489              -0.40     -800.00
03490              -0.20     -800.00
03491              -0.40        0.00
03492              -0.20     1600.00
03493               0.40     1600.00
03494               3.00     1600.00
03495              -2.20     2400.00
03496              -1.80     2400.00
03497               1.20     3200.00
03498              -0.20     4000.00
03499              -0.40     4800.00
03500              14.20     5600.00
03501              25.00     7200.00
03502             -25.00     8000.00
03503             -25.00     8800.00
03504              25.00     8800.00
03505              -9.40     8800.00
03506             -25.00     8800.00
03507              25.00    10400.00
03508             -18.80    11200.00
03509             -25.00    11200.00
03510              25.00    12000.00
03511             -25.00    12000.00
03512              18.60    13600.00
03513              19.80    12800.00
03514             -25.00    14400.00
03515              25.00    15200.00
03516             -25.00    14400.00
03517               2.80    16000.00
03518              25.00    16000.00
03519             -25.00    16800.00
03520              21.00    17600.00
03521              25.00    18400.00
03522             -25.00    18400.00
03523             -11.80    19200.00
03524              25.00    19200.00
03525             -25.00    20000.00
03526              -3.80    21600.00
03527              25.00    21600.00
03528             -25.00    22400.00
03529              17.40    22400.00
03530              -2.80    23200.00
03531             -18.00    24000.00
03532              11.40    24000.00
03533              -0.80    24800.00
03534             -10.00    24000.00
03535              10.60    25600.00
03536              -0.40    25600.00
03537             -16.40    26400.00
03538              13.20    26400.00
03539              -9.40    27200.00
03540              -4.60    27200.00
03541               7.60    27200.00
03542              -7.00    28000.00
03543              -1.20    28800.00
03544               1.20    28800.00
03545              -4.40    28800.00
03546              -3.00    29600.00
03547               2.20    30400.00
03548              -3.60    30400.00
03549              -3.00    30400.00
03550               0.40    30400.00
03551              -5.20    31200.00
03552              -2.20    31200.00
03553               1.20    32800.00
03554              -5.20    32000.00
03555               0.40    32800.00
03556              -1.20    32000.00
03557              -5.80    32800.00
03558               0.60    32800.00
03559              -3.60    33600.00
03560              -2.60    33600.00
03561               1.00    33600.00
03562              -3.60    33600.00
03563              -2.80    33600.00
03564              -2.00    33600.00
03565              -3.00    34400.00
03566              -2.20    33600.00
03567              -1.00    33600.00
03568              -2.00    34400.00
03569              -3.00    34400.00
03570              -0.40    34400.00
03571              -2.80    34400.00
03572              -2.80    34400.00
03573              -1.00    34400.00
03574              -4.00    34400.00
03575              -0.60    34400.00
03576              -2.20    34400.00
03577              -4.60    34400.00
03578               0.40    34400.00
03579              -1.60    34400.00
03580              -3.80    34400.00
03581              -0.40    34400.00
03582              -2.60    34400.00
03583              -4.40    33600.00
03584              -1.00    33600.00
03585              -1.60    33600.00
03586              -3.00    33600.00
03587               0.40    33600.00
03588              -2.20    33600.00
03589              -4.60    33600.00
03590              -1.00    33600.00
03591              -3.00    33600.00
03592              -2.20    32800.00
03593               0.60    32000.00
03594              -2.60    32000.00
03595              -2.00    32000.00
03596              -0.80    32000.00
03597              -3.40    31200.00
03598              -1.60    30400.00
03599              -1.40    30400.00
03600              -2.80    30400.00
03601              -1.80    30400.00
03602              -1.80    29600.00
03603              -2.20    29600.00
03604              -1.00    28800.00
03605              -1.20    28800.00
03606              -2.60    28000.00
03607              -1.20    28000.00
03608              -2.00    27200.00
03609              -3.40    27200.00
03610              -0.40    27200.00
03611              -1.20    25600.00
03612              -2.20    25600.00
03613              -0.60    25600.00
03614              -1.80    25600.00
03615              -2.00    24800.00
03616              -1.80    24800.00
03617              -2.20    24000.00
03618              -1.20    24000.00
03619              -1.80    23200.00
03620              -1.60    22400.00
03621              -0.60    22400.00
03622              -1.80    21600.00
03623              -2.20    20800.00
03624              -1.00    20800.00
03625              -1.80    19200.00
03626              -2.00    19200.00
03627              -0.60    18400.00
03628              -1.20    18400.00
03629              -1.20    17600.00
03630              -0.60    17600.00
03631              -1.40    16000.00
03632              -1.60    16000.00
03633              -1.80    16000.00
03634              -1.80    15200.00
03635              -0.80    14400.00
03636              -0.60    13600.00
03637              -1.60    12800.00
03638              -0.40    12800.00
03639              -0.60    12000.00
03640              -1.80    11200.00
03641              -1.20    11200.00
03642              -0.60     9600.00
03643              -1.00     9600.00
03644              -0.60     8800.00
03645              -0.40     8800.00
03646              -1.00     8000.00
03647              -0.60     7200.00
03648              -0.40     6400.00
03649              -1.00     5600.00
03650              -0.60     5600.00
03651              -0.60     4800.00
03652              -0.40     4000.00
03653              -0.20     3200.00
03654              -0.60     2400.00
03655              -0.60     1600.00
03656              -0.20     1600.00
03657              -0.60      800.00
03658              -0.20        0.00
03659               0.60     -800.00
03660               2.80     -800.00
03661               2.20    -1600.00
03662              -1.80    -1600.00
03663               2.00    -3200.00
03664               2.20    -3200.00
03665              -1.00    -4000.00
03666               1.00    -4800.00
03667              11.40    -4800.00
03668              25.00    -6400.00
03669             -19.80    -7200.00
03670             -25.00    -8000.00
03671              19.60    -8800.00
03672              14.80    -9600.00
03673             -25.00    -8000.00
03674               6.80    -8800.00
03675              25.00   -10400.00
03676             -25.00   -10400.00
03677               1.40   -11200.00
03678              25.00   -12000.00
03679             -25.00   -12000.00
03680              21.80   -13600.00
03681               9.00   -13600.00
03682             -13.00   -14400.00
03683              25.00   -14400.00
03684             -25.00   -15200.00
03685              25.00   -16000.00
03686              13.40   -16800.00
03687             -25.00   -17600.00
03688              21.20   -17600.00
03689              15.80   -17600.00
03690             -25.00   -19200.00
03691               4.20   -18400.00
03692              24.40   -20000.00
03693             -25.00   -20000.00
03694              15.20   -20800.00
03695              14.20   -21600.00
03696             -20.20   -22400.00
03697              15.60   -22400.00
03698              -1.00   -22400.00
03699             -10.20   -23200.00
03700               9.80   -24000.00
03701               3.00   -24000.00
03702              -7.80   -24800.00
03703              12.60   -25600.00
03704              -2.20   -25600.00
03705              -6.80   -25600.00
03706              11.80   -26400.00
03707              -6.00   -26400.00
03708               0.60   -27200.00
03709               7.20   -27200.00
03710              -2.60   -27200.00
03711               1.00   -28000.00
03712               4.20   -28800.00
03713              -1.40   -28800.00
03714               1.80   -29600.00
03715               4.00   -29600.00
03716              -2.00   -30400.00
03717               1.80   -30400.00
03718               3.80   -30400.00
03719              -1.40   -30400.00
03720               3.00   -31200.00
03721               3.60   -32000.00
03722              -1.40   -32000.00
03723               3.00   -32000.00
03724               1.40   -32000.00
03725              -0.60   -32000.00
03726               2.60   -32000.00
03727               1.00   -32800.00
03728               2.00   -32000.00
03729               2.60   -32800.00
03730               0.40   -32800.00
03731               1.80   -32800.00
03732               1.80   -32800.00
03733               1.00   -32800.00
03734               1.80   -32800.00
03735               1.80   -33600.00
03736               1.20   -33600.00
03737               1.40   -33600.00
03738               2.20   -33600.00
03739               0.20   -33600.00
03740               2.00   -33600.00
03741               2.20   -33600.00
03742               0.60   -33600.00
03743               2.80   -33600.00
03744               1.20   -33600.00
03745               1.20   -33600.00
03746               2.60   -33600.00
03747               1.20   -33600.00
03748               1.80   -32800.00
03749               1.20   -33600.00
03750               1.40   -33600.00
03751               1.40   -32800.00
03752               1.40   -33600.00
03753               1.40   -32800.00
03754               1.20   -32800.00
03755               2.00   -32000.00
03756               1.40   -32800.00
03757               0.60   -32000.00
03758               1.80   -32000.00
03759               0.60   -32000.00
03760               1.40   -32000.00
03761               1.60   -30400.00
03762               1.00   -31200.00
03763               1.20   -30400.00
03764               1.20   -31200.00
03765               1.20   -30400.00
03766               1.20   -29600.00
03767               1.00   -29600.00
03768               1.00   -29600.00
03769               1.00   -28800.00
03770               1.00   -28800.00
03771               0.40   -28000.00
03772               1.40   -28800.00
03773               1.20   -28000.00
03774               0.60   -27200.00
03775               0.80   -27200.00
03776               1.00   -26400.00
03777               0.60   -26400.00
03778               1.40   -25600.00
03779               1.00   -25600.00
03780               1.20   -25600.00
03781               0.60   -24800.00
03782               1.40   -24000.00
03783               0.20   -23200.00
03784               0.60   -23200.00
03785               1.40   -22400.00
03786               1.20   -22400.00
03787               0.00   -21600.00
03788               1.20   -20800.00
03789               1.00   -20800.00
03790              -0.40   -20000.00
03791               1.20   -20000.00
03792               1.00   -18400.00
03793              -0.20   -18400.00
03794               1.00   -17600.00
03795               0.40   -17600.00
03796               0.40   -16800.00
03797               1.00   -16000.00
03798               0.40   -16000.00
03799               0.40   -15200.00
03800               0.60   -14400.00
03801              -0.20   -14400.00
03802               0.60   -13600.00
03803              -0.20   -13600.00
03804               0.20   -12000.00
03805               0.20   -12000.00
03806              -0.60   -11200.00
03807               1.40   -10400.00
03808               0.20    -9600.00
03809              -0.80    -9600.00
03810               1.40    -9600.00
03811              -0.60    -8000.00
03812              -1.00    -7200.00
03813               1.20    -7200.00
03814              -0.40    -6400.00
03815              -0.60    -6400.00
03816               0.60    -4800.00
03817              -0.80    -4000.00
03818              -1.00    -4000.00
03819               0.20    -3200.00
03820              -0.40    -3200.00
03821              -1.00    -2400.00
03822               0.00     -800.00
03823              -0.20     -800.00
03824              -1.00     -800.00
03825               0.00      800.00
03826               0.20      800.00
03827               2.40     1600.00
03828               1.20     2400.00
03829              -3.00     3200.00
03830               0.20     3200.00
03831               1.40     3200.00
03832              -2.20     4800.00
03833               6.80     5600.00
03834              25.00     6400.00
03835             -10.80     7200.00
03836             -25.00     8000.00
03837              15.00     8000.00
03838              16.40     8800.00
03839             -25.00     8800.00
03840              25.00    10400.00
03841              25.00     9600.00
03842             -25.00    10400.00
03843              25.00    12000.00
03844               0.40    12000.00
03845             -25.00    12800.00
03846              25.00    12800.00
03847             -25.00    13600.00
03848              25.00    14400.00
03849              10.80    15200.00
03850             -25.00    15200.00
03851              25.00    16000.00
03852             -25.00    16800.00
03853             -20.40    17600.00
03854              25.00    17600.00
03855             -13.40    18400.00
03856             -25.00    18400.00
03857              24.20    19200.00
03858               2.60    20800.00
03859             -25.00    20800.00
03860              25.00    21600.00
03861             -17.00    21600.00
03862              -6.60    22400.00
03863              19.00    22400.00
03864             -23.60    24000.00
03865               4.00    24000.00
03866               6.20    24000.00
03867             -10.60    24000.00
03868              -0.40    25600.00
03869              12.00    25600.00
03870             -18.00    25600.00
03871               5.20    27200.00
03872               3.00    27200.00
03873             -14.00    27200.00
03874               7.80    28000.00
03875              -2.80    28000.00
03876              -5.00    28800.00
03877               2.00    28800.00
03878              -2.20    28800.00
03879              -5.20    28800.00
03880               1.00    30400.00
03881              -1.60    30400.00
03882              -5.20    30400.00
03883               0.20    31200.00
03884              -2.20    31200.00
03885              -4.40    31200.00
03886               2.20    31200.00
03887              -3.40    32800.00
03888              -3.60    32000.00
03889               1.40    32800.00
03890              -4.80    32800.00
03891              -1.40    32800.00
03892              -1.20    33600.00
03893              -4.00    33600.00
03894               0.20    33600.00
03895              -2.20    33600.00
03896              -3.00    33600.00
03897              -1.80    33600.00
03898              -3.00    33600.00
03899              -2.20    33600.00
03900              -2.20    33600.00
03901              -1.40    33600.00
03902              -3.00    34400.00
03903              -1.80    34400.00
03904              -1.60    34400.00
03905              -3.80    34400.00
03906              -0.40    34400.00
03907              -3.40    34400.00
03908              -2.20    33600.00
03909              -0.20    34400.00
03910              -4.20    34400.00
03911              -1.80    34400.00
03912              -2.00    34400.00
03913              -2.20    34400.00
03914              -1.80    34400.00
03915              -2.80    33600.00
03916              -2.00    33600.00
03917              -2.20    33600.00
03918              -2.00    33600.00
03919              -2.00    33600.00
03920              -2.20    33600.00
03921              -1.40    33600.00
03922              -2.20    33600.00
03923              -1.40    33600.00
03924              -2.60    32800.00
03925              -2.80    32800.00
03926              -1.00    32000.00
03927              -2.20    32000.00
03928              -2.20    32800.00
03929              -1.40    31200.00
03930              -2.20    31200.00
03931              -1.60    31200.00
03932              -1.40    31200.00
03933              -2.20    30400.00
03934              -2.00    30400.00
03935              -2.20    30400.00
03936              -1.40    29600.00
03937              -2.00    28800.00
03938              -2.20    28800.00
03939              -1.40    28000.00
03940              -1.60    28800.00
03941              -2.20    28000.00
03942              -2.20    28000.00
03943              -1.40    27200.00
03944              -1.40    27200.00
03945              -2.40    25600.00
03946              -1.00    25600.00
03947              -1.80    25600.00
03948              -2.60    24800.00
03949              -0.60    24800.00
03950              -1.80    24000.00
03951              -2.20    23200.00
03952              -1.20    23200.00
03953              -1.00    23200.00
03954              -2.20    22400.00
03955              -1.80    21600.00
03956              -1.20    20800.00
03957              -2.40    20800.00
03958              -1.40    19200.00
03959              -0.80    19200.00
03960              -1.40    19200.00
03961              -1.80    18400.00
03962              -2.20    17600.00
03963              -0.60    17600.00
03964              -0.60    16800.00
03965              -2.20    16000.00
03966              -1.20    16000.00
03967              -0.40    15200.00
03968              -1.20    14400.00
03969              -1.20    14400.00
03970              -0.60    13600.00
03971              -1.20    12800.00
03972              -0.40    12000.00
03973              -1.00    11200.00
03974              -1.60    11200.00
03975              -1.00    11200.00
03976               0.20     9600.00
03977              -1.20     8800.00
03978              -1.20     8800.00
03979              -0.60     8000.00
03980              -0.40     8000.00
03981               0.00     6400.00
03982              -0.60     6400.00
03983              -1.00     5600.00
03984              -0.20     4800.00
03985              -1.20     3200.00
03986              -0.60     3200.00
03987              -0.40     2400.00
03988              -0.60     2400.00
03989               0.40     1600.00
03990               0.00     1600.00
03991              -0.40        0.00
03992               0.40        0.00
03993               1.00     -800.00
03994               3.60     -800.00
03995              -1.00    -1600.00
03996               0.20    -1600.00
03997               2.20    -3200.00
03998               1.40    -3200.00
03999              -0.40    -4000.00
04000               6.40    -4800.00
04001              23.80    -5600.00
04002               9.00    -7200.00
04003             -25.00    -8000.00
04004              -4.20    -8000.00
04005              25.00    -9600.00
04006             -25.00    -9600.00
04007             -25.00    -8800.00
04008              25.00   -10400.00
04009               1.00   -10400.00
04010             -25.00   -10400.00
04011              25.00   -12000.00
04012             -23.00   -12000.00
04013             -25.00   -13600.00
04014              25.00   -13600.00
04015             -25.00   -13600.00
04016              25.00   -14400.00
04017             -18.80   -14400.00
04018              -6.80   -16000.00
04019              25.00   -16000.00
04020             -25.00   -16800.00
04021              -1.80   -17600.00
04022              25.00   -17600.00
04023             -15.60   -18400.00
04024             -15.80   -19200.00
04025              25.00   -20000.00
04026             -13.40   -20000.00
04027             -10.80   -20000.00
04028              25.00   -20800.00
04029             -17.40   -22400.00
04030               1.80   -22400.00
04031              11.60   -23200.00
04032             -13.80   -23200.00
04033               3.80   -24000.00
04034               9.80   -24000.00
04035              -7.40   -24000.00
04036               5.00   -24800.00
04037               8.40   -25600.00
04038             -12.00   -25600.00
04039               9.20   -25600.00
04040               2.20   -27200.00
04041              -6.20   -27200.00
04042               8.40   -27200.00
04043              -0.20   -28000.00
04044              -1.80   -28000.00
04045               4.40   -28800.00
04046               1.20   -28800.00
04047              -0.60   -29600.00
04048               4.40   -28800.00
04049               0.40   -29600.00
04050              -1.20   -29600.00
04051               4.40   -30400.00
04052               0.20   -31200.00
04053               0.60   -30400.00
04054               4.80   -31200.00
04055              -0.20   -32000.00
04056               0.80   -32000.00
04057               3.40   -32000.00
04058              -0.60   -32800.00
04059               1.80   -32000.00
04060               2.20   -32800.00
04061               1.20   -32800.00
04062               2.60   -33600.00
04063               1.00   -33600.00
04064               1.60   -33600.00
04065               1.60   -32800.00
04066               1.00   -33600.00
04067               1.80   -32800.00
04068               1.80   -33600.00
04069               2.00   -33600.00
04070               1.40   -33600.00
04071               2.40   -33600.00
04072               1.00   -33600.00
04073               1.00   -33600.00
04074               2.60   -33600.00
04075               0.40   -33600.00
04076               1.80   -33600.00
04077               2.20   -33600.00
04078               0.40   -33600.00
04079               2.20   -33600.00
04080               1.80   -33600.00
04081               1.00   -32800.00
04082               1.20   -33600.00
04083               1.20   -33600.00
04084               1.20   -32800.00
04085               1.00   -32800.00
04086               1.60   -32800.00
04087               1.00   -32800.00
04088               1.80   -32000.00
04089               1.80   -32800.00
04090               1.00   -32000.00
04091               1.80   -32000.00
04092               1.00   -32000.00
04093               1.20   -32000.00
04094               2.20   -32000.00
04095               0.60   -31200.00
04096               1.20   -30400.00
04097               1.80   -30400.00
04098               0.60   -30400.00
04099               1.20   -29600.00
04100               1.20   -29600.00
04101               1.00   -29600.00
04102               1.60   -28800.00
04103               1.00   -28800.00
04104               0.60   -28800.00
04105               1.20   -28800.00
04106               1.20   -28000.00
04107               0.80   -27200.00
04108               1.00   -27200.00
04109               1.20   -26400.00
04110               0.40   -26400.00
04111               1.20   -25600.00
04112               1.00   -25600.00
04113               1.00   -25600.00
04114               1.40   -24000.00
04115               0.80   -24000.00
04116               0.60   -24000.00
04117               1.20   -23200.00
04118               0.80   -23200.00
04119               1.20   -22400.00
04120               1.00   -22400.00
04121               0.80   -20800.00
04122               1.00   -20800.00
04123               0.40   -20800.00
04124               0.40   -20000.00
04125               0.80   -18400.00
04126               0.60   -18400.00
04127               0.60   -17600.00
04128               0.40   -17600.00
04129               0.40   -16800.00
04130               0.60   -16000.00
04131               0.40   -16000.00
04132               0.40   -16000.00
04133               0.40   -14400.00
04134               1.00   -14400.00
04135               0.40   -13600.00
04136               0.40   -13600.00
04137              -0.20   -12800.00
04138               0.20   -12000.00
04139               0.60   -11200.00
04140              -0.20   -11200.00
04141              -0.40   -11200.00
04142               0.20    -9600.00
04143              -0.40    -8800.00
04144               0.20    -8000.00
04145               0.40    -7200.00
04146              -0.40    -8000.00
04147              -0.40    -6400.00
04148              -0.20    -6400.00
04149              -0.40    -4800.00
04150              -0.40    -4800.00
04151              -0.20    -4000.00
04152              -0.40    -3200.00
04153              -0.20    -3200.00
04154              -0.40    -1600.00
04155              -0.60    -1600.00
04156              -0.40     -800.00
04157              -0.60        0.00
04158              -0.60        0.00
04159               0.20      800.00
04160               1.40     1600.00
04161               2.80     2400.00
04162              -3.00     2400.00
04163              -0.60     3200.00
04164               1.40     3200.00
04165              -1.40     4800.00
04166               2.00     4800.00
04167              21.40     6400.00
04168              22.00     8000.00
04169             -25.00     8000.00
04170             -13.20     8000.00
04171              25.00     8800.00
04172             -25.00     8800.00
04173             -16.40     8800.00
04174              25.00    10400.00
04175             -25.00     9600.00
04176               4.60    12000.00
04177              25.00    12000.00
04178             -25.00    12000.00
04179              25.00    13600.00
04180             -18.80    13600.00
04181             -14.80    14400.00
04182              25.00    14400.00
04183             -25.00    15200.00
04184              25.00    16000.00
04185              25.00    16000.00
04186             -25.00    16800.00
04187              25.00    17600.00
04188              10.80    18400.00
04189             -25.00    19200.00
04190               2.20    19200.00
04191              25.00    20800.00
04192             -25.00    20800.00
04193              16.00    21600.00
04194              15.80    22400.00
04195             -25.00    22400.00
04196              25.00    22400.00
04197             -14.60    24000.00
04198             -10.40    24000.00
04199              10.60    24000.00
04200              -4.60    24000.00
04201              -8.40    25600.00
04202              14.00    25600.00
04203              -8.40    25600.00
04204             -10.00    26400.00
04205              11.80    27200.00
04206             -14.20    26400.00
04207               1.40    28000.00
04208               4.00    28800.00
04209              -7.40    28800.00
04210               0.40    28800.00
04211              -0.20    28800.00
04212              -5.40    29600.00
04213              -1.00    29600.00
04214               1.80    29600.00
04215              -5.40    30400.00
04216              -1.80    30400.00
04217               0.20    31200.00
04218              -6.00    31200.00
04219              -0.20    32000.00
04220               0.20    32000.00
04221              -5.40    32800.00
04222               1.20    32000.00
04223              -2.80    32800.00
04224              -4.20    32000.00
04225               0.40    33600.00
04226              -3.60    32800.00
04227              -1.40    33600.00
04228              -0.40    33600.00
04229              -3.60    33600.00
04230              -2.20    33600.00
04231              -2.20    33600.00
04232              -2.20    33600.00
04233              -1.80    33600.00
04234              -1.40    34400.00
04235              -2.20    33600.00
04236              -2.80    33600.00
04237              -1.00    34400.00
04238              -3.60    34400.00
04239              -1.20    34400.00
04240              -1.80    34400.00
04241              -3.60    33600.00
04242               0.20    34400.00
04243              -3.00    34400.00
04244              -3.00    34400.00
04245              -0.60    34400.00
04246              -3.00    34400.00
04247              -1.80    34400.00
04248              -2.20    34400.00
04249              -2.80    34400.00
04250              -1.80    33600.00
04251              -2.20    33600.00
04252              -1.40    33600.00
04253              -2.20    33600.00
04254              -1.80    32800.00
04255              -2.20    33600.00
04256              -1.80    33600.00
04257              -2.20    32800.00
04258              -2.80    32800.00
04259              -1.00    32000.00
04260              -1.80    32800.00
04261              -2.20    32000.00
04262              -1.40    32000.00
04263              -2.00    32800.00
04264              -1.80    31200.00
04265              -2.20    31200.00
04266              -2.00    31200.00
04267              -1.80    30400.00
04268              -2.20    30400.00
04269              -1.20    30400.00
04270              -2.00    28800.00
04271              -2.80    28800.00
04272              -1.20    28000.00
04273              -1.60    28800.00
04274              -2.00    28000.00
04275              -1.40    27200.00
04276              -2.20    27200.00
04277              -2.00    27200.00
04278              -1.80    26400.00
04279              -1.60    25600.00
04280              -1.40    25600.00
04281              -2.00    25600.00
04282              -2.20    24000.00
04283              -2.00    24800.00
04284              -2.00    24000.00
04285              -1.80    24000.00
04286              -1.20    22400.00
04287              -1.00    22400.00
04288              -1.20    21600.00
04289              -1.40    21600.00
04290              -2.20    20800.00
04291              -2.00    19200.00
04292              -1.00    20000.00
04293              -1.80    19200.00
04294              -0.80    18400.00
04295              -1.00    17600.00
04296              -1.40    17600.00
04297              -0.60    17600.00
04298              -1.40    16000.00
04299              -1.80    16000.00
04300              -1.20    15200.00
04301              -0.60    14400.00
04302              -1.20    14400.00
04303              -1.20    13600.00
04304              -1.00    13600.00
04305              -0.20    12000.00
04306              -0.60    12000.00
04307              -1.20    11200.00
04308              -1.80    11200.00
04309              -0.60    10400.00
04310              -1.20     9600.00
04311              -1.00     8800.00
04312              -0.20     8000.00
04313              -0.40     8000.00
04314              -0.60     7200.00
04315              -0.60     6400.00
04316              -1.20     5600.00
04317              -0.40     4800.00
04318              -0.60     4800.00
04319               0.20     4000.00
04320               0.20     3200.00
04321              -0.60     2400.00
04322              -0.60     1600.00
04323               0.20      800.00
04324              -0.40        0.00
04325               0.20        0.00
04326               1.00     -800.00
04327               3.40     -800.00
04328               0.40    -1600.00
04329              -1.20    -2400.00
04330               1.60    -3200.00
04331               1.60    -3200.00
04332              -0.40    -4000.00
04333               3.40    -4800.00
04334              15.40    -4800.00
04335              25.00    -7200.00
04336             -25.00    -8000.00
04337             -25.00    -8000.00
04338              25.00    -8800.00
04339               1.00    -8800.00
04340             -25.00    -9600.00
04341              25.00    -9600.00
04342              25.00   -10400.00
04343             -25.00   -10400.00
04344              25.00   -11200.00
04345              25.00   -12000.00
04346             -25.00   -12800.00
04347              25.00   -13600.00
04348             -13.00   -14400.00
04349               4.00   -14400.00
04350              13.00   -15200.00
04351             -25.00   -16000.00
04352              25.00   -16000.00
04353              -6.60   -16000.00
04354             -23.40   -17600.00
04355              25.00   -17600.00
04356               3.00   -17600.00
04357             -25.00   -18400.00
04358              16.40   -19200.00
04359              12.20   -20000.00
04360             -25.00   -20800.00
04361              25.00   -20800.00
04362               1.00   -21600.00
04363             -13.80   -22400.00
04364              18.20   -22400.00
04365              -8.40   -22400.00
04366              -4.60   -24000.00
04367              11.00   -24000.00
04368              -1.60   -24000.00
04369              -4.20   -24800.00
04370              13.80   -25600.00
04371              -7.60   -25600.00
04372              -0.40   -25600.00
04373               9.80   -26400.00
04374              -8.20   -27200.00
04375               4.60   -27200.00
04376               4.60   -27200.00
04377              -2.60   -28000.00
04378               2.00   -28800.00
04379               3.60   -28800.00
04380              -1.40   -29600.00
04381               2.80   -29600.00
04382               3.40   -29600.00
04383              -2.00   -30400.00
04384               3.00   -29600.00
04385               2.60   -30400.00
04386              -1.20   -31200.00
04387               3.60   -30400.00
04388               2.20   -31200.00
04389              -1.20   -32000.00
04390               3.80   -32000.00
04391               1.00   -32000.00
04392               0.20   -32000.00
04393               2.80   -32000.00
04394               1.00   -32800.00
04395               2.40   -32800.00
04396               2.20   -33600.00
04397               0.60   -32800.00
04398               1.60   -32800.00
04399               1.40   -32800.00
04400               1.00   -33600.00
04401               1.40   -32800.00
04402               2.00   -33600.00
04403               0.60   -32800.00
04404               2.00   -33600.00
04405               2.00   -33600.00
04406              -0.20   -33600.00
04407               2.20   -33600.00
04408               1.40   -33600.00
04409               0.40   -33600.00
04410               2.80   -33600.00
04411               0.60   -32800.00
04412               1.00   -33600.00
04413               2.60   -32800.00
04414               1.40   -33600.00
04415               1.20   -33600.00
04416               1.20   -33600.00
04417               1.20   -33600.00
04418               1.20   -33600.00
04419               1.40   -32800.00
04420               1.20   -32000.00
04421               1.20   -32800.00
04422               2.00   -32000.00
04423               0.60   -32800.00
04424               1.20   -32000.00
04425               1.80   -32000.00
04426               1.20   -32000.00
04427               2.00   -32000.00
04428               1.20   -30400.00
04429               0.60   -32000.00
04430               1.20   -30400.00
04431               1.20   -30400.00
04432               1.00   -30400.00
04433               1.80   -29600.00
04434               0.80   -29600.00
04435               1.00   -29600.00
04436               1.20   -28800.00
04437               1.00   -28800.00
04438               1.00   -28800.00
04439               1.80   -28000.00
04440               0.60   -27200.00
04441               1.00   -27200.00
04442               1.20   -26400.00
04443               1.00   -26400.00
04444               1.40   -26400.00
04445               1.40   -25600.00
04446               0.60   -25600.00
04447               1.20   -25600.00
04448               0.60   -24000.00
04449               0.60   -24000.00
04450               1.20   -23200.00
04451               1.00   -22400.00
04452               1.20   -22400.00
04453               1.00   -22400.00
04454               0.60   -21600.00
04455               0.40   -20800.00
04456               0.40   -20800.00
04457               0.60   -20000.00
04458               1.00   -19200.00
04459               1.00   -18400.00
04460               0.40   -18400.00
04461               0.40   -17600.00
04462               0.40   -17600.00
04463               0.40   -16800.00
04464               0.60   -16000.00
04465               0.40   -16000.00
04466              -0.20   -16000.00
04467               0.40   -14400.00
04468               0.20   -14400.00
04469              -0.20   -13600.00
04470               0.20   -12800.00
04471               0.20   -12000.00
04472               0.40   -12000.00
04473               0.40   -11200.00
04474              -0.40   -10400.00
04475               0.20    -9600.00
04476              -0.20    -9600.00
04477              -0.20    -8800.00
04478               0.20    -8000.00
04479               0.40    -7200.00
04480              -0.20    -6400.00
04481               0.20    -6400.00
04482              -0.40    -4800.00
04483              -0.60    -4800.00
04484              -0.40    -4000.00
04485              -0.40    -3200.00
04486              -0.40    -3200.00
04487              -0.40    -2400.00
04488              -0.20    -1600.00
04489              -0.20    -1600.00
04490              -0.40     -800.00
04491              -0.40        0.00
04492               0.20        0.00
04493               0.40     1600.00
04494               3.20     1600.00
04495              -1.20     2400.00
04496              -2.20     2400.00
04497               1.00     3200.00
04498               0.40     4800.00
04499              -1.20     4800.00
04500              11.20     5600.00
04501              25.00     7200.00
04502             -25.00     8000.00
04503             -25.00     8000.00
04504              25.00     8800.00
04505               2.20     8800.00
04506             -25.00     8800.00
04507              25.00     9600.00
04508              11.20    10400.00
04509             -25.00    11200.00
04510              25.00    12000.00
04511             -25.00    12000.00
04512              -8.20    12800.00
04513              25.00    13600.00
04514             -25.00    14400.00
04515              25.00    15200.00
04516             -25.00    15200.00
04517             -25.00    16000.00
04518              25.00    16000.00
04519             -25.00    16800.00
04520               6.60    17600.00
04521              25.00    17600.00
04522             -23.00    18400.00
04523             -19.00    18400.00
04524              25.00    19200.00
04525             -16.60    20800.00
04526             -17.80    20800.00
04527              25.00    21600.00
04528             -25.00    22400.00
04529               8.20    22400.00
04530               7.40    22400.00
04531             -22.20    24000.00
04532               9.00    24000.00
04533               2.60    24000.00
04534             -11.00    24000.00
04535               5.80    25600.00
04536               5.60    25600.00
04537             -18.20    25600.00
04538              10.80    27200.00
04539              -5.00    27200.00
04540              -9.00    27200.00
04541               7.80    28000.00
04542              -6.20    28000.00
04543              -2.80    28800.00
04544               1.20    28800.00
04545              -3.00    28800.00
04546              -3.80    28800.00
04547               2.00    30400.00
04548              -3.40    30400.00
04549              -4.40    31200.00
04550               1.00    30400.00
04551              -3.80    31200.00
04552              -3.40    31200.00
04553               2.60    32000.00
04554              -5.00    32000.00
04555              -2.00    32800.00
04556               0.20    32000.00
04557              -5.40    32800.00
04558              -0.60    32800.00
04559              -2.20    32800.00
04560              -2.80    33600.00
04561               0.20    33600.00
04562              -2.80    33600.00
04563              -2.20    33600.00
04564              -2.00    34400.00
04565              -2.80    33600.00
04566              -2.00    33600.00
04567              -1.80    34400.00
04568              -1.60    34400.00
04569              -2.80    34400.00
04570              -1.00    34400.00
04571              -2.20    34400.00
04572              -2.60    34400.00
04573              -0.60    34400.00
04574              -3.80    34400.00
04575              -1.00    34400.00
04576              -1.20    34400.00
04577              -3.60    34400.00
04578              -0.60    34400.00
04579              -2.20    34400.00
04580              -2.00    34400.00
04581              -1.40    34400.00
04582              -2.80    34400.00
04583              -1.80    34400.00
04584              -1.80    33600.00
04585              -2.00    33600.00
04586              -2.60    33600.00
04587              -2.00    33600.00
04588              -1.40    33600.00
04589              -2.40    33600.00
04590              -1.60    32800.00
04591              -2.80    32800.00
04592              -2.20    32800.00
04593              -1.20    32800.00
04594              -2.60    32000.00
04595              -2.00    32000.00
04596              -1.60    32800.00
04597              -2.20    31200.00
04598              -1.60    31200.00
04599              -2.00    31200.00
04600              -1.80    31200.00
04601              -2.20    30400.00
04602              -2.60    29600.00
04603              -1.40    29600.00
04604              -2.20    28800.00
04605              -2.60    28800.00
04606              -1.20    28000.00
04607              -1.80    28000.00
04608              -2.20    28000.00
04609              -2.20    27200.00
04610              -1.20    27200.00
04611              -1.80    26400.00
04612              -2.20    25600.00
04613              -1.40    25600.00
04614              -1.80    24800.00
04615              -2.00    24800.00
04616              -1.80    24800.00
04617              -1.20    24000.00
04618              -2.00    24000.00
04619              -2.60    23200.00
04620              -1.00    22400.00
04621              -1.40    22400.00
04622              -2.00    21600.00
04623              -0.60    20800.00
04624              -2.20    20800.00
04625              -0.60    20000.00
04626              -0.60    19200.00
04627              -2.20    19200.00
04628              -1.40    17600.00
04629              -1.20    17600.00
04630              -0.60    16800.00
04631              -1.00    16800.00
04632              -1.80    16000.00
04633              -1.20    15200.00
04634              -1.00    15200.00
04635              -1.00    14400.00
04636              -0.60    14400.00
04637              -1.80    12800.00
04638              -1.00    12800.00
04639               0.40    12000.00
04640              -1.40    12000.00
04641              -2.00    11200.00
04642               0.20    10400.00
04643              -0.60     9600.00
04644              -1.60     8800.00
04645              -0.20     8800.00
04646              -1.00     8000.00
04647              -1.00     7200.00
04648              -0.40     6400.00
04649              -0.60     5600.00
04650              -0.40     5600.00
04651              -0.20     4800.00
04652              -0.60     3200.00
04653              -0.40     3200.00
04654              -0.40     2400.00
04655              -0.40     1600.00
04656              -0.20     1600.00
04657              -0.20        0.00
04658               0.20        0.00
04659               0.20     -800.00
04660               1.80     -800.00
04661               3.40    -1600.00
04662              -1.80    -1600.00
04663               0.40    -2400.00
04664               1.40    -3200.00
04665               0.40    -3200.00
04666               0.60    -4000.00
04667               9.00    -4800.00
04668              25.00    -6400.00
04669              -7.60    -8000.00
04670             -25.00    -8000.00
04671              10.60    -8000.00
04672              21.20    -8800.00
04673             -25.00    -8800.00
04674              -9.20    -8800.00
04675              25.00   -10400.00
04676             -25.00   -10400.00
04677             -25.00   -11200.00
04678              25.00   -12000.00
04679             -25.00   -12800.00
04680               3.80   -13600.00
04681              22.80   -13600.00
04682             -22.20   -14400.00
04683              25.00   -14400.00
04684             -25.00   -15200.00
04685              14.00   -16800.00
04686              25.00   -16800.00
04687             -25.00   -16800.00
04688              13.80   -17600.00
04689              22.20   -17600.00
04690             -23.40   -19200.00
04691              -4.40   -19200.00
04692              25.00   -20000.00
04693             -25.00   -20000.00
04694               5.40   -20800.00
04695              22.00   -20800.00
04696             -20.40   -22400.00
04697              11.60   -22400.00
04698               3.80   -22400.00
04699             -12.20   -23200.00
04700               8.20   -24000.00
04701               6.00   -24000.00
04702              -8.00   -24800.00
04703              10.00   -24800.00
04704               2.60   -25600.00
04705              -9.20   -25600.00
04706              11.80   -26400.00
04707              -3.20   -26400.00
04708              -1.80   -27200.00
04709               8.20   -27200.00
04710              -2.20   -28000.00
04711              -0.20   -28800.00
04712               4.40   -28800.00
04713              -0.20   -28800.00
04714               1.00   -28800.00
04715               4.40   -29600.00
04716              -0.60   -29600.00
04717               0.40   -29600.00
04718               4.20   -30400.00
04719              -1.20   -29600.00
04720               1.80   -30400.00
04721               4.20   -31200.00
04722              -0.80   -32000.00
04723               2.20   -32000.00
04724               2.00   -32000.00
04725              -0.60   -32000.00
04726               2.20   -32000.00
04727               1.40   -32800.00
04728               1.60   -32000.00
04729               2.20   -32800.00
04730               0.40   -32800.00
04731               1.40   -33600.00
04732               1.40   -33600.00
04733               1.20   -33600.00
04734               1.80   -32800.00
04735               1.40   -33600.00
04736               1.40   -33600.00
04737               1.60   -33600.00
04738               2.20   -33600.00
04739               0.60   -33600.00
04740               1.40   -33600.00
04741               2.20   -33600.00
04742               0.60   -33600.00
04743               2.20   -33600.00
04744               1.20   -33600.00
04745               0.80   -33600.00
04746               2.60   -33600.00
04747               1.40   -33600.00
04748               1.40   -33600.00
04749               1.60   -33600.00
04750               1.20   -32800.00
04751               1.00   -32800.00
04752               1.20   -32800.00
04753               1.40   -32800.00
04754               1.00   -32800.00
04755               2.20   -32800.00
04756               1.40   -32800.00
04757               1.00   -32000.00
04758               1.80   -32000.00
04759               1.00   -32000.00
04760               1.20   -32000.00
04761               1.40   -32000.00
04762               1.00   -30400.00
04763               1.80   -30400.00
04764               1.80   -30400.00
04765               1.00   -29600.00
04766               1.40   -29600.00
04767               1.80   -29600.00
04768               1.00   -28800.00
04769               1.60   -28800.00
04770               1.00   -28800.00
04771               0.60   -28000.00
04772               1.00   -28800.00
04773               1.40   -27200.00
04774               1.20   -27200.00
04775               1.40   -26400.00
04776               1.00   -26400.00
04777               0.60   -26400.00
04778               1.20   -25600.00
04779               0.40   -25600.00
04780               1.20   -24800.00
04781               1.40   -24000.00
04782              -0.20   -24000.00
04783               1.80   -24000.00
04784               1.00   -23200.00
04785               0.40   -22400.00
04786               2.00   -22400.00
04787              -0.40   -22400.00
04788               0.60   -20800.00
04789               1.40   -20800.00
04790              -1.00   -20000.00
04791               1.00   -20000.00
04792               1.40   -18400.00
04793              -0.40   -18400.00
04794               0.60   -17600.00
04795               0.20   -17600.00
04796               0.20   -16800.00
04797               1.60   -16000.00
04798               0.20   -16000.00
04799              -0.20   -15200.00
04800               0.40   -15200.00
04801              -0.20   -14400.00
04802              -0.40   -13600.00
04803              -0.40   -12800.00
04804               0.60   -12000.00
04805               0.40   -12000.00
04806               0.20   -11200.00
04807              -0.20   -10400.00
04808              -0.60   -10400.00
04809               0.00    -9600.00
04810               0.40    -8800.00
04811              -0.20    -8000.00
04812               0.20    -8000.00
04813               0.40    -7200.00
04814              -0.20    -6400.00
04815              -0.40    -6400.00
04816              -0.40    -5600.00
04817              -1.00    -4000.00
04818              -0.40    -3200.00
04819              -0.20    -3200.00
04820              -0.20    -3200.00
04821               0.40    -1600.00
04822               0.40     -800.00
04823              -0.60     -800.00
04824              -0.40        0.00
04825              -0.40        0.00
04826              -0.60     1600.00
04827               2.60     1600.00
04828               2.20     2400.00
04829              -2.80     2400.00
04830               1.20     3200.00
04831               1.20     3200.00
04832              -2.80     4000.00
04833               5.20     4800.00
04834              25.00     6400.00
04835               3.00     8000.00
04836             -25.00     8000.00
04837               5.20     8800.00
04838              24.20     8000.00
04839             -25.00     8800.00
04840              13.20     9600.00
04841              25.00    11200.00
04842             -25.00    11200.00
04843              25.00    12000.00
04844              25.00    12000.00
04845             -25.00    12800.00
04846              25.00    13600.00
04847             -25.00    13600.00
04848              25.00    15200.00
04849              25.00    14400.00
04850             -25.00    16000.00
04851              25.00    16000.00
04852             -13.00    17600.00
04853             -25.00    16800.00
04854              25.00    17600.00
04855              -4.60    17600.00
04856             -25.00    18400.00
04857              17.20    20000.00
04858              13.80    20800.00
04859             -25.00    20800.00
04860              25.00    20800.00
04861              -5.20    22400.00
04862             -16.20    22400.00
04863              23.60    23200.00
04864             -22.00    23200.00
04865              -1.20    24000.00
04866               7.80    24000.00
04867              -9.00    24800.00
04868              -4.20    24800.00
04869              14.20    25600.00
04870             -15.40    25600.00
04871              -0.60    25600.00
04872               7.60    27200.00
04873             -15.80    27200.00
04874               6.00    28000.00
04875              -0.20    28000.00
04876              -6.20    28000.00
04877               1.80    28800.00
04878              -1.20    28800.00
04879              -5.40    29600.00
04880               0.40    30400.00
04881              -0.40    29600.00
04882              -5.40    30400.00
04883              -0.40    31200.00
04884              -1.20    31200.00
04885              -5.20    31200.00
04886               1.80    32000.00
04887              -2.20    32000.00
04888              -3.80    32800.00
04889               1.80    32000.00
04890              -4.60    32000.00
04891              -2.20    32800.00
04892              -0.60    32800.00
04893              -4.20    33600.00
04894              -0.40    33600.00
04895              -1.80    33600.00
04896              -3.00    33600.00
04897              -1.20    33600.00
04898              -3.00    33600.00
04899              -2.00    33600.00
04900              -1.80    34400.00
04901              -1.80    34400.00
04902              -2.60    34400.00
04903              -2.00    34400.00
04904              -1.20    34400.00
04905              -3.40    34400.00
04906              -1.20    34400.00
04907              -2.60    34400.00
04908              -2.80    34400.00
04909               0.00    35200.00
04910              -3.60    34400.00
04911              -2.20    34400.00
04912              -1.20    34400.00
04913              -2.60    34400.00
04914              -1.20    34400.00
04915              -2.80    34400.00
04916              -2.20    33600.00
04917              -1.80    34400.00
04918              -2.00    33600.00
04919              -2.00    33600.00
04920              -2.20    33600.00
04921              -1.40    33600.00
04922              -2.20    33600.00
04923              -2.00    33600.00
04924              -2.20    33600.00
04925              -3.00    32000.00
04926              -1.20    32800.00
04927              -2.00    32000.00
04928              -2.60    32800.00
04929              -2.00    32000.00
04930              -2.20    31200.00
04931              -2.00    31200.00
04932              -1.80    31200.00
04933              -2.00    31200.00
04934              -2.20    30400.00
04935              -2.20    30400.00
04936              -1.80    29600.00
04937              -2.20    29600.00
04938              -1.80    28800.00
04939              -2.20    28800.00
04940              -2.00    28000.00
04941              -1.40    27200.00
04942              -2.60    27200.00
04943              -1.80    27200.00
04944              -1.20    26400.00
04945              -2.00    26400.00
04946              -1.20    25600.00
04947              -1.80    25600.00
04948              -2.20    24800.00
04949              -1.20    24800.00
04950              -2.00    24000.00
04951              -1.80    24000.00
04952              -1.40    23200.00
04953              -2.00    23200.00
04954              -1.20    21600.00
04955              -1.20    21600.00
04956              -2.00    20800.00
04957              -2.00    20800.00
04958              -1.00    19200.00
04959              -1.00    19200.00
04960              -1.40    19200.00
04961              -1.20    18400.00
04962              -1.20    17600.00
04963              -1.00    17600.00
04964              -1.20    16800.00
04965              -1.80    16000.00
04966              -0.60    16000.00
04967              -1.00    15200.00
04968              -1.20    14400.00
04969              -1.00    14400.00
04970              -1.20    13600.00
04971              -1.40    12800.00
04972              -0.20    12000.00
04973              -0.60    12000.00
04974              -1.40    11200.00
04975              -1.60    11200.00
04976               0.20     9600.00
04977              -0.80     9600.00
04978              -1.00     8000.00
04979              -0.40     8000.00
04980              -0.60     7200.00
04981              -1.00     7200.00
04982              -0.40     6400.00
04983              -0.60     5600.00
04984              -0.20     4800.00
04985              -1.00     4800.00
04986              -0.60     3200.00
04987              -0.60     2400.00
04988              -1.00     2400.00
04989              -0.60     1600.00
04990              -0.40      800.00
04991              -0.60        0.00
04992               0.20     -800.00
04993               1.00     -800.00
04994               3.80     -800.00
04995              -0.20    -1600.00
04996              -0.60    -1600.00
04997               2.00    -2400.00
04998               1.00    -4000.00
04999              -1.00    -4000.00
05000               4.40    -4800.00
