Unit:(mV)
                     CH1         CH2
Frequency              ? 299.950 kHz
00001              25.00    -6400.00
00002             -19.40    -7200.00
00003             -25.00    -7200.00
00004              18.00    -8000.00
00005              14.40    -8000.00
00006             -25.00    -8000.00
00007              14.80    -8800.00
00008              25.00   -10400.00
00009             -25.00    -9600.00
00010              18.00   -11200.00
00011              25.00   -12000.00
00012             -25.00   -12000.00
00013              25.00   -12800.00
00014               2.60   -12800.00
00015              -6.60   -13600.00
00016              24.60   -14400.00
00017             -25.00   -14400.00
00018              25.00   -16000.00
00019              10.80   -16000.00
00020             -25.00   -16800.00
00021              25.00   -16800.00
00022              14.00   -17600.00
00023             -25.00   -18400.00
00024              10.60   -18400.00
00025              24.60   -19200.00
00026             -25.00   -19200.00
00027              17.80   -20000.00
00028              18.20   -20000.00
00029             -19.00   -20800.00
00030              16.20   -21600.00
00031               2.20   -22400.00
00032              -7.60   -22400.00
00033              10.60   -23200.00
00034               5.80   -23200.00
00035              -4.40   -24000.00
00036              14.20   -24000.00
00037               0.20   -24800.00
00038              -3.00   -25600.00
00039              14.20   -25600.00
00040              -3.00   -26400.00
00041               4.60   -26400.00
00042              10.20   -26400.00
00043               1.00   -26400.00
00044               3.60   -27200.00
00045               8.20   -27200.00
00046               3.00   -27200.00
00047               4.60   -28800.00
00048               9.00   -28800.00
00049               3.00   -28800.00
00050               5.60   -29600.00
00051               8.20   -29600.00
00052               3.40   -29600.00
00053               7.60   -30400.00
00054               8.40   -30400.00
00055               3.80   -30400.00
00056               8.60   -30400.00
00057               7.40   -30400.00
00058               5.20   -31200.00
00059               9.00   -31200.00
00060               7.60   -32000.00
00061               8.20   -32000.00
00062               8.60   -32000.00
00063               8.00   -32000.00
00064               7.60   -32800.00
00065               8.60   -32000.00
00066               9.00   -32000.00
00067               8.80   -32800.00
00068               9.40   -32800.00
00069               9.40   -32800.00
00070               9.40   -32800.00
00071               9.80   -32800.00
00072               8.60   -32800.00
00073               9.80   -32000.00
00074              10.60   -32800.00
00075               9.40   -32800.00
00076              10.60   -32800.00
00077              10.00   -32800.00
00078               9.40   -32800.00
00079              10.20   -32800.00
00080               9.80   -32800.00
00081               8.40   -32000.00
00082               9.00   -32000.00
00083               9.80   -32000.00
00084               7.60   -32000.00
00085               8.20   -32000.00
00086               8.60   -32000.00
00087               7.60   -32000.00
00088               8.20   -32000.00
00089               7.40   -30400.00
00090               6.80   -30400.00
00091               7.40   -31200.00
00092               6.80   -30400.00
00093               7.00   -30400.00
00094               6.80   -30400.00
00095               6.00   -30400.00
00096               6.80   -29600.00
00097               5.40   -29600.00
00098               5.20   -28800.00
00099               5.80   -28800.00
00100               5.20   -28800.00
00101               5.40   -28000.00
00102               4.80   -28000.00
00103               5.00   -27200.00
00104               5.20   -27200.00
00105               3.80   -26400.00
00106               5.00   -26400.00
00107               5.20   -26400.00
00108               3.80   -25600.00
00109               4.00   -25600.00
00110               4.20   -24800.00
00111               3.60   -25600.00
00112               3.60   -24000.00
00113               3.60   -24000.00
00114               3.40   -24000.00
00115               3.00   -23200.00
00116               3.20   -22400.00
00117               2.80   -22400.00
00118               3.00   -22400.00
00119               2.80   -20800.00
00120               2.80   -20800.00
00121               3.00   -20800.00
00122               2.40   -20000.00
00123               2.20   -19200.00
00124               2.20   -18400.00
00125               2.20   -18400.00
00126               2.20   -17600.00
00127               2.00   -17600.00
00128               1.80   -16800.00
00129               1.80   -16000.00
00130               1.80   -16000.00
00131               2.00   -16000.00
00132               1.20   -15200.00
00133               1.40   -14400.00
00134               1.60   -13600.00
00135               1.00   -12800.00
00136               1.20   -12800.00
00137               0.60   -12000.00
00138               0.80   -11200.00
00139               1.40   -11200.00
00140               0.40   -10400.00
00141               0.60    -9600.00
00142               0.60    -9600.00
00143               0.20    -8800.00
00144               0.80    -8000.00
00145               0.60    -7200.00
00146               0.20    -7200.00
00147               0.40    -6400.00
00148               0.40    -6400.00
00149               0.20    -4800.00
00150               0.20    -4000.00
00151              -0.20    -4000.00
00152              -0.20    -3200.00
00153              -0.20    -1600.00
00154              -0.20    -1600.00
00155              -0.60    -1600.00
00156              -0.20        0.00
00157              -0.40        0.00
00158              -0.40        0.00
00159               0.40      800.00
00160               2.80     1600.00
00161               0.20     2400.00
00162              -2.00     3200.00
00163               0.20     3200.00
00164               0.40     4000.00
00165              -1.80     4800.00
00166               6.80     5600.00
00167              25.00     7200.00
00168             -11.00     7200.00
00169             -25.00     8000.00
00170              13.40     8000.00
00171              15.20     8800.00
00172             -25.00     8000.00
00173              25.00     9600.00
00174              25.00    11200.00
00175             -25.00    10400.00
00176              25.00    11200.00
00177             -18.80    11200.00
00178             -25.00    12800.00
00179              25.00    12800.00
00180             -25.00    12800.00
00181              25.00    15200.00
00182              -0.40    14400.00
00183             -25.00    15200.00
00184              25.00    16000.00
00185             -25.00    16000.00
00186             -15.00    16800.00
00187              25.00    16800.00
00188             -22.00    17600.00
00189             -25.00    18400.00
00190              25.00    19200.00
00191              -3.60    19200.00
00192             -25.00    20800.00
00193              25.00    20800.00
00194             -18.40    20800.00
00195              -9.00    22400.00
00196              16.60    22400.00
00197             -24.40    22400.00
00198               2.20    23200.00
00199               2.60    23200.00
00200             -11.80    24000.00
00201              -1.40    24800.00
00202               7.40    24800.00
00203             -19.80    25600.00
00204               3.60    25600.00
00205              -1.20    25600.00
00206             -16.40    27200.00
00207               5.40    26400.00
00208              -7.00    27200.00
00209              -7.80    27200.00
00210              -2.20    28000.00
00211              -5.00    28000.00
00212              -8.40    28000.00
00213              -2.80    28800.00
00214              -5.40    28800.00
00215              -9.60    28800.00
00216              -3.60    28800.00
00217              -6.80    30400.00
00218              -9.20    30400.00
00219              -2.60    30400.00
00220              -8.40    31200.00
00221              -8.60    31200.00
00222              -4.40    31200.00
00223             -10.20    31200.00
00224              -7.00    32000.00
00225              -7.20    32000.00
00226              -9.40    32800.00
00227              -6.80    32000.00
00228              -8.20    32800.00
00229              -9.00    32800.00
00230              -9.20    32000.00
00231              -9.20    33600.00
00232              -9.00    32800.00
00233              -9.40    33600.00
00234              -8.60    33600.00
00235             -11.00    33600.00
00236              -9.20    32800.00
00237              -9.20    33600.00
00238             -11.40    33600.00
00239              -9.00    32800.00
00240             -11.00    33600.00
00241             -10.20    33600.00
00242              -9.20    32800.00
00243             -11.80    33600.00
00244             -10.20    33600.00
00245              -9.80    33600.00
00246             -10.00    33600.00
00247             -10.40    32800.00
00248             -10.20    32800.00
00249              -9.20    32800.00
00250              -9.80    32800.00
00251              -9.20    32800.00
00252              -8.60    32000.00
00253              -8.60    32800.00
00254              -8.60    32000.00
00255              -8.60    32000.00
00256              -7.00    32000.00
00257              -8.60    32800.00
00258              -8.40    31200.00
00259              -5.40    31200.00
00260              -7.40    30400.00
00261              -8.60    31200.00
00262              -5.80    31200.00
00263              -7.00    30400.00
00264              -7.00    29600.00
00265              -6.20    30400.00
00266              -6.00    29600.00
00267              -7.00    28800.00
00268              -6.00    28800.00
00269              -4.40    28800.00
00270              -7.00    28000.00
00271              -5.40    28000.00
00272              -4.20    27200.00
00273              -6.00    27200.00
00274              -5.20    27200.00
00275              -4.60    27200.00
00276              -5.00    25600.00
00277              -4.60    25600.00
00278              -4.20    25600.00
00279              -4.20    24800.00
00280              -5.20    24800.00
00281              -4.20    24000.00
00282              -2.80    24000.00
00283              -4.40    23200.00
00284              -4.20    22400.00
00285              -2.80    22400.00
00286              -4.20    22400.00
00287              -4.40    21600.00
00288              -1.80    20800.00
00289              -2.80    20000.00
00290              -5.20    19200.00
00291              -2.20    19200.00
00292              -1.80    18400.00
00293              -4.40    18400.00
00294              -2.60    17600.00
00295              -0.60    17600.00
00296              -2.20    16000.00
00297              -3.80    16000.00
00298              -2.00    16000.00
00299              -1.80    14400.00
00300              -3.40    14400.00
00301              -1.80    14400.00
00302              -1.20    13600.00
00303              -2.60    12800.00
00304              -1.80    12800.00
00305              -0.40    12000.00
00306              -1.20    11200.00
00307              -2.20    11200.00
00308              -1.20     9600.00
00309              -1.20     9600.00
00310              -2.60     8000.00
00311              -0.60     8000.00
00312               0.40     8000.00
00313              -2.00     6400.00
00314              -1.00     7200.00
00315               0.00     5600.00
00316              -2.20     5600.00
00317              -1.40     4800.00
00318               0.40     4000.00
00319              -0.20     3200.00
00320              -0.60     2400.00
00321               0.40     2400.00
00322               0.20     1600.00
00323              -1.40      800.00
00324              -0.40      800.00
00325               1.00     -800.00
00326               0.40     -800.00
00327               3.40    -1600.00
00328              -0.40    -1600.00
00329               0.20    -1600.00
00330               1.40    -2400.00
00331               1.40    -4000.00
00332               0.20    -3200.00
00333               5.80    -4000.00
00334              23.80    -5600.00
00335               9.40    -7200.00
00336             -25.00    -7200.00
00337              -4.20    -8000.00
00338              25.00    -8000.00
00339             -25.00    -8000.00
00340             -23.00    -8000.00
00341              25.00   -10400.00
00342             -16.00    -9600.00
00343             -25.00   -10400.00
00344              25.00   -11200.00
00345             -25.00   -12000.00
00346             -15.00   -12800.00
00347              25.00   -12800.00
00348             -25.00   -13600.00
00349              25.00   -14400.00
00350             -23.00   -14400.00
00351              -0.60   -15200.00
00352              25.00   -16000.00
00353             -25.00   -16000.00
00354               4.00   -16800.00
00355              25.00   -16800.00
00356             -19.80   -18400.00
00357             -11.80   -18400.00
00358              25.00   -19200.00
00359             -16.40   -18400.00
00360              -9.00   -20000.00
00361              25.00   -20800.00
00362             -15.20   -20800.00
00363               2.20   -21600.00
00364              14.00   -22400.00
00365              -9.60   -22400.00
00366               5.80   -23200.00
00367              11.20   -23200.00
00368              -4.40   -24000.00
00369               7.60   -24000.00
00370               9.60   -24800.00
00371              -8.20   -24800.00
00372              12.00   -25600.00
00373               5.20   -25600.00
00374              -2.60   -26400.00
00375              11.40   -26400.00
00376               3.60   -26400.00
00377               1.00   -27200.00
00378               7.40   -27200.00
00379               5.80   -27200.00
00380               2.60   -28000.00
00381               8.40   -28800.00
00382               5.20   -28800.00
00383               3.40   -28800.00
00384               8.60   -29600.00
00385               4.20   -28800.00
00386               5.60   -29600.00
00387              10.20   -29600.00
00388               4.60   -30400.00
00389               6.20   -30400.00
00390               9.00   -30400.00
00391               5.00   -30400.00
00392               7.40   -31200.00
00393               8.20   -32000.00
00394               7.40   -32000.00
00395               9.00   -32000.00
00396               7.80   -32000.00
00397               7.80   -32000.00
00398               8.40   -32000.00
00399               9.00   -32800.00
00400               8.60   -32800.00
00401               9.20   -32800.00
00402               9.20   -32800.00
00403               8.60   -32800.00
00404              10.20   -32800.00
00405               9.00   -32800.00
00406               9.20   -32000.00
00407              10.80   -32800.00
00408               9.00   -32800.00
00409              10.20   -32800.00
00410               9.80   -32800.00
00411               9.00   -32000.00
00412              10.60   -32800.00
00413               9.80   -32800.00
00414               9.20   -32800.00
00415               9.40   -32000.00
00416               8.60   -32000.00
00417               8.20   -32000.00
00418               8.00   -32000.00
00419               8.20   -31200.00
00420               8.40   -31200.00
00421               7.80   -31200.00
00422               7.60   -32000.00
00423               7.60   -31200.00
00424               7.00   -30400.00
00425               6.60   -30400.00
00426               7.60   -30400.00
00427               6.80   -30400.00
00428               5.80   -29600.00
00429               6.80   -29600.00
00430               6.20   -29600.00
00431               5.80   -28800.00
00432               5.80   -29600.00
00433               5.80   -28800.00
00434               5.40   -28800.00
00435               4.60   -28800.00
00436               5.40   -28000.00
00437               5.20   -28000.00
00438               4.20   -27200.00
00439               5.00   -26400.00
00440               5.00   -26400.00
00441               3.80   -26400.00
00442               3.80   -25600.00
00443               4.20   -26400.00
00444               3.80   -24800.00
00445               3.60   -24000.00
00446               3.80   -24000.00
00447               3.40   -24000.00
00448               2.80   -23200.00
00449               3.20   -23200.00
00450               3.40   -22400.00
00451               2.60   -22400.00
00452               2.80   -21600.00
00453               2.60   -20800.00
00454               2.80   -20800.00
00455               2.00   -20000.00
00456               2.60   -20000.00
00457               2.80   -19200.00
00458               2.00   -18400.00
00459               2.60   -17600.00
00460               2.00   -17600.00
00461               1.40   -16800.00
00462               1.80   -16800.00
00463               1.40   -16000.00
00464               1.40   -16000.00
00465               1.60   -14400.00
00466               1.20   -14400.00
00467               1.40   -14400.00
00468               1.20   -12800.00
00469               1.40   -12800.00
00470               1.20   -12000.00
00471               0.20   -11200.00
00472               1.20   -11200.00
00473               1.20   -10400.00
00474               0.40    -9600.00
00475               0.40    -9600.00
00476               0.40    -8000.00
00477               1.00    -8800.00
00478               0.40    -8000.00
00479               0.20    -7200.00
00480               0.80    -6400.00
00481               0.20    -5600.00
00482              -0.60    -4800.00
00483               0.40    -4000.00
00484              -0.40    -4000.00
00485              -0.60    -3200.00
00486               0.40    -3200.00
00487               0.20    -1600.00
00488              -1.00    -1600.00
00489              -0.20     -800.00
00490              -0.40        0.00
00491              -0.40        0.00
00492               0.60     1600.00
00493               1.20     1600.00
00494               2.80     2400.00
00495              -2.20     2400.00
00496              -1.00     3200.00
00497               0.60     3200.00
00498              -1.20     3200.00
00499               1.40     4800.00
00500              21.00     5600.00
00501              21.00     7200.00
00502             -25.00     8000.00
00503             -13.20     8000.00
00504              25.00     8000.00
00505             -25.00     8000.00
00506              -5.60     9600.00
00507              25.00    10400.00
00508             -25.00     9600.00
00509              24.40    11200.00
00510              25.00    11200.00
00511             -25.00    12000.00
00512              25.00    12800.00
00513             -25.00    12800.00
00514              -6.80    13600.00
00515              25.00    14400.00
00516             -25.00    14400.00
00517              25.00    16000.00
00518              17.20    16000.00
00519             -25.00    16000.00
00520              25.00    16800.00
00521               4.60    17600.00
00522             -25.00    18400.00
00523               7.80    18400.00
00524              21.80    20000.00
00525             -25.00    19200.00
00526              16.20    20800.00
00527              14.40    20800.00
00528             -25.00    21600.00
00529              22.00    22400.00
00530             -16.00    22400.00
00531             -10.40    22400.00
00532               6.60    23200.00
00533              -8.20    24000.00
00534              -7.00    24000.00
00535               9.80    24800.00
00536             -12.40    25600.00
00537              -9.20    25600.00
00538               9.40    25600.00
00539             -18.80    26400.00
00540              -0.20    27200.00
00541               0.60    27200.00
00542             -11.40    27200.00
00543              -3.40    28000.00
00544              -3.40    28800.00
00545              -8.40    28000.00
00546              -5.20    28800.00
00547              -2.60    28800.00
00548              -9.20    28800.00
00549              -5.40    29600.00
00550              -4.40    30400.00
00551             -10.00    29600.00
00552              -4.20    31200.00
00553              -5.00    31200.00
00554             -10.20    31200.00
00555              -4.00    31200.00
00556              -8.20    31200.00
00557              -9.40    32000.00
00558              -5.40    31200.00
00559              -9.40    32800.00
00560              -7.80    32000.00
00561              -7.40    33600.00
00562              -9.20    32800.00
00563              -9.00    32800.00
00564              -9.00    32800.00
00565              -8.40    32800.00
00566              -9.20    32000.00
00567              -9.00    33600.00
00568             -10.00    33600.00
00569             -10.20    33600.00
00570              -8.20    33600.00
00571             -11.40    33600.00
00572              -9.80    33600.00
00573              -9.40    33600.00
00574             -12.40    33600.00
00575              -8.60    33600.00
00576             -11.40    33600.00
00577             -10.80    33600.00
00578              -9.00    33600.00
00579             -10.40    33600.00
00580             -10.00    33600.00
00581             -10.40    32800.00
00582              -9.80    33600.00
00583              -9.80    32800.00
00584              -8.80    32000.00
00585              -9.00    32000.00
00586              -9.20    32000.00
00587              -7.60    32800.00
00588              -9.20    32000.00
00589              -8.20    32800.00
00590              -7.40    32000.00
00591              -9.20    31200.00
00592              -7.00    31200.00
00593              -6.60    31200.00
00594              -8.40    31200.00
00595              -6.80    30400.00
00596              -6.60    30400.00
00597              -7.00    30400.00
00598              -5.80    30400.00
00599              -6.20    28800.00
00600              -6.80    28800.00
00601              -6.20    28800.00
00602              -5.60    28800.00
00603              -6.00    28800.00
00604              -5.40    28000.00
00605              -5.20    28000.00
00606              -5.60    27200.00
00607              -5.20    27200.00
00608              -5.20    26400.00
00609              -5.60    26400.00
00610              -4.40    26400.00
00611              -4.20    25600.00
00612              -4.40    24800.00
00613              -4.40    25600.00
00614              -4.20    24800.00
00615              -4.40    24000.00
00616              -3.60    24000.00
00617              -3.40    23200.00
00618              -4.40    22400.00
00619              -3.60    22400.00
00620              -2.80    21600.00
00621              -3.80    20800.00
00622              -3.40    20800.00
00623              -3.00    20000.00
00624              -3.00    19200.00
00625              -2.40    18400.00
00626              -3.00    18400.00
00627              -2.80    18400.00
00628              -2.20    17600.00
00629              -2.60    17600.00
00630              -2.20    16000.00
00631              -2.20    15200.00
00632              -2.20    15200.00
00633              -2.40    15200.00
00634              -2.00    14400.00
00635              -2.20    14400.00
00636              -2.00    12800.00
00637              -1.80    12800.00
00638              -1.80    12000.00
00639              -1.80    11200.00
00640              -1.20    11200.00
00641              -1.80    10400.00
00642              -0.60     9600.00
00643              -1.20     8800.00
00644              -1.40     8800.00
00645              -1.00     8000.00
00646              -1.20     6400.00
00647              -1.40     7200.00
00648              -0.60     5600.00
00649              -1.00     6400.00
00650              -1.00     5600.00
00651              -1.00     4000.00
00652              -0.40     4000.00
00653              -0.40     3200.00
00654              -1.00     2400.00
00655              -0.60     2400.00
00656              -0.20     1600.00
00657              -0.60      800.00
00658               0.00        0.00
00659               0.60        0.00
00660               3.00     -800.00
00661               0.20    -1600.00
00662              -1.20    -1600.00
00663               1.20    -2400.00
00664               1.40    -3200.00
00665              -0.40    -3200.00
00666               3.00    -4000.00
00667              15.60    -5600.00
00668              25.00    -6400.00
00669             -25.00    -7200.00
00670             -25.00    -8000.00
00671              25.00    -8800.00
00672               0.20    -8800.00
00673             -25.00    -8000.00
00674              25.00    -9600.00
00675              25.00   -10400.00
00676             -25.00    -9600.00
00677              25.00   -11200.00
00678              25.00   -12000.00
00679             -25.00   -12800.00
00680              25.00   -12800.00
00681             -18.20   -12800.00
00682              10.60   -14400.00
00683               9.20   -14400.00
00684             -25.00   -14400.00
00685              25.00   -15200.00
00686             -10.20   -16000.00
00687             -21.40   -16800.00
00688              25.00   -16800.00
00689               0.40   -17600.00
00690             -25.00   -18400.00
00691              23.00   -18400.00
00692              10.80   -19200.00
00693             -25.00   -20000.00
00694              25.00   -20000.00
00695               4.20   -20800.00
00696             -13.80   -20800.00
00697              19.60   -21600.00
00698              -4.40   -22400.00
00699              -3.00   -22400.00
00700              12.40   -23200.00
00701               1.00   -24000.00
00702              -1.20   -24000.00
00703              15.40   -24000.00
00704              -4.60   -24000.00
00705               3.40   -25600.00
00706              12.20   -25600.00
00707              -5.00   -26400.00
00708               8.40   -26400.00
00709               8.00   -27200.00
00710               0.20   -27200.00
00711               5.80   -27200.00
00712               7.80   -27200.00
00713               1.80   -28000.00
00714               6.20   -28800.00
00715               8.20   -28800.00
00716               1.80   -28800.00
00717               7.40   -29600.00
00718               7.20   -29600.00
00719               3.60   -29600.00
00720               9.00   -29600.00
00721               7.40   -30400.00
00722               4.40   -30400.00
00723               9.20   -30400.00
00724               6.20   -31200.00
00725               5.80   -31200.00
00726               8.60   -31200.00
00727               7.20   -32000.00
00728               8.20   -32000.00
00729               8.20   -32000.00
00730               7.60   -32000.00
00731               7.80   -32000.00
00732               8.60   -32000.00
00733               9.00   -32000.00
00734               8.60   -32000.00
00735               9.40   -32000.00
00736               8.80   -32000.00
00737               9.80   -32000.00
00738              10.00   -32800.00
00739               8.40   -32800.00
00740              10.60   -32800.00
00741               9.60   -32800.00
00742               9.40   -32800.00
00743              10.60   -32800.00
00744               9.20   -32800.00
00745              10.00   -32000.00
00746               9.80   -32800.00
00747               9.00   -32800.00
00748               9.20   -32000.00
00749               9.20   -32800.00
00750               9.00   -32800.00
00751               8.40   -32000.00
00752               8.60   -32000.00
00753               8.20   -32000.00
00754               7.60   -32000.00
00755               8.40   -31200.00
00756               7.40   -30400.00
00757               6.80   -32000.00
00758               7.20   -32000.00
00759               6.80   -30400.00
00760               6.80   -30400.00
00761               7.00   -29600.00
00762               6.40   -30400.00
00763               6.80   -29600.00
00764               5.40   -29600.00
00765               5.40   -28800.00
00766               6.20   -28800.00
00767               5.20   -28800.00
00768               4.80   -28800.00
00769               5.80   -28000.00
00770               4.40   -27200.00
00771               4.20   -27200.00
00772               4.60   -27200.00
00773               4.80   -26400.00
00774               4.40   -26400.00
00775               4.20   -26400.00
00776               3.80   -25600.00
00777               4.20   -24800.00
00778               4.20   -25600.00
00779               3.40   -24000.00
00780               3.80   -24000.00
00781               3.40   -24000.00
00782               2.80   -23200.00
00783               3.20   -23200.00
00784               3.00   -22400.00
00785               3.00   -22400.00
00786               3.00   -20800.00
00787               2.80   -20800.00
00788               2.20   -20000.00
00789               1.80   -20000.00
00790               2.00   -19200.00
00791               2.20   -18400.00
00792               2.40   -18400.00
00793               2.00   -17600.00
00794               1.80   -17600.00
00795               2.00   -16800.00
00796               1.00   -16000.00
00797               1.80   -16000.00
00798               2.00   -15200.00
00799               1.20   -14400.00
00800               1.20   -14400.00
00801               1.20   -13600.00
00802               0.60   -12800.00
00803               1.00   -12800.00
00804               1.00   -12000.00
00805               1.20   -11200.00
00806               0.60   -10400.00
00807               0.40    -9600.00
00808               0.60    -9600.00
00809               0.40    -8800.00
00810               0.40    -8000.00
00811               0.60    -7200.00
00812               0.40    -7200.00
00813               0.40    -6400.00
00814               0.40    -5600.00
00815               0.20    -4800.00
00816               0.40    -4800.00
00817              -0.20    -4000.00
00818              -0.40    -3200.00
00819               0.20    -3200.00
00820              -0.20    -2400.00
00821              -0.40    -1600.00
00822              -0.20     -800.00
00823              -0.40     -800.00
00824               0.00        0.00
00825               0.40      800.00
00826               0.20     1600.00
00827               2.60     1600.00
00828              -0.60     2400.00
00829              -1.00     2400.00
00830               1.00     3200.00
00831              -0.60     3200.00
00832              -1.20     4800.00
00833              11.60     5600.00
00834              25.00     7200.00
00835             -25.00     7200.00
00836             -25.00     8000.00
00837              23.80     8000.00
00838              -1.40     8000.00
00839             -25.00     8800.00
00840              25.00     9600.00
00841             -10.60     9600.00
00842             -25.00    11200.00
00843              25.00    11200.00
00844             -25.00    12000.00
00845               5.20    12800.00
00846              25.00    12800.00
00847             -25.00    13600.00
00848              25.00    14400.00
00849             -25.00    14400.00
00850             -17.40    15200.00
00851              25.00    16000.00
00852             -25.00    16000.00
00853              12.20    16800.00
00854              25.00    17600.00
00855             -25.00    18400.00
00856             -15.60    18400.00
00857              25.00    19200.00
00858             -23.00    19200.00
00859             -17.60    20800.00
00860              25.00    20800.00
00861             -25.00    21600.00
00862               6.80    21600.00
00863               5.00    22400.00
00864             -23.00    23200.00
00865               6.80    23200.00
00866              -1.40    24000.00
00867             -11.80    24000.00
00868               3.60    24000.00
00869               1.40    24800.00
00870             -19.40    24800.00
00871               9.00    25600.00
00872              -8.60    25600.00
00873             -10.80    26400.00
00874               5.00    26400.00
00875             -10.80    27200.00
00876              -5.20    28000.00
00877              -2.20    28000.00
00878              -6.60    28000.00
00879              -7.00    28800.00
00880              -1.60    28800.00
00881              -7.60    28800.00
00882              -8.40    29600.00
00883              -3.00    30400.00
00884              -8.60    30400.00
00885              -7.60    30400.00
00886              -1.80    31200.00
00887              -9.40    31200.00
00888              -7.40    31200.00
00889              -5.00    31200.00
00890             -10.60    31200.00
00891              -5.80    32000.00
00892              -7.80    32000.00
00893              -9.40    32800.00
00894              -6.00    32800.00
00895              -8.40    32000.00
00896              -9.40    32800.00
00897              -8.80    32800.00
00898              -8.80    32800.00
00899              -9.60    33600.00
00900              -9.00    32800.00
00901              -8.80    32800.00
00902             -11.40    32800.00
00903              -8.40    33600.00
00904              -9.80    33600.00
00905             -11.60    33600.00
00906              -8.60    33600.00
00907             -11.40    33600.00
00908              -9.80    33600.00
00909             -10.00    32800.00
00910             -11.80    33600.00
00911              -9.60    33600.00
00912             -10.40    33600.00
00913             -10.20    33600.00
00914             -10.00    33600.00
00915             -10.20    33600.00
00916              -9.80    32800.00
00917              -9.40    32800.00
00918              -8.60    32000.00
00919              -9.20    32800.00
00920              -8.60    32800.00
00921              -8.20    32000.00
00922              -8.60    32800.00
00923              -7.60    32000.00
00924              -8.60    31200.00
00925              -7.60    31200.00
00926              -7.40    31200.00
00927              -7.80    31200.00
00928              -7.00    30400.00
00929              -7.00    30400.00
00930              -7.40    30400.00
00931              -6.20    30400.00
00932              -6.60    30400.00
00933              -6.60    28800.00
00934              -6.00    28800.00
00935              -6.20    28800.00
00936              -5.80    28800.00
00937              -5.40    28000.00
00938              -6.00    28000.00
00939              -5.20    27200.00
00940              -4.80    27200.00
00941              -5.60    26400.00
00942              -5.20    27200.00
00943              -4.60    25600.00
00944              -4.60    25600.00
00945              -3.40    25600.00
00946              -4.60    24800.00
00947              -4.60    24800.00
00948              -3.00    24000.00
00949              -4.40    23200.00
00950              -3.60    24000.00
00951              -3.00    22400.00
00952              -4.60    22400.00
00953              -2.60    22400.00
00954              -3.40    21600.00
00955              -4.20    20800.00
00956              -2.80    20800.00
00957              -3.40    20000.00
00958              -2.60    19200.00
00959              -2.80    18400.00
00960              -3.00    18400.00
00961              -2.20    17600.00
00962              -2.80    16800.00
00963              -2.20    17600.00
00964              -2.20    16000.00
00965              -2.60    16000.00
00966              -2.00    15200.00
00967              -2.20    15200.00
00968              -2.00    14400.00
00969              -2.00    13600.00
00970              -2.20    12800.00
00971              -1.80    12800.00
00972              -1.40    12000.00
00973              -1.40    11200.00
00974              -2.00    11200.00
00975              -1.20     9600.00
00976              -1.20     9600.00
00977              -1.60     8800.00
00978              -0.60     8000.00
00979              -1.20     8000.00
00980              -1.80     6400.00
00981              -0.40     7200.00
00982              -1.40     5600.00
00983              -1.20     4800.00
00984              -1.00     4800.00
00985              -1.00     3200.00
00986              -0.60     3200.00
00987              -0.60     2400.00
00988              -1.20     1600.00
00989              -0.40     1600.00
00990              -0.20     1600.00
00991              -0.40        0.00
00992               0.20     -800.00
00993               2.00     -800.00
00994               2.80     -800.00
00995              -1.40    -1600.00
00996               1.00    -3200.00
00997               1.40    -3200.00
00998               0.60    -4000.00
00999               0.40    -4000.00
01000               9.00    -4800.00
01001              25.00    -6400.00
01002              -7.80    -7200.00
01003             -25.00    -7200.00
01004              10.40    -8000.00
01005              21.40    -8000.00
01006             -25.00    -8000.00
01007              -2.00    -8800.00
01008              25.00    -9600.00
01009             -25.00   -10400.00
01010              -8.40   -11200.00
01011              25.00   -11200.00
01012             -25.00   -12000.00
01013              15.40   -12800.00
01014              17.80   -12800.00
01015             -17.20   -13600.00
01016              25.00   -14400.00
01017             -25.00   -14400.00
01018              19.40   -16000.00
01019              23.80   -16000.00
01020             -25.00   -16800.00
01021              19.60   -17600.00
01022              22.60   -17600.00
01023             -25.00   -18400.00
01024               1.80   -17600.00
01025              25.00   -19200.00
01026             -25.00   -18400.00
01027               8.80   -20000.00
01028              25.00   -20800.00
01029             -19.60   -20800.00
01030              12.40   -21600.00
01031               7.00   -22400.00
01032              -9.80   -22400.00
01033               9.40   -23200.00
01034               8.40   -23200.00
01035              -5.20   -24000.00
01036              12.20   -24000.00
01037               3.80   -24800.00
01038              -5.80   -24800.00
01039              14.60   -25600.00
01040              -0.60   -25600.00
01041               1.80   -26400.00
01042              11.40   -26400.00
01043               2.00   -26400.00
01044               2.60   -27200.00
01045               8.20   -28000.00
01046               3.80   -27200.00
01047               3.40   -28800.00
01048               9.00   -28800.00
01049               3.60   -28800.00
01050               4.60   -29600.00
01051               8.20   -29600.00
01052               3.60   -29600.00
01053               7.00   -30400.00
01054               8.60   -29600.00
01055               3.80   -30400.00
01056               8.40   -30400.00
01057               7.80   -30400.00
01058               5.00   -31200.00
01059               8.40   -31200.00
01060               7.60   -32000.00
01061               7.80   -32000.00
01062               8.60   -32000.00
01063               7.40   -32000.00
01064               7.60   -32000.00
01065               8.20   -32000.00
01066               8.40   -32800.00
01067               9.20   -32000.00
01068               9.00   -32800.00
01069               9.00   -32800.00
01070               9.60   -32800.00
01071               9.80   -32800.00
01072               8.40   -32800.00
01073              10.80   -32800.00
01074              10.00   -32000.00
01075               9.00   -32000.00
01076              11.60   -32800.00
01077               9.40   -32800.00
01078               9.20   -32800.00
01079              10.80   -32800.00
01080               8.60   -32800.00
01081               9.40   -32800.00
01082               9.40   -32000.00
01083               8.40   -32800.00
01084               8.40   -32000.00
01085               9.00   -32000.00
01086               8.40   -32000.00
01087               8.20   -32000.00
01088               8.40   -32000.00
01089               7.60   -31200.00
01090               7.40   -30400.00
01091               7.40   -31200.00
01092               6.80   -30400.00
01093               7.00   -30400.00
01094               7.40   -30400.00
01095               6.00   -29600.00
01096               6.20   -29600.00
01097               6.00   -29600.00
01098               5.40   -29600.00
01099               5.80   -28800.00
01100               5.80   -28800.00
01101               4.80   -28000.00
01102               5.20   -28800.00
01103               5.20   -28000.00
01104               4.60   -27200.00
01105               4.60   -27200.00
01106               5.20   -27200.00
01107               4.20   -26400.00
01108               4.60   -26400.00
01109               3.80   -25600.00
01110               3.40   -25600.00
01111               4.40   -24800.00
01112               3.60   -24000.00
01113               3.00   -24000.00
01114               3.60   -24000.00
01115               2.60   -23200.00
01116               2.80   -23200.00
01117               3.00   -22400.00
01118               2.60   -22400.00
01119               3.00   -20800.00
01120               2.80   -20800.00
01121               2.60   -20000.00
01122               2.00   -20000.00
01123               2.20   -19200.00
01124               2.00   -19200.00
01125               2.00   -17600.00
01126               2.00   -18400.00
01127               1.60   -17600.00
01128               2.00   -16800.00
01129               1.40   -16800.00
01130               1.40   -16000.00
01131               1.80   -15200.00
01132               1.00   -14400.00
01133               1.20   -14400.00
01134               1.40   -13600.00
01135               1.00   -13600.00
01136               1.20   -12800.00
01137               1.00   -12800.00
01138               0.60   -11200.00
01139               1.00   -11200.00
01140               0.40    -9600.00
01141               0.40   -10400.00
01142               0.20    -9600.00
01143               0.40    -8800.00
01144               0.60    -8000.00
01145               0.40    -7200.00
01146               0.40    -7200.00
01147               0.20    -6400.00
01148               0.40    -5600.00
01149               0.40    -4800.00
01150              -0.20    -4000.00
01151               0.00    -4000.00
01152               0.20    -3200.00
01153               0.20    -2400.00
01154              -0.40    -2400.00
01155              -0.60    -1600.00
01156              -0.40     -800.00
01157              -0.40        0.00
01158              -0.20      800.00
01159               0.20     1600.00
01160               2.20     1600.00
01161               1.80     2400.00
01162              -2.60     2400.00
01163               0.00     3200.00
01164               1.00     4000.00
01165              -2.00     3200.00
01166               4.60     4800.00
01167              25.00     6400.00
01168               2.00     7200.00
01169             -25.00     8000.00
01170               3.80     8000.00
01171              22.00     8800.00
01172             -25.00     8000.00
01173              24.60     9600.00
01174              25.00     9600.00
01175             -25.00     9600.00
01176              25.00    11200.00
01177              11.60    12000.00
01178             -25.00    12000.00
01179              25.00    12800.00
01180             -25.00    12800.00
01181              25.00    14400.00
01182              25.00    14400.00
01183             -25.00    15200.00
01184              25.00    16000.00
01185             -22.60    16800.00
01186             -25.00    17600.00
01187              25.00    17600.00
01188             -13.00    18400.00
01189             -25.00    18400.00
01190              21.20    19200.00
01191               8.40    19200.00
01192             -25.00    20000.00
01193              25.00    21600.00
01194              -6.20    20800.00
01195             -18.80    21600.00
01196              21.40    22400.00
01197             -23.00    22400.00
01198              -2.40    22400.00
01199               5.00    24000.00
01200             -11.40    24000.00
01201              -4.60    24000.00
01202              10.00    24800.00
01203             -18.00    24800.00
01204              -1.40    25600.00
01205               3.80    25600.00
01206             -18.60    25600.00
01207               4.20    27200.00
01208              -4.40    27200.00
01209              -9.20    27200.00
01210              -2.20    28000.00
01211              -4.40    28000.00
01212              -8.60    28000.00
01213              -3.80    28800.00
01214              -4.20    28800.00
01215              -9.20    28800.00
01216              -3.80    28800.00
01217              -6.60    30400.00
01218              -9.20    30400.00
01219              -2.40    30400.00
01220              -7.60    30400.00
01221              -9.00    31200.00
01222              -3.20    31200.00
01223             -10.20    31200.00
01224              -7.40    32000.00
01225              -6.00    32000.00
01226             -10.20    32800.00
01227              -6.80    32800.00
01228              -7.00    32000.00
01229              -9.20    32800.00
01230              -9.00    32800.00
01231              -8.60    32800.00
01232              -9.20    32000.00
01233              -9.80    32800.00
01234              -8.60    33600.00
01235             -10.60    33600.00
01236              -9.80    33600.00
01237              -9.00    32800.00
01238             -11.40    33600.00
01239              -9.00    33600.00
01240             -10.80    33600.00
01241             -10.60    33600.00
01242              -8.60    33600.00
01243             -11.80    33600.00
01244             -10.20    33600.00
01245             -10.60    33600.00
01246             -10.00    33600.00
01247              -9.80    33600.00
01248             -10.60    32800.00
01249              -9.60    32000.00
01250              -9.20    33600.00
01251              -9.40    32800.00
01252              -9.20    32800.00
01253              -8.60    32000.00
01254              -8.80    32800.00
01255              -8.40    32000.00
01256              -7.40    32800.00
01257              -8.60    32000.00
01258              -8.20    31200.00
01259              -6.80    31200.00
01260              -7.80    31200.00
01261              -7.60    31200.00
01262              -7.00    31200.00
01263              -7.40    30400.00
01264              -6.00    30400.00
01265              -6.60    30400.00
01266              -6.80    29600.00
01267              -6.00    29600.00
01268              -6.20    28800.00
01269              -5.60    28800.00
01270              -5.40    28000.00
01271              -5.80    28000.00
01272              -5.20    28000.00
01273              -5.20    27200.00
01274              -4.60    27200.00
01275              -5.20    26400.00
01276              -5.20    25600.00
01277              -4.20    25600.00
01278              -4.40    25600.00
01279              -4.40    24800.00
01280              -4.40    24800.00
01281              -4.20    24000.00
01282              -3.80    24000.00
01283              -3.80    23200.00
01284              -3.40    23200.00
01285              -3.80    22400.00
01286              -3.40    22400.00
01287              -2.80    21600.00
01288              -3.80    20800.00
01289              -3.40    20800.00
01290              -3.20    20000.00
01291              -2.60    19200.00
01292              -3.00    18400.00
01293              -3.00    18400.00
01294              -2.00    18400.00
01295              -2.80    17600.00
01296              -3.60    17600.00
01297              -1.80    16000.00
01298              -1.40    15200.00
01299              -2.60    15200.00
01300              -2.60    14400.00
01301              -1.80    14400.00
01302              -1.20    13600.00
01303              -2.80    12800.00
01304              -1.80    12800.00
01305              -0.40    12000.00
01306              -2.20    11200.00
01307              -2.80    11200.00
01308              -1.00     9600.00
01309              -1.40     9600.00
01310              -2.60     8800.00
01311              -0.20     8000.00
01312              -1.40     7200.00
01313              -3.00     7200.00
01314              -0.40     6400.00
01315               0.20     6400.00
01316              -2.20     5600.00
01317              -1.20     4800.00
01318              -0.20     3200.00
01319              -0.60     3200.00
01320              -2.20     3200.00
01321              -0.60     2400.00
01322               0.40     1600.00
01323              -0.60      800.00
01324               0.00        0.00
01325               0.60        0.00
01326               0.20     -800.00
01327               3.40    -1600.00
01328              -0.80    -1600.00
01329              -1.20    -2400.00
01330               1.80    -2400.00
01331               1.80    -3200.00
01332              -0.40    -4000.00
01333               4.80    -4000.00
01334              20.40    -5600.00
01335              17.80    -6400.00
01336             -25.00    -7200.00
01337             -14.80    -8000.00
01338              25.00    -8000.00
01339             -15.80    -8800.00
01340             -25.00    -8000.00
01341              25.00    -9600.00
01342              10.60    -9600.00
01343             -25.00   -10400.00
01344              25.00   -12000.00
01345             -11.40   -11200.00
01346             -25.00   -12800.00
01347              25.00   -12800.00
01348             -25.00   -12800.00
01349              24.40   -14400.00
01350             -10.80   -14400.00
01351             -13.80   -16000.00
01352              25.00   -16000.00
01353             -25.00   -16000.00
01354              -6.40   -16800.00
01355              25.00   -17600.00
01356             -12.60   -17600.00
01357             -18.80   -19200.00
01358              25.00   -19200.00
01359              -6.60   -20000.00
01360             -17.40   -19200.00
01361              25.00   -20000.00
01362              -9.20   -21600.00
01363              -4.20   -20800.00
01364              18.00   -21600.00
01365              -9.20   -22400.00
01366               2.60   -23200.00
01367              12.40   -22400.00
01368              -3.00   -23200.00
01369               4.40   -24000.00
01370              12.60   -24800.00
01371              -8.00   -24000.00
01372               9.00   -25600.00
01373               7.60   -25600.00
01374              -4.20   -26400.00
01375              10.60   -26400.00
01376               4.60   -26400.00
01377               1.20   -27200.00
01378               7.60   -28000.00
01379               6.40   -27200.00
01380               2.20   -28800.00
01381               7.60   -28800.00
01382               5.80   -28800.00
01383               2.00   -28800.00
01384               8.20   -28800.00
01385               5.40   -29600.00
01386               4.60   -29600.00
01387               9.20   -30400.00
01388               5.60   -29600.00
01389               5.40   -30400.00
01390               9.00   -31200.00
01391               5.20   -30400.00
01392               6.80   -31200.00
01393               8.40   -31200.00
01394               7.80   -32000.00
01395               8.60   -32000.00
01396               7.60   -32000.00
01397               8.20   -32000.00
01398               8.20   -32000.00
01399               8.60   -32000.00
01400               8.60   -32800.00
01401               8.80   -32800.00
01402               9.60   -32000.00
01403               9.20   -32800.00
01404              10.00   -32800.00
01405               9.20   -32800.00
01406               9.40   -32800.00
01407              10.40   -32800.00
01408               9.60   -32800.00
01409              10.20   -32000.00
01410              10.00   -32800.00
01411               9.40   -32800.00
01412              10.60   -32800.00
01413               9.40   -32000.00
01414               9.80   -32800.00
01415               9.40   -32000.00
01416               8.60   -32800.00
01417               9.20   -32000.00
01418               8.40   -32000.00
01419               8.40   -31200.00
01420               8.40   -32000.00
01421               7.80   -32000.00
01422               8.20   -30400.00
01423               7.40   -32000.00
01424               7.00   -30400.00
01425               7.40   -30400.00
01426               6.80   -30400.00
01427               6.80   -29600.00
01428               6.00   -29600.00
01429               6.60   -29600.00
01430               6.20   -29600.00
01431               6.20   -29600.00
01432               5.80   -28800.00
01433               5.80   -28800.00
01434               5.20   -28800.00
01435               5.00   -28800.00
01436               5.40   -28000.00
01437               5.00   -28000.00
01438               4.20   -27200.00
01439               4.80   -26400.00
01440               4.20   -26400.00
01441               4.40   -26400.00
01442               4.20   -25600.00
01443               3.40   -25600.00
01444               3.80   -25600.00
01445               4.00   -24000.00
01446               3.00   -24000.00
01447               3.60   -24000.00
01448               3.20   -23200.00
01449               2.80   -23200.00
01450               2.60   -22400.00
01451               2.60   -21600.00
01452               2.60   -22400.00
01453               2.80   -20800.00
01454               2.60   -20800.00
01455               2.20   -20000.00
01456               2.20   -19200.00
01457               2.20   -18400.00
01458               2.20   -18400.00
01459               2.20   -17600.00
01460               1.40   -17600.00
01461               2.00   -17600.00
01462               1.80   -16800.00
01463               1.20   -16800.00
01464               2.00   -16000.00
01465               1.40   -15200.00
01466               1.20   -14400.00
01467               1.40   -13600.00
01468               1.00   -13600.00
01469               1.20   -12800.00
01470               1.20   -11200.00
01471               1.00   -11200.00
01472               1.20   -11200.00
01473               1.00   -11200.00
01474               0.60    -9600.00
01475               0.60    -9600.00
01476               0.40    -9600.00
01477               0.60    -8000.00
01478               0.60    -8000.00
01479               0.20    -7200.00
01480               0.20    -6400.00
01481               0.60    -6400.00
01482               0.20    -4800.00
01483               0.40    -4800.00
01484               0.20    -4000.00
01485              -0.20    -3200.00
01486               0.60    -2400.00
01487              -0.20    -2400.00
01488              -0.60    -1600.00
01489               0.00     -800.00
01490              -0.40        0.00
01491              -0.60        0.00
01492               0.40        0.00
01493               1.00     1600.00
01494               2.80     1600.00
01495              -2.00     2400.00
01496              -1.00     2400.00
01497               0.60     3200.00
01498              -0.60     3200.00
01499               0.20     4800.00
01500              16.60     5600.00
01501              25.00     7200.00
01502             -25.00     8000.00
01503             -25.00     8000.00
01504              25.00     8000.00
01505             -18.60     8800.00
01506             -22.40     8800.00
01507              25.00    10400.00
01508             -25.00    10400.00
01509              -5.20    11200.00
01510              25.00    12000.00
01511             -25.00    12000.00
01512              25.00    12800.00
01513              -2.80    12800.00
01514             -25.00    13600.00
01515              25.00    14400.00
01516             -25.00    15200.00
01517              25.00    16000.00
01518              25.00    16000.00
01519             -25.00    16000.00
01520              25.00    16800.00
01521              17.20    17600.00
01522             -25.00    17600.00
01523              -2.20    19200.00
01524              25.00    19200.00
01525             -25.00    19200.00
01526               3.40    20000.00
01527              25.00    20800.00
01528             -25.00    21600.00
01529              17.80    22400.00
01530              -8.40    22400.00
01531             -16.60    22400.00
01532               8.20    24000.00
01533              -5.20    24000.00
01534             -10.20    24000.00
01535               8.40    24800.00
01536              -6.80    24800.00
01537             -14.80    25600.00
01538              10.60    25600.00
01539             -15.40    25600.00
01540              -3.80    25600.00
01541               2.80    27200.00
01542             -10.80    27200.00
01543              -4.20    27200.00
01544              -2.80    28000.00
01545              -7.60    28000.00
01546              -6.60    28800.00
01547              -1.00    28800.00
01548              -8.40    28800.00
01549              -7.00    29600.00
01550              -3.00    30400.00
01551              -9.60    30400.00
01552              -5.40    30400.00
01553              -3.40    31200.00
01554             -10.60    30400.00
01555              -4.40    31200.00
01556              -7.00    31200.00
01557             -10.20    31200.00
01558              -5.20    32000.00
01559              -9.20    32000.00
01560              -8.20    32800.00
01561              -6.40    32000.00
01562              -8.60    32800.00
01563              -9.00    32000.00
01564              -9.00    32800.00
01565              -8.80    32800.00
01566              -9.20    33600.00
01567              -9.00    32800.00
01568              -9.40    32800.00
01569             -10.20    33600.00
01570              -8.60    33600.00
01571             -11.40    33600.00
01572             -10.20    33600.00
01573              -9.80    33600.00
01574             -11.80    33600.00
01575              -8.60    33600.00
01576             -10.80    33600.00
01577             -10.80    33600.00
01578              -9.40    33600.00
01579             -10.80    32800.00
01580              -9.40    33600.00
01581             -10.60    32800.00
01582             -10.20    32800.00
01583              -9.20    32800.00
01584              -9.40    32000.00
01585              -9.00    32800.00
01586              -9.00    32800.00
01587              -8.60    32000.00
01588              -8.60    32000.00
01589              -7.80    32000.00
01590              -7.80    31200.00
01591              -9.00    31200.00
01592              -7.00    31200.00
01593              -6.80    30400.00
01594              -7.60    31200.00
01595              -7.00    30400.00
01596              -6.80    30400.00
01597              -6.40    30400.00
01598              -6.80    30400.00
01599              -6.60    29600.00
01600              -6.00    28800.00
01601              -7.00    28800.00
01602              -5.60    28800.00
01603              -5.20    28800.00
01604              -6.20    27200.00
01605              -5.20    28000.00
01606              -4.60    27200.00
01607              -5.00    27200.00
01608              -5.40    27200.00
01609              -5.00    26400.00
01610              -4.20    25600.00
01611              -4.40    24800.00
01612              -4.40    25600.00
01613              -3.80    24800.00
01614              -4.40    24800.00
01615              -4.20    24000.00
01616              -3.60    24000.00
01617              -3.60    23200.00
01618              -4.20    22400.00
01619              -3.20    22400.00
01620              -2.80    21600.00
01621              -4.00    21600.00
01622              -2.80    20800.00
01623              -3.40    20000.00
01624              -3.40    19200.00
01625              -2.00    18400.00
01626              -3.00    18400.00
01627              -2.80    17600.00
01628              -2.20    17600.00
01629              -2.80    17600.00
01630              -2.20    16000.00
01631              -2.20    16000.00
01632              -2.20    15200.00
01633              -2.80    15200.00
01634              -2.00    14400.00
01635              -1.80    13600.00
01636              -2.20    12800.00
01637              -2.20    12800.00
01638              -1.20    12000.00
01639              -1.80    11200.00
01640              -2.00    11200.00
01641              -1.40    10400.00
01642              -1.00     9600.00
01643              -2.20     8800.00
01644              -1.40     8000.00
01645              -0.80     8000.00
01646              -2.00     7200.00
01647              -1.80     6400.00
01648              -0.60     6400.00
01649              -1.20     5600.00
01650              -1.20     4800.00
01651              -1.00     4000.00
01652              -0.40     3200.00
01653              -0.80     3200.00
01654              -1.20     2400.00
01655              -0.60     1600.00
01656              -0.20     1600.00
01657              -0.60        0.00
01658               0.00        0.00
01659               0.40     -800.00
01660               3.00     -800.00
01661               1.20    -1600.00
01662              -2.00    -1600.00
01663               1.40    -3200.00
01664               1.40    -3200.00
01665              -0.40    -3200.00
01666               2.20    -4000.00
01667              13.00    -4800.00
01668              25.00    -7200.00
01669             -24.60    -7200.00
01670             -25.00    -8000.00
01671              21.40    -8000.00
01672              10.20    -8000.00
01673             -25.00    -8000.00
01674              24.40    -9600.00
01675              25.00   -10400.00
01676             -25.00    -9600.00
01677              25.00   -11200.00
01678              25.00   -12000.00
01679             -25.00   -12800.00
01680              25.00   -12800.00
01681              -5.40   -13600.00
01682              -0.60   -13600.00
01683              20.40   -14400.00
01684             -25.00   -14400.00
01685              25.00   -16000.00
01686               3.40   -16000.00
01687             -25.00   -16800.00
01688              25.00   -16800.00
01689               9.20   -17600.00
01690             -25.00   -18400.00
01691              16.00   -19200.00
01692              19.80   -18400.00
01693             -25.00   -19200.00
01694              23.40   -20000.00
01695              13.00   -20800.00
01696             -17.80   -20800.00
01697              18.60   -22400.00
01698              -0.60   -22400.00
01699              -6.00   -22400.00
01700              11.60   -23200.00
01701               2.60   -24000.00
01702              -2.60   -23200.00
01703              16.00   -24000.00
01704              -3.00   -24000.00
01705              -0.20   -24800.00
01706              13.80   -25600.00
01707              -5.80   -26400.00
01708               6.60   -25600.00
01709              10.00   -26400.00
01710              -0.60   -27200.00
01711               4.60   -27200.00
01712               8.60   -28000.00
01713               1.40   -28800.00
01714               5.80   -28800.00
01715               9.00   -28800.00
01716               1.80   -28800.00
01717               7.00   -29600.00
01718               8.40   -29600.00
01719               1.80   -29600.00
01720               7.60   -30400.00
01721               8.60   -30400.00
01722               3.00   -29600.00
01723               9.40   -30400.00
01724               8.20   -30400.00
01725               4.40   -31200.00
01726               8.80   -31200.00
01727               7.80   -32000.00
01728               7.40   -31200.00
01729               8.40   -32000.00
01730               8.40   -32000.00
01731               7.80   -32000.00
01732               8.40   -32000.00
01733               9.20   -32800.00
01734               8.60   -32800.00
01735               9.80   -32800.00
01736               9.40   -32800.00
01737               9.20   -32000.00
01738              10.60   -32800.00
01739               8.60   -32800.00
01740              10.00   -32800.00
01741              10.60   -32800.00
01742               9.40   -32800.00
01743              10.60   -32000.00
01744              10.00   -32800.00
01745               9.40   -32800.00
01746               9.80   -32000.00
01747               9.80   -32800.00
01748               9.40   -32800.00
01749               9.00   -32800.00
01750               9.40   -32800.00
01751               8.60   -32000.00
01752               8.60   -32000.00
01753               8.20   -32000.00
01754               7.60   -32000.00
01755               8.40   -32000.00
01756               7.40   -31200.00
01757               7.00   -30400.00
01758               7.40   -30400.00
01759               6.80   -31200.00
01760               7.00   -29600.00
01761               7.00   -30400.00
01762               6.60   -29600.00
01763               6.80   -29600.00
01764               6.00   -29600.00
01765               5.60   -29600.00
01766               5.80   -28800.00
01767               5.80   -28000.00
01768               5.00   -28800.00
01769               5.40   -28800.00
01770               5.00   -28000.00
01771               4.20   -28000.00
01772               4.20   -26400.00
01773               4.60   -26400.00
01774               4.20   -26400.00
01775               4.20   -26400.00
01776               3.60   -25600.00
01777               3.80   -25600.00
01778               4.20   -24800.00
01779               3.40   -24000.00
01780               3.40   -24800.00
01781               3.60   -24000.00
01782               2.80   -23200.00
01783               3.00   -22400.00
01784               2.80   -22400.00
01785               2.20   -22400.00
01786               2.60   -21600.00
01787               3.00   -20000.00
01788               2.20   -20000.00
01789               2.00   -19200.00
01790               2.60   -20000.00
01791               2.00   -18400.00
01792               2.00   -17600.00
01793               2.40   -17600.00
01794               2.00   -17600.00
01795               2.00   -16800.00
01796               1.60   -16000.00
01797               1.60   -16000.00
01798               1.40   -15200.00
01799               1.00   -14400.00
01800               1.40   -14400.00
01801               1.40   -13600.00
01802               0.60   -12800.00
01803               1.20   -12800.00
01804               0.80   -12000.00
01805               1.20   -11200.00
01806               1.20   -10400.00
01807               0.20   -10400.00
01808               1.20    -9600.00
01809               0.80    -9600.00
01810               0.20    -8800.00
01811               1.60    -8000.00
01812               0.20    -7200.00
01813               0.20    -7200.00
01814               1.20    -6400.00
01815              -0.40    -5600.00
01816               0.20    -4800.00
01817               1.00    -4000.00
01818              -0.80    -4000.00
01819               0.40    -3200.00
01820               0.40    -2400.00
01821              -0.60    -1600.00
01822               0.20    -1600.00
01823              -0.20     -800.00
01824              -0.60      800.00
01825               0.40        0.00
01826               0.20      800.00
01827               3.00     1600.00
01828              -0.20     2400.00
01829              -2.60     3200.00
01830               0.40     3200.00
01831               0.20     3200.00
01832              -2.20     4000.00
01833               8.20     4800.00
01834              25.00     7200.00
01835             -18.60     8000.00
01836             -25.00     8000.00
01837              17.80     8800.00
01838               9.40     8800.00
01839             -25.00     8000.00
01840              25.00     9600.00
01841              18.00     9600.00
01842             -25.00    11200.00
01843              25.00    11200.00
01844             -25.00    11200.00
01845             -22.20    12800.00
01846              25.00    12800.00
01847             -25.00    12800.00
01848              25.00    14400.00
01849             -17.20    14400.00
01850             -25.00    15200.00
01851              25.00    16000.00
01852             -25.00    16000.00
01853              -4.80    16800.00
01854              25.00    17600.00
01855             -25.00    17600.00
01856             -22.20    18400.00
01857              25.00    19200.00
01858             -11.00    19200.00
01859             -25.00    20800.00
01860              25.00    20800.00
01861             -24.40    21600.00
01862              -3.80    22400.00
01863              13.20    22400.00
01864             -24.60    23200.00
01865               4.40    23200.00
01866               1.20    24000.00
01867             -12.20    24000.00
01868               0.40    24800.00
01869               5.40    24800.00
01870             -20.20    24800.00
01871               6.00    25600.00
01872              -3.00    25600.00
01873             -14.20    25600.00
01874               6.00    27200.00
01875              -8.60    27200.00
01876              -7.40    27200.00
01877              -2.00    28000.00
01878              -5.40    28800.00
01879              -8.60    28000.00
01880              -1.80    28800.00
01881              -5.80    28800.00
01882              -9.40    29600.00
01883              -3.00    28800.00
01884              -7.40    30400.00
01885              -8.40    30400.00
01886              -1.80    30400.00
01887              -9.00    31200.00
01888              -7.60    31200.00
01889              -4.20    31200.00
01890             -10.60    31200.00
01891              -6.40    31200.00
01892              -7.40    32000.00
01893              -9.20    32800.00
01894              -6.20    32000.00
01895              -8.40    32800.00
01896              -9.20    32800.00
01897              -9.20    32800.00
01898              -9.00    32800.00
01899              -9.20    32800.00
01900              -9.00    32800.00
01901              -8.60    33600.00
01902             -10.80    32800.00
01903              -9.00    33600.00
01904              -9.80    33600.00
01905             -11.40    33600.00
01906              -8.60    32800.00
01907             -11.80    33600.00
01908             -10.00    32800.00
01909              -9.40    33600.00
01910             -12.40    33600.00
01911              -9.80    33600.00
01912             -10.00    33600.00
01913             -10.20    33600.00
01914             -10.00    32800.00
01915             -10.20    32800.00
01916              -9.40    32800.00
01917              -9.80    32800.00
01918              -8.60    32800.00
01919              -9.20    32800.00
01920              -9.00    32000.00
01921              -7.80    32800.00
01922              -8.60    32000.00
01923              -7.60    32800.00
01924              -8.40    31200.00
01925              -7.80    32000.00
01926              -6.20    32000.00
01927              -7.80    31200.00
01928              -7.00    31200.00
01929              -6.80    30400.00
01930              -7.00    30400.00
01931              -6.00    30400.00
01932              -6.20    29600.00
01933              -6.40    29600.00
01934              -6.20    28800.00
01935              -5.60    28800.00
01936              -5.20    28000.00
01937              -6.00    28000.00
01938              -5.40    28000.00
01939              -5.20    27200.00
01940              -5.00    27200.00
01941              -4.60    27200.00
01942              -5.20    26400.00
01943              -4.60    25600.00
01944              -4.20    25600.00
01945              -4.40    25600.00
01946              -4.20    24800.00
01947              -4.60    24800.00
01948              -3.80    24000.00
01949              -3.60    24000.00
01950              -3.80    24000.00
01951              -3.00    23200.00
01952              -3.80    22400.00
01953              -3.00    21600.00
01954              -2.80    21600.00
01955              -3.80    20800.00
01956              -3.40    20000.00
01957              -3.40    19200.00
01958              -3.00    19200.00
01959              -2.20    18400.00
01960              -2.80    18400.00
01961              -2.80    17600.00
01962              -2.80    17600.00
01963              -2.40    16000.00
01964              -2.60    16000.00
01965              -2.20    16000.00
01966              -2.00    15200.00
01967              -2.60    14400.00
01968              -1.80    14400.00
01969              -2.20    13600.00
01970              -2.60    12800.00
01971              -1.40    12800.00
01972              -1.40    11200.00
01973              -2.20    12000.00
01974              -2.00    11200.00
01975              -1.20     9600.00
01976              -1.20     8800.00
01977              -1.80     8800.00
01978              -1.00     8000.00
01979              -1.20     8000.00
01980              -1.20     6400.00
01981              -1.20     6400.00
01982              -1.00     5600.00
01983              -1.20     5600.00
01984              -1.00     4800.00
01985              -1.20     4000.00
01986              -0.20     3200.00
01987              -0.60     2400.00
01988              -1.20     2400.00
01989               0.20     1600.00
01990              -0.40        0.00
01991              -0.40        0.00
01992               0.60        0.00
01993               1.40     -800.00
01994               3.40    -1600.00
01995              -1.20     -800.00
01996               0.60    -3200.00
01997               1.40    -3200.00
01998               0.80    -3200.00
01999               0.20    -4000.00
02000               7.00    -4000.00
02001              25.00    -4800.00
02002               3.60    -7200.00
02003             -25.00    -7200.00
02004               1.40    -8000.00
02005              25.00    -8800.00
02006             -25.00    -8800.00
02007             -16.00    -8000.00
02008              25.00   -10400.00
02009             -25.00   -10400.00
02010             -25.00   -11200.00
02011              25.00   -12800.00
02012             -25.00   -11200.00
02013              -3.40   -12800.00
02014              25.00   -12800.00
02015             -25.00   -13600.00
02016              25.00   -14400.00
02017             -25.00   -14400.00
02018               7.40   -15200.00
02019              25.00   -16000.00
02020             -25.00   -16000.00
02021              10.60   -16800.00
02022              25.00   -16800.00
02023             -22.80   -17600.00
02024              -7.40   -18400.00
02025              25.00   -19200.00
02026             -21.80   -19200.00
02027              -2.60   -20000.00
02028              25.00   -20000.00
02029             -18.00   -20800.00
02030               6.00   -21600.00
02031              12.00   -22400.00
02032             -10.60   -22400.00
02033               6.80   -23200.00
02034              10.60   -23200.00
02035              -5.20   -24000.00
02036               9.20   -24000.00
02037               8.20   -24000.00
02038              -8.20   -25600.00
02039              13.20   -25600.00
02040               2.60   -25600.00
02041              -1.20   -26400.00
02042              11.40   -26400.00
02043               2.20   -27200.00
02044               2.00   -27200.00
02045               8.20   -27200.00
02046               4.60   -27200.00
02047               2.80   -28000.00
02048               8.80   -28800.00
02049               4.40   -28800.00
02050               3.00   -28800.00
02051               8.60   -28800.00
02052               4.00   -29600.00
02053               5.80   -29600.00
02054               9.80   -29600.00
02055               4.40   -30400.00
02056               7.20   -30400.00
02057               8.60   -30400.00
02058               5.00   -31200.00
02059               7.80   -31200.00
02060               8.20   -31200.00
02061               7.60   -32000.00
02062               8.80   -32000.00
02063               8.00   -32000.00
02064               7.80   -32000.00
02065               8.40   -32000.00
02066               9.00   -32000.00
02067               9.00   -32000.00
02068               9.20   -32000.00
02069               9.80   -32800.00
02070               9.20   -32800.00
02071              10.40   -32800.00
02072               9.00   -32800.00
02073               9.80   -32800.00
02074              10.80   -32800.00
02075               9.20   -32000.00
02076              10.20   -32800.00
02077              10.00   -32000.00
02078               9.00   -32800.00
02079              10.40   -32800.00
02080               9.60   -32000.00
02081               9.20   -32000.00
02082               9.20   -32800.00
02083               9.00   -32000.00
02084               8.60   -32000.00
02085               8.40   -32000.00
02086               8.60   -32000.00
02087               7.80   -32000.00
02088               8.20   -31200.00
02089               7.60   -31200.00
02090               7.00   -31200.00
02091               7.00   -32000.00
02092               6.80   -30400.00
02093               6.80   -30400.00
02094               7.40   -30400.00
02095               5.80   -29600.00
02096               6.40   -29600.00
02097               6.00   -29600.00
02098               5.80   -29600.00
02099               5.80   -28800.00
02100               5.60   -28800.00
02101               5.20   -28800.00
02102               5.00   -28000.00
02103               5.20   -28000.00
02104               5.00   -27200.00
02105               4.80   -27200.00
02106               5.80   -27200.00
02107               3.40   -26400.00
02108               4.20   -26400.00
02109               3.60   -25600.00
02110               1.80   -25600.00
02111               4.20   -24800.00
02112               3.60   -24800.00
02113               3.00   -24000.00
02114               5.20   -23200.00
02115               3.80   -23200.00
02116               4.20   -23200.00
02117               3.40   -22400.00
02118               1.80   -22400.00
02119               2.60   -21600.00
02120               1.40   -20800.00
02121               1.80   -20000.00
02122               3.00   -20800.00
02123               2.60   -19200.00
02124               2.60   -18400.00
02125               3.40   -18400.00
02126               2.80   -17600.00
02127               1.20   -17600.00
02128               1.20   -16800.00
02129               1.40   -16800.00
02130               1.00   -16000.00
02131               1.80   -16000.00
02132               2.00   -16000.00
02133               1.80   -14400.00
02134               2.00   -14400.00
02135               2.00   -13600.00
02136               2.00   -12800.00
02137              -0.20   -12800.00
02138              -0.40   -11200.00
02139               1.80   -11200.00
02140               0.40   -10400.00
02141              -0.60    -9600.00
02142               2.20    -9600.00
02143               2.00    -9600.00
02144              -0.60    -8000.00
02145               1.00    -7200.00
02146               2.00    -7200.00
02147              -1.20    -6400.00
02148              -0.40    -5600.00
02149               1.00    -4800.00
02150              -0.20    -4000.00
02151              -0.60    -3200.00
02152               1.20    -3200.00
02153               0.60    -3200.00
02154              -1.20    -1600.00
02155              -0.60    -1600.00
02156               0.20     -800.00
02157              -1.40        0.00
02158              -1.40        0.00
02159               2.20      800.00
02160               1.20     1600.00
02161               0.80     2400.00
02162              -0.60     2400.00
02163              -0.60     3200.00
02164              -1.20     3200.00
02165              -0.20     4000.00
02166               3.40     4800.00
02167              21.80     6400.00
02168              15.80     7200.00
02169             -25.00     8000.00
02170              -9.40     8000.00
02171              25.00     8000.00
02172             -25.00     8800.00
02173               3.40     9600.00
02174              25.00     9600.00
02175             -25.00     9600.00
02176              25.00    12000.00
02177              25.00    11200.00
02178             -25.00    12000.00
02179              25.00    12800.00
02180             -25.00    12800.00
02181               7.80    13600.00
02182              25.00    14400.00
02183             -25.00    15200.00
02184              25.00    16000.00
02185               4.20    16000.00
02186             -25.00    16000.00
02187              25.00    17600.00
02188              -1.20    18400.00
02189             -25.00    18400.00
02190              11.60    18400.00
02191              19.00    19200.00
02192             -25.00    19200.00
02193              21.80    20800.00
02194               7.20    20800.00
02195             -25.00    21600.00
02196              22.60    22400.00
02197             -18.40    22400.00
02198              -8.20    22400.00
02199               6.00    22400.00
02200              -9.20    23200.00
02201              -7.60    24000.00
02202              10.60    24800.00
02203             -13.40    24800.00
02204              -7.00    25600.00
02205               8.40    25600.00
02206             -18.60    26400.00
02207               1.20    27200.00
02208              -1.20    27200.00
02209             -10.00    27200.00
02210              -2.80    27200.00
02211              -3.40    28000.00
02212              -8.40    28000.00
02213              -5.20    28800.00
02214              -2.40    28800.00
02215              -9.00    28800.00
02216              -5.20    29600.00
02217              -5.00    29600.00
02218             -10.20    30400.00
02219              -3.60    30400.00
02220              -5.80    30400.00
02221             -10.00    31200.00
02222              -3.60    31200.00
02223              -8.60    31200.00
02224              -8.60    31200.00
02225              -5.80    31200.00
02226              -9.80    32800.00
02227              -7.60    32000.00
02228              -7.60    32800.00
02229              -9.40    32000.00
02230              -9.00    32000.00
02231              -9.00    32800.00
02232              -8.60    32800.00
02233              -9.20    32800.00
02234              -8.20    32800.00
02235             -10.60    32800.00
02236             -10.80    32800.00
02237              -8.60    33600.00
02238             -11.40    32800.00
02239             -10.00    32800.00
02240             -10.60    33600.00
02241             -10.00    33600.00
02242              -9.00    33600.00
02243             -12.20    33600.00
02244             -10.00    33600.00
02245              -9.80    33600.00
02246             -11.60    32800.00
02247              -9.40    33600.00
02248              -9.40    32800.00
02249             -10.80    32800.00
02250              -9.40    33600.00
02251              -7.80    33600.00
02252              -9.40    32800.00
02253              -9.80    32000.00
02254              -7.60    32800.00
02255              -8.40    32000.00
02256              -9.00    31200.00
02257              -7.60    32000.00
02258              -7.60    32000.00
02259              -7.40    31200.00
02260              -7.20    31200.00
02261              -7.00    31200.00
02262              -6.80    30400.00
02263              -7.60    30400.00
02264              -6.60    30400.00
02265              -6.00    29600.00
02266              -6.80    29600.00
02267              -6.20    28800.00
02268              -5.40    28800.00
02269              -5.20    28800.00
02270              -5.80    28000.00
02271              -5.40    28000.00
02272              -5.00    27200.00
02273              -5.40    27200.00
02274              -5.00    26400.00
02275              -4.60    26400.00
02276              -4.80    26400.00
02277              -4.40    25600.00
02278              -4.40    25600.00
02279              -3.80    24800.00
02280              -4.40    24800.00
02281              -4.40    24800.00
02282              -3.80    24000.00
02283              -3.60    23200.00
02284              -3.60    23200.00
02285              -3.80    22400.00
02286              -3.00    22400.00
02287              -3.40    21600.00
02288              -4.20    20800.00
02289              -3.00    20800.00
02290              -3.40    20800.00
02291              -3.00    19200.00
02292              -2.20    18400.00
02293              -3.40    18400.00
02294              -2.60    17600.00
02295              -2.80    17600.00
02296              -2.60    16800.00
02297              -1.80    16000.00
02298              -2.60    16000.00
02299              -2.80    15200.00
02300              -2.20    15200.00
02301              -1.40    14400.00
02302              -2.20    13600.00
02303              -2.20    12800.00
02304              -1.80    12000.00
02305              -2.00    12000.00
02306              -2.20    11200.00
02307              -2.00    11200.00
02308              -2.00    10400.00
02309              -1.00     9600.00
02310              -2.40     8800.00
02311              -1.20     8800.00
02312              -0.60     8000.00
02313              -1.80     7200.00
02314              -1.20     6400.00
02315               0.20     5600.00
02316              -1.20     4800.00
02317              -0.80     4800.00
02318              -0.60     4000.00
02319              -0.80     3200.00
02320              -0.60     3200.00
02321              -1.00     1600.00
02322              -0.60     1600.00
02323              -0.20      800.00
02324              -0.60        0.00
02325               0.20        0.00
02326               0.60     -800.00
02327               3.60    -1600.00
02328               0.20    -1600.00
02329              -0.60    -2400.00
02330               1.20    -3200.00
02331               0.80    -3200.00
02332               0.20    -3200.00
02333               3.60    -4800.00
02334              17.00    -4800.00
02335              23.60    -7200.00
02336             -25.00    -7200.00
02337             -24.40    -7200.00
02338              25.00    -8000.00
02339              -5.00    -8800.00
02340             -25.00    -8000.00
02341              25.00    -9600.00
02342              25.00   -10400.00
02343             -25.00   -10400.00
02344              25.00   -11200.00
02345              14.20   -11200.00
02346             -25.00   -12000.00
02347              25.00   -12800.00
02348             -23.00   -12800.00
02349              16.20   -13600.00
02350               2.80   -14400.00
02351             -25.00   -15200.00
02352              25.00   -16000.00
02353             -16.60   -16000.00
02354             -17.20   -16800.00
02355              25.00   -17600.00
02356              -4.40   -17600.00
02357             -24.60   -18400.00
02358              25.00   -19200.00
02359               4.80   -18400.00
02360             -25.00   -19200.00
02361              25.00   -20000.00
02362              -1.00   -20800.00
02363             -10.60   -22400.00
02364              19.60   -21600.00
02365              -6.80   -22400.00
02366              -1.80   -23200.00
02367              12.60   -23200.00
02368              -0.60   -23200.00
02369               0.20   -24000.00
02370              14.60   -24000.00
02371              -6.20   -24800.00
02372               5.00   -25600.00
02373              10.60   -25600.00
02374              -5.00   -25600.00
02375               9.00   -26400.00
02376               6.40   -26400.00
02377               0.60   -27200.00
02378               6.00   -27200.00
02379               7.20   -28000.00
02380               2.20   -27200.00
02381               6.80   -28800.00
02382               7.40   -28800.00
02383               1.80   -28800.00
02384               7.60   -28800.00
02385               6.60   -28800.00
02386               3.60   -29600.00
02387               9.00   -30400.00
02388               6.60   -29600.00
02389               4.40   -30400.00
02390               9.20   -30400.00
02391               6.00   -30400.00
02392               6.20   -31200.00
02393               9.00   -30400.00
02394               7.40   -31200.00
02395               8.40   -32000.00
02396               8.40   -32000.00
02397               8.20   -32000.00
02398               8.00   -32000.00
02399               9.00   -32000.00
02400               9.20   -32000.00
02401               8.60   -32000.00
02402               9.60   -32000.00
02403               9.00   -32800.00
02404               9.60   -32800.00
02405               9.80   -32800.00
02406               9.00   -32800.00
02407              10.80   -32800.00
02408               9.80   -32800.00
02409              10.00   -32800.00
02410              10.60   -32000.00
02411               9.40   -32800.00
02412              10.00   -32000.00
02413               9.80   -32800.00
02414               9.20   -32800.00
02415               9.00   -32000.00
02416               8.60   -32800.00
02417               9.00   -32000.00
02418               8.40   -32000.00
02419               8.60   -32000.00
02420               7.80   -32000.00
02421               7.80   -32000.00
02422               8.40   -32000.00
02423               6.80   -30400.00
02424               7.40   -31200.00
02425               7.60   -30400.00
02426               6.20   -30400.00
02427               7.20   -29600.00
02428               6.00   -30400.00
02429               6.20   -29600.00
02430               6.60   -29600.00
02431               5.80   -28800.00
02432               5.80   -29600.00
02433               6.20   -28800.00
02434               4.60   -28800.00
02435               5.00   -28800.00
02436               5.80   -27200.00
02437               5.00   -27200.00
02438               4.40   -27200.00
02439               5.00   -27200.00
02440               4.20   -27200.00
02441               4.20   -26400.00
02442               3.60   -25600.00
02443               3.60   -25600.00
02444               4.40   -25600.00
02445               3.40   -24000.00
02446               3.40   -24800.00
02447               4.40   -24000.00
02448               3.00   -23200.00
02449               2.80   -23200.00
02450               3.80   -22400.00
02451               3.00   -22400.00
02452               2.40   -21600.00
02453               2.60   -20800.00
02454               2.80   -20800.00
02455               2.60   -20000.00
02456               2.60   -20000.00
02457               2.60   -18400.00
02458               2.40   -17600.00
02459               2.00   -18400.00
02460               2.00   -17600.00
02461               2.20   -16800.00
02462               1.40   -17600.00
02463               1.80   -16000.00
02464               2.00   -16000.00
02465               2.00   -15200.00
02466               1.80   -14400.00
02467               1.40   -13600.00
02468               1.00   -13600.00
02469               1.00   -12800.00
02470               0.60   -12800.00
02471               0.60   -11200.00
02472               1.80   -11200.00
02473               1.40   -10400.00
02474               0.60    -9600.00
02475               1.40    -9600.00
02476               0.60    -8800.00
02477               0.00    -8000.00
02478               0.00    -8000.00
02479               0.20    -7200.00
02480               0.40    -6400.00
02481               0.20    -6400.00
02482               0.40    -4800.00
02483               0.40    -4000.00
02484              -0.40    -4000.00
02485              -0.40    -3200.00
02486               0.20    -3200.00
02487              -0.20    -1600.00
02488              -0.40    -1600.00
02489              -0.20     -800.00
02490              -0.60     -800.00
02491              -0.40      800.00
02492              -0.20      800.00
02493               0.20     1600.00
02494               3.40     1600.00
02495              -2.00     2400.00
02496              -1.80     2400.00
02497               1.00     3200.00
02498              -0.40     4000.00
02499              -1.20     4800.00
02500              12.60     5600.00
02501              25.00     7200.00
02502             -25.00     8000.00
02503             -25.00     8000.00
02504              25.00     8800.00
02505              -6.60     8000.00
02506             -25.00     8800.00
02507              25.00     9600.00
02508             -25.00     9600.00
02509             -25.00    11200.00
02510              25.00    12000.00
02511             -25.00    11200.00
02512              19.40    12800.00
02513              22.20    12800.00
02514             -25.00    13600.00
02515              25.00    14400.00
02516             -25.00    14400.00
02517              -1.00    15200.00
02518              25.00    15200.00
02519             -25.00    16000.00
02520              21.20    17600.00
02521              25.00    17600.00
02522             -25.00    17600.00
02523             -10.80    17600.00
02524              25.00    19200.00
02525             -25.00    19200.00
02526             -10.00    20800.00
02527              25.00    20800.00
02528             -25.00    20800.00
02529              11.40    22400.00
02530               0.40    22400.00
02531             -21.20    23200.00
02532               7.60    23200.00
02533              -2.80    23200.00
02534             -11.60    24000.00
02535               5.40    24000.00
02536              -1.20    24800.00
02537             -18.60    24800.00
02538              10.60    25600.00
02539             -11.20    25600.00
02540              -8.60    26400.00
02541               5.00    27200.00
02542             -10.80    27200.00
02543              -5.20    27200.00
02544              -2.20    27200.00
02545              -7.00    28000.00
02546              -7.80    28000.00
02547              -1.20    28800.00
02548              -7.60    29600.00
02549              -8.20    29600.00
02550              -3.60    29600.00
02551              -9.00    30400.00
02552              -6.80    30400.00
02553              -3.00    30400.00
02554             -10.20    30400.00
02555              -5.80    31200.00
02556              -6.00    31200.00
02557             -10.60    31200.00
02558              -5.80    31200.00
02559              -8.60    32800.00
02560              -9.00    32000.00
02561              -6.60    32800.00
02562              -8.60    32800.00
02563              -9.40    32800.00
02564              -9.20    32800.00
02565              -8.80    33600.00
02566              -9.40    32800.00
02567              -9.20    32800.00
02568              -9.20    33600.00
02569             -10.80    32800.00
02570              -8.60    33600.00
02571             -10.80    33600.00
02572             -11.00    33600.00
02573              -9.20    33600.00
02574             -11.80    33600.00
02575              -9.00    33600.00
02576             -10.20    33600.00
02577             -11.80    33600.00
02578              -9.40    33600.00
02579             -10.60    33600.00
02580             -10.00    33600.00
02581             -10.20    32800.00
02582             -10.00    32800.00
02583              -9.40    33600.00
02584              -9.20    32000.00
02585              -8.60    32800.00
02586              -9.20    32800.00
02587              -8.60    32800.00
02588              -8.20    32800.00
02589              -8.60    32000.00
02590              -7.60    32000.00
02591              -8.40    31200.00
02592              -7.40    31200.00
02593              -6.60    31200.00
02594              -7.40    31200.00
02595              -7.00    30400.00
02596              -6.80    30400.00
02597              -6.60    30400.00
02598              -6.20    29600.00
02599              -6.20    30400.00
02600              -6.60    28800.00
02601              -6.00    28800.00
02602              -5.40    28800.00
02603              -5.40    28000.00
02604              -5.40    28000.00
02605              -5.20    27200.00
02606              -5.00    27200.00
02607              -5.00    27200.00
02608              -4.40    26400.00
02609              -5.40    26400.00
02610              -4.80    25600.00
02611              -3.80    25600.00
02612              -5.00    25600.00
02613              -4.40    24800.00
02614              -4.40    24000.00
02615              -4.40    24000.00
02616              -4.20    24000.00
02617              -3.40    23200.00
02618              -4.20    22400.00
02619              -3.80    22400.00
02620              -2.60    21600.00
02621              -3.80    21600.00
02622              -3.40    20800.00
02623              -3.00    20000.00
02624              -3.60    19200.00
02625              -2.60    19200.00
02626              -2.80    19200.00
02627              -3.00    17600.00
02628              -3.00    17600.00
02629              -2.80    17600.00
02630              -2.00    16000.00
02631              -2.80    16000.00
02632              -2.80    16000.00
02633              -1.40    14400.00
02634              -2.60    14400.00
02635              -2.20    14400.00
02636              -1.20    14400.00
02637              -2.40    12800.00
02638              -1.20    12000.00
02639              -1.20    12000.00
02640              -2.00    11200.00
02641              -2.20    10400.00
02642              -0.80     9600.00
02643              -2.20     9600.00
02644              -1.20     8800.00
02645              -1.00     8000.00
02646              -1.80     8000.00
02647              -1.20     6400.00
02648              -0.40     6400.00
02649              -1.20     6400.00
02650              -0.60     5600.00
02651              -0.60     4000.00
02652              -0.60     3200.00
02653              -0.40     3200.00
02654              -0.60     2400.00
02655              -0.60     1600.00
02656               0.20     1600.00
02657              -0.40      800.00
02658              -0.60        0.00
02659               0.60     -800.00
02660               2.80     -800.00
02661               1.80    -1600.00
02662              -1.40    -1600.00
02663               1.20    -1600.00
02664               1.40    -3200.00
02665               0.40    -3200.00
02666               1.00    -4000.00
02667              10.20    -4800.00
02668              25.00    -6400.00
02669             -13.80    -7200.00
02670             -25.00    -8000.00
02671              15.00    -8000.00
02672              17.80    -8000.00
02673             -25.00    -8000.00
02674               6.80    -8800.00
02675              25.00   -10400.00
02676             -25.00    -9600.00
02677               6.20   -11200.00
02678              25.00   -11200.00
02679             -25.00   -11200.00
02680              24.00   -12800.00
02681               9.80   -13600.00
02682             -12.80   -13600.00
02683              25.00   -14400.00
02684             -25.00   -14400.00
02685              25.00   -16000.00
02686              18.00   -16000.00
02687             -25.00   -16000.00
02688              23.80   -16800.00
02689              18.60   -16800.00
02690             -25.00   -18400.00
02691               6.60   -17600.00
02692              25.00   -19200.00
02693             -25.00   -19200.00
02694              14.00   -20000.00
02695              21.40   -20000.00
02696             -20.60   -20800.00
02697              15.60   -21600.00
02698               4.20   -22400.00
02699              -9.00   -22400.00
02700              10.60   -23200.00
02701               6.60   -24000.00
02702              -4.80   -23200.00
02703              13.80   -24000.00
02704               1.80   -24800.00
02705              -4.40   -25600.00
02706              14.20   -25600.00
02707              -2.60   -25600.00
02708               3.00   -26400.00
02709              10.60   -27200.00
02710               0.60   -27200.00
02711               3.40   -27200.00
02712               8.20   -28000.00
02713               3.20   -28800.00
02714               4.40   -28800.00
02715               9.40   -28800.00
02716               3.00   -29600.00
02717               5.20   -28800.00
02718               8.40   -28800.00
02719               3.20   -29600.00
02720               6.80   -29600.00
02721               8.60   -29600.00
02722               4.00   -30400.00
02723               8.40   -30400.00
02724               7.40   -30400.00
02725               5.20   -31200.00
02726               8.80   -31200.00
02727               7.60   -31200.00
02728               7.60   -32000.00
02729               9.00   -32000.00
02730               7.80   -32000.00
02731               8.20   -32000.00
02732               8.60   -32000.00
02733               8.60   -32000.00
02734               9.00   -32000.00
02735               9.40   -32000.00
02736               9.00   -32000.00
02737               9.40   -32000.00
02738              10.00   -32800.00
02739               8.60   -32800.00
02740              10.00   -32800.00
02741              10.60   -32800.00
02742               8.60   -32000.00
02743              10.60   -32800.00
02744              10.00   -32800.00
02745               9.40   -32800.00
02746               9.40   -32800.00
02747               9.20   -32800.00
02748              10.00   -32000.00
02749               8.20   -31200.00
02750               8.20   -32000.00
02751               9.80   -32000.00
02752               8.80   -32000.00
02753               6.80   -32000.00
02754               7.40   -32000.00
02755               9.60   -31200.00
02756               6.20   -32000.00
02757               5.80   -30400.00
02758              10.00   -30400.00
02759               6.20   -30400.00
02760               5.80   -30400.00
02761               9.00   -29600.00
02762               5.00   -29600.00
02763               4.40   -29600.00
02764               7.60   -29600.00
02765               5.20   -29600.00
02766               4.60   -28800.00
02767               7.40   -28800.00
02768               4.60   -28000.00
02769               4.20   -28000.00
02770               5.40   -27200.00
02771               3.80   -27200.00
02772               4.60   -26400.00
02773               5.80   -27200.00
02774               3.60   -26400.00
02775               4.20   -26400.00
02776               3.60   -25600.00
02777               4.20   -24800.00
02778               5.00   -25600.00
02779               3.40   -24000.00
02780               3.20   -24000.00
02781               3.60   -24000.00
02782               2.80   -23200.00
02783               3.00   -23200.00
02784               3.80   -22400.00
02785               3.20   -21600.00
02786               2.60   -20800.00
02787               2.80   -20000.00
02788               2.80   -20800.00
02789               1.80   -20000.00
02790               1.80   -20000.00
02791               2.80   -18400.00
02792               2.80   -18400.00
02793               1.80   -18400.00
02794               2.80   -17600.00
02795               2.60   -16800.00
02796               1.00   -16000.00
02797               1.80   -16000.00
02798               2.00   -15200.00
02799               0.80   -14400.00
02800               1.20   -14400.00
02801               1.80   -13600.00
02802               1.00   -12800.00
02803               1.00   -12800.00
02804               1.00   -12000.00
02805               1.20   -11200.00
02806               1.20   -10400.00
02807               0.40   -10400.00
02808               0.40    -9600.00
02809               1.00    -9600.00
02810               0.40    -8800.00
02811               0.60    -8000.00
02812               0.60    -8000.00
02813               0.20    -6400.00
02814              -0.20    -6400.00
02815              -0.20    -5600.00
02816               0.20    -4800.00
02817              -0.20    -4000.00
02818              -0.20    -3200.00
02819               0.20    -3200.00
02820              -0.40    -3200.00
02821              -0.20    -1600.00
02822              -0.20    -1600.00
02823              -0.40     -800.00
02824              -0.60        0.00
02825              -0.20        0.00
02826               0.20     1600.00
02827               2.60     1600.00
02828               0.20     2400.00
02829              -2.60     2400.00
02830               0.20     3200.00
02831               0.20     4000.00
02832              -2.00     4800.00
02833               6.00     4800.00
02834              25.00     6400.00
02835              -5.00     7200.00
02836             -25.00     8000.00
02837               9.20     8000.00
02838              18.20     8000.00
02839             -25.00     8000.00
02840              25.00     9600.00
02841              25.00    10400.00
02842             -25.00    10400.00
02843              25.00    11200.00
02844              -4.20    11200.00
02845             -25.00    12000.00
02846              25.00    12800.00
02847             -25.00    13600.00
02848              25.00    14400.00
02849              13.40    14400.00
02850             -25.00    15200.00
02851              25.00    16000.00
02852             -25.00    16000.00
02853             -24.60    16800.00
02854              25.00    16800.00
02855             -18.20    18400.00
02856             -25.00    18400.00
02857              25.00    19200.00
02858               1.80    19200.00
02859             -25.00    20000.00
02860              25.00    20800.00
02861             -13.00    20800.00
02862             -14.20    21600.00
02863              20.20    22400.00
02864             -24.00    22400.00
02865              -0.20    23200.00
02866               3.60    23200.00
02867             -11.40    24000.00
02868              -3.40    24800.00
02869               9.00    24800.00
02870             -18.80    25600.00
02871               1.20    25600.00
02872               1.60    25600.00
02873             -17.80    26400.00
02874               5.20    26400.00
02875              -5.80    27200.00
02876              -8.80    28000.00
02877              -2.00    28000.00
02878              -4.40    28000.00
02879              -9.40    28000.00
02880              -3.20    28800.00
02881              -4.20    28800.00
02882             -10.00    29600.00
02883              -3.80    29600.00
02884              -6.00    29600.00
02885             -10.00    30400.00
02886              -2.60    30400.00
02887              -7.60    30400.00
02888              -9.20    31200.00
02889              -3.80    31200.00
02890             -10.20    31200.00
02891              -7.40    32000.00
02892              -6.80    31200.00
02893             -10.20    32000.00
02894              -6.80    32800.00
02895              -7.60    32800.00
02896              -9.40    32800.00
02897              -9.00    32800.00
02898              -9.00    32800.00
02899              -9.20    33600.00
02900              -9.40    33600.00
02901              -8.40    32800.00
02902             -10.80    32800.00
02903              -9.80    33600.00
02904              -9.00    33600.00
02905             -11.60    33600.00
02906              -9.20    33600.00
02907             -11.20    33600.00
02908             -10.60    33600.00
02909              -9.00    33600.00
02910             -12.20    33600.00
02911             -10.20    33600.00
02912             -10.00    33600.00
02913             -10.20    33600.00
02914              -9.80    32800.00
02915             -10.00    33600.00
02916              -9.40    33600.00
02917              -9.40    32800.00
02918              -8.60    32000.00
02919              -8.80    32800.00
02920              -9.20    32800.00
02921              -8.00    32800.00
02922              -8.20    32000.00
02923              -8.00    32000.00
02924              -8.20    31200.00
02925              -8.40    32000.00
02926              -6.80    31200.00
02927              -7.00    31200.00
02928              -7.00    31200.00
02929              -6.60    30400.00
02930              -7.00    30400.00
02931              -6.20    30400.00
02932              -6.00    30400.00
02933              -7.00    28800.00
02934              -6.00    29600.00
02935              -5.80    28800.00
02936              -5.80    28000.00
02937              -5.80    28000.00
02938              -5.20    27200.00
02939              -5.20    28000.00
02940              -5.20    27200.00
02941              -5.00    27200.00
02942              -5.00    25600.00
02943              -4.60    25600.00
02944              -4.20    25600.00
02945              -4.60    25600.00
02946              -3.60    24800.00
02947              -4.40    24000.00
02948              -4.40    24000.00
02949              -3.60    24000.00
02950              -4.20    23200.00
02951              -3.60    23200.00
02952              -3.80    22400.00
02953              -3.60    22400.00
02954              -3.40    21600.00
02955              -3.40    20800.00
02956              -3.40    20000.00
02957              -3.40    19200.00
02958              -2.80    19200.00
02959              -2.20    18400.00
02960              -3.00    18400.00
02961              -2.80    17600.00
02962              -2.80    17600.00
02963              -2.80    16800.00
02964              -2.00    16000.00
02965              -2.20    16000.00
02966              -2.20    15200.00
02967              -2.40    14400.00
02968              -2.20    14400.00
02969              -1.80    12800.00
02970              -2.20    12800.00
02971              -2.00    12000.00
02972              -1.20    12000.00
02973              -1.20    11200.00
02974              -2.00    11200.00
02975              -1.40     9600.00
02976              -1.00     9600.00
02977              -2.00     8800.00
02978              -1.20     8800.00
02979              -1.20     8000.00
02980              -1.40     7200.00
02981              -0.60     6400.00
02982              -1.00     6400.00
02983              -0.80     4800.00
02984              -0.40     4000.00
02985              -1.00     4000.00
02986              -0.60     3200.00
02987              -0.60     2400.00
02988              -1.00     2400.00
02989              -0.20     1600.00
02990              -0.40      800.00
02991              -0.20        0.00
02992               0.60        0.00
02993               1.20     -800.00
02994               3.60     -800.00
02995              -0.60    -1600.00
02996              -0.20    -2400.00
02997               1.40    -3200.00
02998               1.00    -3200.00
02999              -0.40    -4000.00
03000               5.80    -4000.00
03001              21.80    -5600.00
03002              13.20    -7200.00
03003             -25.00    -7200.00
03004              -9.00    -8000.00
03005              25.00    -8000.00
03006             -21.80    -8800.00
03007             -25.00    -8000.00
03008              25.00    -9600.00
03009              -3.40    -9600.00
03010             -25.00   -10400.00
03011              25.00   -11200.00
03012             -24.60   -11200.00
03013             -24.40   -12800.00
03014              25.00   -12800.00
03015             -25.00   -13600.00
03016              25.00   -13600.00
03017             -17.20   -14400.00
03018              -7.80   -15200.00
03019              25.00   -16000.00
03020             -25.00   -16000.00
03021              -1.40   -16800.00
03022              25.00   -17600.00
03023             -16.60   -17600.00
03024             -15.40   -18400.00
03025              25.00   -19200.00
03026             -12.20   -19200.00
03027             -12.60   -20000.00
03028              25.00   -20000.00
03029             -13.40   -20800.00
03030               0.00   -21600.00
03031              16.20   -22400.00
03032             -10.20   -22400.00
03033               4.40   -22400.00
03034              11.80   -23200.00
03035              -5.00   -24000.00
03036               6.20   -24000.00
03037              11.60   -24000.00
03038              -8.60   -24800.00
03039              11.40   -25600.00
03040               6.00   -25600.00
03041              -3.80   -26400.00
03042              11.40   -26400.00
03043               4.20   -27200.00
03044               0.60   -27200.00
03045               7.80   -28000.00
03046               6.00   -27200.00
03047               2.00   -28000.00
03048               8.20   -28800.00
03049               5.80   -28800.00
03050               2.80   -28800.00
03051               8.80   -29600.00
03052               5.20   -29600.00
03053               4.80   -29600.00
03054               9.40   -30400.00
03055               5.00   -30400.00
03056               6.00   -30400.00
03057               9.00   -31200.00
03058               5.20   -30400.00
03059               7.40   -30400.00
03060               8.60   -31200.00
03061               7.40   -31200.00
03062               8.60   -32000.00
03063               8.20   -32000.00
03064               8.20   -32000.00
03065               8.20   -32000.00
03066               8.60   -32000.00
03067               8.60   -32000.00
03068               8.80   -32800.00
03069               9.80   -32000.00
03070               9.00   -32000.00
03071               9.80   -32000.00
03072               9.00   -32800.00
03073               9.20   -32800.00
03074              10.60   -32800.00
03075               9.20   -32000.00
03076              10.20   -32800.00
03077              10.20   -32800.00
03078               9.00   -32800.00
03079              10.60   -32800.00
03080               9.40   -32800.00
03081               8.80   -32800.00
03082               9.00   -32000.00
03083               8.60   -32000.00
03084               8.40   -32000.00
03085               8.40   -32000.00
03086               8.60   -32000.00
03087               7.80   -31200.00
03088               8.20   -31200.00
03089               7.60   -31200.00
03090               6.80   -32000.00
03091               7.40   -30400.00
03092               6.20   -31200.00
03093               6.60   -30400.00
03094               7.60   -29600.00
03095               5.80   -29600.00
03096               6.60   -30400.00
03097               6.20   -28800.00
03098               5.20   -28800.00
03099               6.00   -28800.00
03100               6.00   -28800.00
03101               5.00   -28800.00
03102               5.40   -28800.00
03103               5.00   -28000.00
03104               4.80   -27200.00
03105               4.60   -27200.00
03106               5.00   -27200.00
03107               4.40   -26400.00
03108               4.20   -26400.00
03109               3.80   -25600.00
03110               3.80   -25600.00
03111               4.20   -25600.00
03112               3.80   -24000.00
03113               3.60   -24000.00
03114               3.60   -24000.00
03115               3.20   -24000.00
03116               3.40   -22400.00
03117               3.40   -22400.00
03118               2.60   -22400.00
03119               3.40   -21600.00
03120               2.60   -20800.00
03121               2.60   -20800.00
03122               2.60   -20000.00
03123               2.20   -19200.00
03124               2.20   -19200.00
03125               2.20   -18400.00
03126               2.40   -17600.00
03127               2.00   -17600.00
03128               1.80   -16800.00
03129               1.80   -16800.00
03130               1.80   -16000.00
03131               1.80   -16000.00
03132               1.80   -14400.00
03133               1.20   -14400.00
03134               1.40   -14400.00
03135               1.20   -13600.00
03136               1.00   -12800.00
03137               1.00   -12000.00
03138               0.80   -11200.00
03139               1.00   -11200.00
03140               0.80   -10400.00
03141               0.40    -9600.00
03142               0.60    -9600.00
03143               0.40    -8800.00
03144               0.80    -8000.00
03145               0.40    -8000.00
03146               0.60    -7200.00
03147               0.20    -6400.00
03148               0.20    -5600.00
03149               0.20    -4800.00
03150              -0.20    -4800.00
03151              -0.40    -4000.00
03152              -0.20    -3200.00
03153               0.20    -2400.00
03154              -0.40    -2400.00
03155              -0.20    -1600.00
03156              -0.40     -800.00
03157              -0.20        0.00
03158               0.20        0.00
03159               0.20      800.00
03160               1.20     1600.00
03161               2.80     1600.00
03162              -2.80     2400.00
03163              -0.40     3200.00
03164               0.60     3200.00
03165              -1.80     4000.00
03166               1.40     4000.00
03167              18.20     5600.00
03168              25.00     7200.00
03169             -25.00     8000.00
03170             -19.40     8000.00
03171              25.00     8800.00
03172             -24.40     8000.00
03173             -14.20     9600.00
03174              25.00    10400.00
03175             -25.00     9600.00
03176              10.60    11200.00
03177              25.00    12000.00
03178             -25.00    12000.00
03179              25.00    12800.00
03180             -16.00    12800.00
03181             -20.40    13600.00
03182              25.00    14400.00
03183             -25.00    14400.00
03184              25.00    15200.00
03185              25.00    16000.00
03186             -25.00    16000.00
03187              25.00    16800.00
03188              10.20    17600.00
03189             -25.00    18400.00
03190               3.40    18400.00
03191              25.00    19200.00
03192             -25.00    20000.00
03193              10.40    20800.00
03194              20.40    20800.00
03195             -25.00    21600.00
03196              20.40    22400.00
03197             -12.20    22400.00
03198             -14.20    22400.00
03199               7.60    23200.00
03200              -6.20    24000.00
03201              -9.80    24000.00
03202               9.20    24800.00
03203              -9.20    24800.00
03204             -13.00    25600.00
03205              10.00    25600.00
03206             -16.60    25600.00
03207              -2.20    27200.00
03208               1.80    27200.00
03209             -10.80    27200.00
03210              -3.80    27200.00
03211              -3.00    28000.00
03212              -7.80    28000.00
03213              -6.20    28800.00
03214              -2.20    28800.00
03215              -9.20    28800.00
03216              -6.40    28800.00
03217              -4.20    30400.00
03218             -10.20    30400.00
03219              -4.60    30400.00
03220              -4.40    31200.00
03221             -10.80    30400.00
03222              -4.00    31200.00
03223              -7.40    31200.00
03224             -10.20    32000.00
03225              -5.40    31200.00
03226              -9.60    32800.00
03227              -7.60    32000.00
03228              -7.00    32000.00
03229              -9.00    32800.00
03230              -9.20    32800.00
03231              -9.80    32000.00
03232              -8.60    32800.00
03233              -9.00    32800.00
03234              -9.40    32800.00
03235             -10.20    33600.00
03236              -9.20    33600.00
03237              -8.40    33600.00
03238             -12.40    32800.00
03239              -9.80    33600.00
03240              -8.40    32800.00
03241             -12.20    33600.00
03242             -10.00    32800.00
03243             -10.20    33600.00
03244             -10.80    33600.00
03245             -10.60    33600.00
03246             -10.80    32800.00
03247              -8.60    33600.00
03248             -10.60    32800.00
03249              -9.80    33600.00
03250              -8.40    32000.00
03251             -10.60    32800.00
03252              -9.40    32000.00
03253              -7.40    32800.00
03254              -8.40    32000.00
03255              -9.40    32000.00
03256              -7.00    32000.00
03257              -7.20    32000.00
03258             -10.00    32000.00
03259              -7.80    31200.00
03260              -6.60    31200.00
03261              -7.80    30400.00
03262              -6.60    31200.00
03263              -6.60    30400.00
03264              -7.00    30400.00
03265              -6.20    29600.00
03266              -6.80    29600.00
03267              -6.60    29600.00
03268              -6.20    28800.00
03269              -4.80    28800.00
03270              -5.40    28800.00
03271              -6.00    28000.00
03272              -5.40    28000.00
03273              -5.40    27200.00
03274              -4.40    27200.00
03275              -5.20    27200.00
03276              -5.80    25600.00
03277              -4.20    25600.00
03278              -4.60    25600.00
03279              -4.20    24800.00
03280              -4.00    24800.00
03281              -4.40    24000.00
03282              -3.80    24000.00
03283              -4.20    23200.00
03284              -4.20    22400.00
03285              -3.80    22400.00
03286              -3.60    22400.00
03287              -3.00    21600.00
03288              -3.40    20800.00
03289              -3.00    20800.00
03290              -3.60    20000.00
03291              -2.80    19200.00
03292              -2.60    18400.00
03293              -3.40    18400.00
03294              -2.80    17600.00
03295              -3.00    17600.00
03296              -2.80    17600.00
03297              -1.40    16000.00
03298              -2.80    16000.00
03299              -1.80    15200.00
03300              -1.40    15200.00
03301              -2.60    14400.00
03302              -2.00    13600.00
03303              -2.00    13600.00
03304              -2.20    12800.00
03305              -1.00    12000.00
03306              -1.80    12000.00
03307              -1.40    11200.00
03308              -1.20     9600.00
03309              -1.20     9600.00
03310              -2.00     8800.00
03311              -1.20     8000.00
03312              -1.20     8000.00
03313              -1.40     8000.00
03314              -1.00     6400.00
03315              -0.40     5600.00
03316              -1.00     5600.00
03317              -0.60     4800.00
03318              -0.60     4800.00
03319              -0.60     4000.00
03320              -0.60     3200.00
03321              -0.80     2400.00
03322              -1.20     1600.00
03323              -0.20     1600.00
03324              -0.40      800.00
03325               0.20        0.00
03326               0.60     -800.00
03327               3.20     -800.00
03328               0.60    -1600.00
03329              -1.40    -1600.00
03330               1.40    -2400.00
03331               1.40    -3200.00
03332              -0.20    -4000.00
03333               2.60    -4000.00
03334              14.00    -4800.00
03335              25.00    -6400.00
03336             -25.00    -7200.00
03337             -25.00    -8000.00
03338              23.80    -8000.00
03339               5.20    -8800.00
03340             -25.00    -8000.00
03341              25.00    -9600.00
03342              25.00   -10400.00
03343             -25.00   -10400.00
03344              25.00   -11200.00
03345              25.00   -11200.00
03346             -25.00   -12800.00
03347              25.00   -13600.00
03348             -12.60   -12800.00
03349               5.00   -13600.00
03350              15.40   -14400.00
03351             -25.00   -14400.00
03352              25.00   -15200.00
03353              -3.60   -16000.00
03354             -25.00   -16800.00
03355              25.00   -16800.00
03356               5.00   -17600.00
03357             -25.00   -17600.00
03358              20.20   -19200.00
03359              15.60   -19200.00
03360             -25.00   -20000.00
03361              25.00   -20000.00
03362               8.40   -20000.00
03363             -15.80   -21600.00
03364              19.60   -21600.00
03365              -3.00   -22400.00
03366              -4.60   -22400.00
03367              12.20   -23200.00
03368               2.00   -23200.00
03369              -2.20   -24000.00
03370              15.40   -24000.00
03371              -3.60   -24000.00
03372               1.20   -25600.00
03373              13.20   -25600.00
03374              -5.00   -25600.00
03375               7.40   -26400.00
03376               8.60   -26400.00
03377               0.60   -27200.00
03378               5.20   -27200.00
03379               7.80   -27200.00
03380               2.20   -28800.00
03381               5.80   -28000.00
03382               8.60   -28800.00
03383               2.20   -28800.00
03384               6.80   -29600.00
03385               7.40   -28800.00
03386               3.40   -29600.00
03387               8.40   -29600.00
03388               7.40   -29600.00
03389               4.20   -30400.00
03390               9.00   -30400.00
03391               6.60   -30400.00
03392               5.80   -31200.00
03393               8.40   -31200.00
03394               7.40   -32000.00
03395               8.20   -32000.00
03396               8.20   -32000.00
03397               8.00   -32000.00
03398               7.60   -32000.00
03399               8.40   -32000.00
03400               9.00   -32800.00
03401               8.40   -32000.00
03402               9.80   -32000.00
03403               9.00   -32800.00
03404               9.40   -32800.00
03405               9.80   -32000.00
03406               9.00   -32800.00
03407              10.00   -32800.00
03408               9.60   -32800.00
03409              10.00   -32800.00
03410              10.60   -32800.00
03411               9.20   -32000.00
03412              10.00   -32800.00
03413               9.80   -32800.00
03414               9.00   -32000.00
03415               9.20   -32800.00
03416               8.80   -32800.00
03417               8.80   -32000.00
03418               8.20   -32000.00
03419               8.20   -32000.00
03420               8.40   -32000.00
03421               7.80   -32000.00
03422               8.20   -31200.00
03423               7.60   -31200.00
03424               7.00   -31200.00
03425               6.80   -30400.00
03426               6.80   -31200.00
03427               7.00   -30400.00
03428               6.20   -30400.00
03429               6.20   -29600.00
03430               6.60   -29600.00
03431               5.80   -29600.00
03432               5.60   -29600.00
03433               5.80   -28800.00
03434               5.40   -28800.00
03435               5.20   -28000.00
03436               5.80   -27200.00
03437               5.00   -28000.00
03438               4.60   -27200.00
03439               4.80   -27200.00
03440               4.40   -26400.00
03441               4.20   -26400.00
03442               4.20   -25600.00
03443               3.60   -25600.00
03444               4.20   -24800.00
03445               3.80   -24000.00
03446               3.40   -24000.00
03447               3.60   -24000.00
03448               3.40   -23200.00
03449               3.00   -23200.00
03450               3.20   -22400.00
03451               2.80   -22400.00
03452               2.80   -22400.00
03453               3.00   -20800.00
03454               2.80   -20800.00
03455               2.60   -20800.00
03456               2.60   -20000.00
03457               2.00   -20000.00
03458               2.00   -19200.00
03459               2.20   -17600.00
03460               2.00   -17600.00
03461               1.80   -16800.00
03462               2.00   -16800.00
03463               1.60   -16000.00
03464               1.80   -16000.00
03465               1.80   -16000.00
03466               1.20   -14400.00
03467               1.40   -14400.00
03468               1.00   -13600.00
03469               1.00   -12800.00
03470               1.00   -12800.00
03471               0.60   -12000.00
03472               1.00   -11200.00
03473               1.00   -11200.00
03474               0.40    -9600.00
03475               0.40    -9600.00
03476               0.40    -8800.00
03477               0.40    -8000.00
03478               0.20    -8000.00
03479               0.40    -7200.00
03480               0.40    -6400.00
03481              -0.20    -6400.00
03482               0.20    -5600.00
03483               0.20    -4000.00
03484               0.20    -4000.00
03485              -0.20    -3200.00
03486               0.20    -3200.00
03487              -0.20    -1600.00
03488              -0.40    -1600.00
03489              -0.20     -800.00
03490              -0.40     -800.00
03491              -0.20        0.00
03492               0.20      800.00
03493               0.20     1600.00
03494               3.40     1600.00
03495              -0.60     2400.00
03496              -2.00     2400.00
03497               1.00     3200.00
03498               0.40     3200.00
03499              -1.60     4800.00
03500              10.00     4800.00
03501              25.00     7200.00
03502             -24.60     7200.00
03503             -25.00     8000.00
03504              20.60     8800.00
03505               5.20     8800.00
03506             -25.00     8800.00
03507              25.00    10400.00
03508               4.40     9600.00
03509             -25.00    11200.00
03510              25.00    11200.00
03511             -25.00    12000.00
03512              -8.60    12800.00
03513              25.00    12800.00
03514             -25.00    12800.00
03515              25.00    14400.00
03516             -25.00    14400.00
03517             -25.00    15200.00
03518              25.00    16000.00
03519             -25.00    16000.00
03520               4.20    17600.00
03521              25.00    17600.00
03522             -25.00    18400.00
03523             -19.40    18400.00
03524              25.00    19200.00
03525             -17.20    19200.00
03526             -24.40    20800.00
03527              25.00    20800.00
03528             -25.00    21600.00
03529               1.20    21600.00
03530               9.80    21600.00
03531             -24.00    22400.00
03532               5.80    23200.00
03533               0.20    24000.00
03534             -12.20    24000.00
03535               1.80    24800.00
03536               3.60    24000.00
03537             -20.60    25600.00
03538               7.40    25600.00
03539              -6.00    25600.00
03540             -13.40    25600.00
03541               5.80    27200.00
03542              -9.40    27200.00
03543              -6.60    27200.00
03544              -1.80    28000.00
03545              -5.80    28000.00
03546              -8.60    28000.00
03547              -1.40    28800.00
03548              -6.60    28800.00
03549              -9.20    29600.00
03550              -3.00    29600.00
03551              -8.20    30400.00
03552              -7.80    30400.00
03553              -2.60    30400.00
03554              -9.40    30400.00
03555              -6.60    31200.00
03556              -5.60    31200.00
03557             -10.00    31200.00
03558              -6.20    32000.00
03559              -8.20    32800.00
03560              -7.80    32000.00
03561              -7.00    32800.00
03562              -8.60    32000.00
03563              -8.20    32800.00
03564             -10.00    32800.00
03565              -9.00    32800.00
03566              -8.60    32800.00
03567              -9.80    32800.00
03568              -9.00    32800.00
03569             -10.80    33600.00
03570              -9.20    33600.00
03571              -9.40    32800.00
03572             -11.40    33600.00
03573              -8.60    32800.00
03574             -11.40    32800.00
03575             -10.00    33600.00
03576              -9.40    33600.00
03577             -12.00    33600.00
03578             -10.00    32800.00
03579             -10.00    33600.00
03580             -10.20    32800.00
03581              -9.80    33600.00
03582              -9.80    32800.00
03583              -9.80    33600.00
03584              -9.20    32000.00
03585              -8.60    32800.00
03586              -9.40    32800.00
03587              -8.80    32000.00
03588              -8.40    32800.00
03589              -9.00    32000.00
03590              -7.60    32000.00
03591              -8.20    31200.00
03592              -8.20    31200.00
03593              -6.60    31200.00
03594              -7.60    31200.00
03595              -7.60    30400.00
03596              -6.80    30400.00
03597              -7.00    30400.00
03598              -6.60    30400.00
03599              -6.20    29600.00
03600              -6.20    28800.00
03601              -6.60    28800.00
03602              -6.00    28800.00
03603              -5.80    28000.00
03604              -6.20    28000.00
03605              -5.20    28000.00
03606              -5.20    27200.00
03607              -5.20    27200.00
03608              -4.40    26400.00
03609              -5.20    26400.00
03610              -4.60    25600.00
03611              -4.40    25600.00
03612              -4.60    24800.00
03613              -4.20    24800.00
03614              -4.40    24000.00
03615              -4.40    24000.00
03616              -3.80    23200.00
03617              -3.40    23200.00
03618              -3.80    22400.00
03619              -3.80    22400.00
03620              -3.00    21600.00
03621              -3.60    21600.00
03622              -3.60    20800.00
03623              -3.00    20800.00
03624              -3.00    19200.00
03625              -2.20    19200.00
03626              -2.60    19200.00
03627              -2.80    18400.00
03628              -2.60    17600.00
03629              -2.80    17600.00
03630              -2.20    16800.00
03631              -2.20    16000.00
03632              -2.60    16000.00
03633              -2.00    14400.00
03634              -1.80    14400.00
03635              -1.80    14400.00
03636              -1.80    13600.00
03637              -2.00    12800.00
03638              -1.40    12000.00
03639              -1.40    11200.00
03640              -1.60    11200.00
03641              -1.80    10400.00
03642              -1.20     9600.00
03643              -1.80     9600.00
03644              -1.40     8800.00
03645              -0.80     8000.00
03646              -1.40     8000.00
03647              -1.20     7200.00
03648              -1.00     6400.00
03649              -1.20     5600.00
03650              -1.00     4800.00
03651              -1.00     4000.00
03652              -0.60     4000.00
03653              -0.40     3200.00
03654              -0.60     2400.00
03655              -1.00     1600.00
03656              -0.40     1600.00
03657              -0.60      800.00
03658              -0.40        0.00
03659               0.40     -800.00
03660               1.80     -800.00
03661               2.80    -1600.00
03662              -1.40    -1600.00
03663               0.60    -1600.00
03664               1.80    -3200.00
03665               0.60    -3200.00
03666               0.40    -4000.00
03667               8.20    -4800.00
03668              25.00    -6400.00
03669              -1.80    -7200.00
03670             -25.00    -8000.00
03671               5.80    -8000.00
03672              24.00    -8000.00
03673             -25.00    -8000.00
03674              -9.40    -8000.00
03675              25.00    -9600.00
03676             -25.00   -10400.00
03677             -21.80   -11200.00
03678              25.00   -11200.00
03679             -25.00   -12000.00
03680               6.20   -12800.00
03681              24.40   -12800.00
03682             -22.00   -13600.00
03683              25.00   -14400.00
03684             -25.00   -14400.00
03685              13.20   -15200.00
03686              25.00   -16000.00
03687             -25.00   -16000.00
03688              15.40   -16800.00
03689              25.00   -17600.00
03690             -25.00   -17600.00
03691              -3.00   -18400.00
03692              25.00   -19200.00
03693             -25.00   -19200.00
03694               3.00   -20000.00
03695              25.00   -20800.00
03696             -19.40   -20800.00
03697               9.40   -20800.00
03698               9.80   -22400.00
03699             -10.20   -22400.00
03700               8.20   -23200.00
03701               9.20   -23200.00
03702              -5.20   -24000.00
03703              11.00   -24000.00
03704               5.80   -24000.00
03705              -6.60   -24000.00
03706              14.00   -25600.00
03707               0.40   -25600.00
03708               0.40   -26400.00
03709              11.80   -26400.00
03710               1.80   -27200.00
03711               2.20   -27200.00
03712               8.20   -27200.00
03713               4.40   -27200.00
03714               3.40   -28000.00
03715               9.20   -28800.00
03716               4.60   -28800.00
03717               3.60   -28800.00
03718               8.20   -29600.00
03719               4.20   -28800.00
03720               5.80   -29600.00
03721               8.80   -29600.00
03722               5.00   -30400.00
03723               6.80   -30400.00
03724               8.20   -30400.00
03725               5.20   -31200.00
03726               7.00   -31200.00
03727               9.00   -31200.00
03728               7.40   -32000.00
03729               7.80   -32000.00
03730               8.40   -31200.00
03731               7.60   -32000.00
03732               8.20   -32000.00
03733               9.40   -32000.00
03734               8.40   -32000.00
03735               9.00   -32800.00
03736               9.80   -32000.00
03737               8.40   -32000.00
03738              10.00   -32800.00
03739               9.20   -32800.00
03740               9.20   -32800.00
03741              10.60   -32800.00
03742               9.00   -32000.00
03743              10.40   -32800.00
03744              10.20   -32000.00
03745               8.60   -32800.00
03746              10.20   -32800.00
03747              10.00   -32800.00
03748               8.60   -32800.00
03749               9.00   -32000.00
03750               9.20   -32000.00
03751               8.00   -32000.00
03752               8.40   -32800.00
03753               8.60   -32000.00
03754               7.40   -32000.00
03755               8.40   -32000.00
03756               7.80   -31200.00
03757               6.80   -30400.00
03758               8.00   -31200.00
03759               6.80   -30400.00
03760               6.80   -30400.00
03761               7.40   -30400.00
03762               5.80   -29600.00
03763               6.60   -29600.00
03764               6.20   -29600.00
03765               5.20   -28800.00
03766               6.00   -28800.00
03767               6.00   -28800.00
03768               4.20   -28000.00
03769               5.40   -28800.00
03770               5.20   -27200.00
03771               4.40   -27200.00
03772               4.60   -27200.00
03773               5.20   -26400.00
03774               4.40   -26400.00
03775               4.40   -26400.00
03776               3.80   -25600.00
03777               4.20   -25600.00
03778               3.80   -24800.00
03779               3.00   -24000.00
03780               3.80   -24000.00
03781               3.40   -23200.00
03782               2.60   -23200.00
03783               3.40   -23200.00
03784               2.80   -22400.00
03785               2.60   -22400.00
03786               3.40   -20800.00
03787               2.40   -20800.00
03788               2.60   -20800.00
03789               2.60   -19200.00
03790               2.00   -20000.00
03791               1.80   -18400.00
03792               2.40   -18400.00
03793               2.00   -18400.00
03794               1.80   -16800.00
03795               2.80   -16800.00
03796               1.20   -16000.00
03797               0.60   -16000.00
03798               2.00   -16000.00
03799               1.40   -14400.00
03800               1.00   -14400.00
03801               1.40   -13600.00
03802               1.20   -12800.00
03803               0.60   -12800.00
03804               0.60   -12000.00
03805               1.40   -12000.00
03806               1.00   -11200.00
03807               0.20   -10400.00
03808               1.20    -9600.00
03809               1.00    -8800.00
03810               0.00    -8800.00
03811               1.00    -8000.00
03812               1.00    -7200.00
03813              -0.20    -7200.00
03814               0.20    -6400.00
03815               0.40    -4800.00
03816               0.20    -4800.00
03817               0.20    -4000.00
03818              -0.20    -4000.00
03819               0.20    -2400.00
03820               0.00    -2400.00
03821              -0.20    -1600.00
03822               0.20    -1600.00
03823              -0.20     -800.00
03824              -0.40        0.00
03825               0.20        0.00
03826               0.20     1600.00
03827               2.00     1600.00
03828               2.20     2400.00
03829              -2.80     2400.00
03830              -0.40     3200.00
03831               1.00     3200.00
03832              -1.80     4000.00
03833               3.40     4800.00
03834              25.00     5600.00
03835               9.60     7200.00
03836             -25.00     8000.00
03837              -1.80     8000.00
03838              25.00     8000.00
03839             -25.00     8000.00
03840              13.80     9600.00
03841              25.00    11200.00
03842             -25.00    10400.00
03843              25.00    12000.00
03844              25.00    11200.00
03845             -25.00    12000.00
03846              25.00    12800.00
03847             -25.00    12800.00
03848              20.20    14400.00
03849              25.00    14400.00
03850             -25.00    14400.00
03851              25.00    16000.00
03852              -9.00    16000.00
03853             -25.00    16000.00
03854              25.00    16800.00
03855              -7.00    17600.00
03856             -25.00    18400.00
03857              16.40    18400.00
03858              13.40    19200.00
03859             -25.00    20000.00
03860              25.00    20800.00
03861               1.00    21600.00
03862             -24.20    21600.00
03863              22.80    21600.00
03864             -21.00    22400.00
03865              -6.00    22400.00
03866               6.00    23200.00
03867              -9.40    24000.00
03868              -6.80    24000.00
03869              10.80    24800.00
03870             -15.60    25600.00
03871              -5.40    25600.00
03872               6.60    25600.00
03873             -19.40    26400.00
03874               2.80    26400.00
03875              -2.80    27200.00
03876             -10.40    27200.00
03877              -1.40    27200.00
03878              -3.80    28000.00
03879              -9.40    28000.00
03880              -3.60    28800.00
03881              -2.80    28800.00
03882             -10.60    29600.00
03883              -3.80    29600.00
03884              -5.20    30400.00
03885             -10.60    30400.00
03886              -2.80    30400.00
03887              -6.60    30400.00
03888              -9.80    31200.00
03889              -3.40    31200.00
03890              -9.40    31200.00
03891              -8.20    32000.00
03892              -6.00    32000.00
03893             -10.00    32800.00
03894              -6.80    32800.00
03895              -7.20    32800.00
03896              -9.20    32800.00
03897              -8.60    32800.00
03898              -9.00    32800.00
03899              -9.00    32800.00
03900              -9.40    32800.00
03901              -8.60    32800.00
03902             -10.00    32800.00
03903             -10.00    32800.00
03904              -8.60    33600.00
03905             -11.00    32800.00
03906              -9.20    33600.00
03907             -10.80    33600.00
03908             -10.60    33600.00
03909              -9.00    32800.00
03910             -12.00    33600.00
03911             -10.00    32800.00
03912             -10.20    33600.00
03913             -10.80    33600.00
03914              -9.40    32800.00
03915             -10.40    32800.00
03916             -10.20    32800.00
03917              -9.40    32800.00
03918              -8.60    32000.00
03919              -8.80    32800.00
03920              -9.60    32800.00
03921              -8.40    32000.00
03922              -8.40    32800.00
03923              -8.40    32000.00
03924              -8.20    32800.00
03925              -8.40    31200.00
03926              -7.20    31200.00
03927              -7.40    31200.00
03928              -7.40    31200.00
03929              -7.00    30400.00
03930              -7.00    30400.00
03931              -6.40    30400.00
03932              -6.40    29600.00
03933              -6.80    30400.00
03934              -6.00    29600.00
03935              -6.20    28800.00
03936              -5.60    28800.00
03937              -6.00    28800.00
03938              -5.80    28000.00
03939              -5.20    27200.00
03940              -5.40    27200.00
03941              -4.40    27200.00
03942              -5.20    27200.00
03943              -5.20    26400.00
03944              -3.80    25600.00
03945              -4.60    25600.00
03946              -4.40    24800.00
03947              -4.20    24800.00
03948              -4.40    24000.00
03949              -3.60    24000.00
03950              -4.00    24000.00
03951              -3.80    23200.00
03952              -3.20    22400.00
03953              -3.60    22400.00
03954              -3.40    21600.00
03955              -3.00    20800.00
03956              -3.60    20800.00
03957              -3.40    20000.00
03958              -2.20    19200.00
03959              -2.80    19200.00
03960              -2.80    17600.00
03961              -2.00    17600.00
03962              -2.80    17600.00
03963              -2.20    17600.00
03964              -1.80    16000.00
03965              -2.80    16000.00
03966              -2.00    15200.00
03967              -2.80    15200.00
03968              -3.20    13600.00
03969              -0.40    13600.00
03970              -1.80    12800.00
03971              -2.80    12800.00
03972              -0.20    12800.00
03973              -2.20    12000.00
03974              -2.80    11200.00
03975              -0.40    10400.00
03976              -0.60     9600.00
03977              -2.60     8800.00
03978              -0.60     8000.00
03979              -1.20     8000.00
03980              -2.00     6400.00
03981              -0.80     7200.00
03982              -1.00     6400.00
03983              -1.80     4800.00
03984               0.40     4800.00
03985              -1.20     4000.00
03986              -1.80     3200.00
03987              -0.20     3200.00
03988              -1.00     2400.00
03989              -1.20     1600.00
03990               1.00      800.00
03991              -0.40        0.00
03992              -1.00        0.00
03993               1.20     -800.00
03994               3.60     -800.00
03995              -1.20    -1600.00
03996              -0.40    -1600.00
03997               1.80    -3200.00
03998               0.60    -3200.00
03999              -0.40    -4000.00
04000               4.60    -4000.00
04001              18.00    -5600.00
04002              21.80    -6400.00
04003             -25.00    -7200.00
04004             -19.60    -8000.00
04005              25.00    -8000.00
04006             -10.60    -8800.00
04007             -25.00    -8000.00
04008              25.00    -9600.00
04009              24.20   -10400.00
04010             -25.00   -10400.00
04011              25.00   -11200.00
04012               2.60   -11200.00
04013             -25.00   -12800.00
04014              25.00   -12800.00
04015             -25.00   -12800.00
04016              19.60   -14400.00
04017              -2.80   -14400.00
04018             -20.60   -14400.00
04019              25.00   -16000.00
04020             -22.00   -16000.00
04021             -11.60   -16800.00
04022              25.00   -17600.00
04023              -9.00   -17600.00
04024             -22.00   -17600.00
04025              25.00   -19200.00
04026              -0.60   -18400.00
04027             -23.00   -20000.00
04028              25.00   -20800.00
04029              -5.20   -20800.00
04030              -8.20   -20800.00
04031              19.40   -22400.00
04032              -7.40   -22400.00
04033              -0.40   -22400.00
04034              13.20   -23200.00
04035              -1.00   -23200.00
04036               1.40   -24000.00
04037              14.20   -24000.00
04038              -6.80   -24800.00
04039               6.80   -24800.00
04040               9.20   -25600.00
04041              -4.40   -25600.00
04042              10.00   -26400.00
04043               5.40   -26400.00
04044               1.00   -27200.00
04045               6.00   -27200.00
04046               6.20   -28000.00
04047               3.00   -28000.00
04048               6.80   -28000.00
04049               6.00   -28800.00
04050               3.00   -29600.00
04051               8.20   -29600.00
04052               4.20   -29600.00
04053               4.60   -29600.00
04054              10.60   -29600.00
04055               4.20   -30400.00
04056               5.00   -30400.00
04057              10.20   -30400.00
04058               4.40   -31200.00
04059               6.20   -31200.00
04060               9.60   -30400.00
04061               7.40   -32000.00
04062               7.40   -32000.00
04063               7.60   -32000.00
04064               8.40   -32000.00
04065               7.40   -32800.00
04066               7.80   -32000.00
04067              10.60   -32800.00
04068               9.80   -32000.00
04069               8.20   -32800.00
04070               9.60   -32800.00
04071              10.00   -32000.00
04072               7.60   -32000.00
04073               9.60   -32800.00
04074              11.40   -32800.00
04075               9.00   -32800.00
04076              10.40   -32800.00
04077              10.40   -32800.00
04078               8.60   -32000.00
04079              10.40   -32800.00
04080               9.80   -32000.00
04081               9.00   -32800.00
04082               9.40   -32800.00
04083               8.60   -32000.00
04084               9.20   -32000.00
04085               9.40   -32000.00
04086               8.40   -32000.00
04087               8.20   -32000.00
04088               8.20   -32000.00
04089               6.80   -31200.00
04090               6.60   -32000.00
04091               7.60   -30400.00
04092               7.40   -30400.00
04093               7.40   -30400.00
04094               8.20   -29600.00
04095               6.40   -30400.00
04096               6.00   -29600.00
04097               6.60   -29600.00
04098               5.80   -28800.00
04099               5.80   -29600.00
04100               7.40   -28800.00
04101               2.60   -28800.00
04102               5.80   -28800.00
04103               8.60   -28800.00
04104              -3.00   -27200.00
04105              10.60   -27200.00
04106               3.20   -26400.00
04107               9.40   -26400.00
04108               2.20   -25600.00
04109               1.40   -25600.00
04110               8.60   -25600.00
04111              -4.20   -24800.00
04112               5.40   -25600.00
04113               3.60   -24000.00
04114               3.40   -23200.00
04115               7.40   -24000.00
04116               0.00   -23200.00
04117               5.40   -22400.00
04118               1.00   -22400.00
04119               4.20   -22400.00
04120               3.60   -21600.00
04121              -2.00   -20800.00
04122               3.60   -20000.00
04123               2.60   -19200.00
04124               0.20   -19200.00
04125               2.60   -18400.00
04126               4.60   -17600.00
04127               2.80   -17600.00
04128               1.00   -16800.00
04129               1.40   -16800.00
04130              -1.00   -16000.00
04131               2.20   -16000.00
04132               0.40   -15200.00
04133              -0.20   -14400.00
04134               5.40   -13600.00
04135               1.40   -13600.00
04136              -0.20   -12800.00
04137               2.80   -12800.00
04138               0.40   -12000.00
04139              -1.40   -11200.00
04140               0.20   -10400.00
04141               1.00    -9600.00
04142               0.20    -9600.00
04143               1.00    -8000.00
04144               1.80    -8000.00
04145               1.80    -7200.00
04146              -0.20    -7200.00
04147               0.20    -7200.00
04148               0.40    -4800.00
04149              -0.60    -4800.00
04150              -1.00    -4800.00
04151               0.40    -4000.00
04152               0.20    -3200.00
04153               0.40    -3200.00
04154               1.80    -1600.00
04155              -0.60    -1600.00
04156              -1.80     -800.00
04157               0.20     -800.00
04158              -0.20        0.00
04159              -0.60     1600.00
04160               1.00     1600.00
04161               3.20     1600.00
04162              -2.00     2400.00
04163              -0.40     3200.00
04164               1.20     3200.00
04165              -0.20     4000.00
04166              -0.60     4800.00
04167              13.40     5600.00
04168              25.00     7200.00
04169             -25.00     8000.00
04170             -25.00     8000.00
04171              25.00     8000.00
04172             -11.40     8000.00
04173             -25.00     8800.00
04174              25.00    10400.00
04175             -25.00     9600.00
04176             -22.80    11200.00
04177              25.00    11200.00
04178             -25.00    11200.00
04179              25.00    12800.00
04180              11.80    12800.00
04181             -25.00    13600.00
04182              25.00    14400.00
04183             -25.00    15200.00
04184              12.20    15200.00
04185              25.00    16000.00
04186             -25.00    16000.00
04187              25.00    16800.00
04188              22.00    17600.00
04189             -25.00    17600.00
04190              -6.80    19200.00
04191              25.00    18400.00
04192             -25.00    19200.00
04193              -4.20    20800.00
04194              25.00    20800.00
04195             -25.00    21600.00
04196              14.00    21600.00
04197              -4.20    22400.00
04198             -19.40    22400.00
04199               8.20    23200.00
04200              -3.60    24000.00
04201             -10.80    24000.00
04202               7.40    24800.00
04203              -3.80    24800.00
04204             -17.40    25600.00
04205              10.60    25600.00
04206             -13.40    25600.00
04207              -6.80    26400.00
04208               4.40    27200.00
04209             -11.00    27200.00
04210              -4.40    27200.00
04211              -2.60    28000.00
04212              -7.60    28000.00
04213              -6.80    28000.00
04214              -1.00    28800.00
04215              -8.60    28800.00
04216              -7.40    29600.00
04217              -3.40    29600.00
04218              -9.40    30400.00
04219              -6.00    30400.00
04220              -2.80    30400.00
04221             -10.40    31200.00
04222              -5.00    31200.00
04223              -6.20    31200.00
04224             -10.20    32000.00
04225              -5.20    31200.00
04226              -8.80    31200.00
04227              -8.20    32800.00
04228              -6.60    32800.00
04229              -9.20    32000.00
04230              -9.20    32800.00
04231              -8.60    33600.00
04232              -8.60    32800.00
04233              -9.20    32800.00
04234              -9.00    32800.00
04235              -9.80    33600.00
04236             -10.80    32800.00
04237              -8.60    32800.00
04238             -10.80    33600.00
04239             -10.20    33600.00
04240              -9.20    33600.00
04241             -11.80    33600.00
04242              -9.20    32800.00
04243             -11.00    33600.00
04244             -11.80    32800.00
04245              -9.60    32800.00
04246             -10.80    33600.00
04247             -10.00    33600.00
04248             -10.20    32800.00
04249             -10.20    32800.00
04250              -9.80    32800.00
04251              -9.20    33600.00
04252              -8.60    32800.00
04253              -9.80    32800.00
04254              -8.60    32000.00
04255              -8.20    32800.00
04256              -9.00    32000.00
04257              -7.80    31200.00
04258              -8.00    31200.00
04259              -7.60    31200.00
04260              -7.40    31200.00
04261              -8.00    31200.00
04262              -7.00    30400.00
04263              -7.00    30400.00
04264              -6.80    30400.00
04265              -6.40    30400.00
04266              -6.00    30400.00
04267              -6.40    28800.00
04268              -6.20    28800.00
04269              -5.20    28800.00
04270              -5.40    28800.00
04271              -6.20    28000.00
04272              -5.20    28000.00
04273              -5.40    27200.00
04274              -5.40    28000.00
04275              -4.60    25600.00
04276              -5.20    26400.00
04277              -4.60    25600.00
04278              -4.20    25600.00
04279              -4.20    24800.00
04280              -4.40    24800.00
04281              -4.40    24000.00
04282              -3.80    24000.00
04283              -3.80    24000.00
04284              -3.40    23200.00
04285              -3.80    22400.00
04286              -3.60    21600.00
04287              -3.00    22400.00
04288              -3.80    21600.00
04289              -3.40    20800.00
04290              -3.40    20800.00
04291              -3.40    19200.00
04292              -2.20    19200.00
04293              -2.80    18400.00
04294              -2.80    18400.00
04295              -2.60    17600.00
04296              -2.60    17600.00
04297              -2.00    16800.00
04298              -2.60    16000.00
04299              -2.60    16000.00
04300              -2.60    14400.00
04301              -2.20    14400.00
04302              -2.00    14400.00
04303              -2.20    12800.00
04304              -2.00    12000.00
04305              -1.20    12000.00
04306              -2.00    12000.00
04307              -1.60    11200.00
04308              -1.80    10400.00
04309              -1.20     9600.00
04310              -1.80     8800.00
04311              -1.40     8000.00
04312              -1.20     8000.00
04313              -1.20     8000.00
04314              -1.40     7200.00
04315              -0.60     6400.00
04316              -1.20     5600.00
04317              -1.00     4800.00
04318              -1.20     4800.00
04319              -0.60     3200.00
04320              -0.40     3200.00
04321              -1.20     2400.00
04322              -1.20     1600.00
04323              -0.40     1600.00
04324              -0.60      800.00
04325               0.20        0.00
04326               1.00        0.00
04327               2.80    -1600.00
04328               1.80    -1600.00
04329              -1.80    -2400.00
04330               0.80    -3200.00
04331               1.20    -3200.00
04332               0.40    -3200.00
04333               1.80    -4000.00
04334              11.40    -4800.00
04335              25.00    -6400.00
04336             -18.80    -7200.00
04337             -25.00    -8000.00
04338              17.80    -8000.00
04339              14.80    -8800.00
04340             -25.00    -9600.00
04341              14.80    -8000.00
04342              25.00   -10400.00
04343             -25.00    -9600.00
04344              18.80   -11200.00
04345              25.00   -11200.00
04346             -25.00   -12000.00
04347              25.00   -13600.00
04348               2.20   -13600.00
04349              -6.80   -14400.00
04350              25.00   -14400.00
04351             -25.00   -14400.00
04352              25.00   -16000.00
04353              11.60   -16000.00
04354             -25.00   -16800.00
04355              25.00   -16800.00
04356              14.80   -17600.00
04357             -25.00   -17600.00
04358              11.00   -18400.00
04359              25.00   -19200.00
04360             -25.00   -19200.00
04361              18.60   -20000.00
04362              18.20   -20800.00
04363             -19.00   -20800.00
04364              17.00   -22400.00
04365               1.80   -22400.00
04366              -7.60   -22400.00
04367              10.80   -22400.00
04368               5.00   -23200.00
04369              -4.20   -24000.00
04370              14.00   -24000.00
04371              -0.40   -24800.00
04372              -2.40   -25600.00
04373              14.60   -25600.00
04374              -3.60   -25600.00
04375               4.60   -26400.00
04376              10.00   -26400.00
04377               0.60   -26400.00
04378               4.00   -27200.00
04379               8.20   -27200.00
04380               2.60   -27200.00
04381               4.40   -28800.00
04382               8.60   -28800.00
04383               2.60   -28800.00
04384               5.40   -29600.00
04385               8.00   -29600.00
04386               3.40   -29600.00
04387               7.40   -29600.00
04388               8.40   -30400.00
04389               4.20   -30400.00
04390               8.40   -30400.00
04391               7.00   -30400.00
04392               5.80   -31200.00
04393               8.40   -30400.00
04394               7.40   -31200.00
04395               8.00   -32000.00
04396               8.80   -32000.00
04397               7.60   -32000.00
04398               7.60   -32000.00
04399               8.60   -31200.00
04400               8.60   -32800.00
04401               8.40   -32000.00
04402              10.00   -32800.00
04403               9.40   -32800.00
04404               9.00   -32800.00
04405              10.20   -32000.00
04406               8.80   -32800.00
04407              10.00   -32800.00
04408              10.20   -32800.00
04409               9.40   -32800.00
04410              11.00   -32800.00
04411               9.00   -32000.00
04412               9.40   -32800.00
04413              10.80   -32000.00
04414               8.60   -32800.00
04415               9.00   -32800.00
04416               9.20   -32000.00
04417               9.00   -32000.00
04418               8.60   -32000.00
04419               9.00   -32000.00
04420               7.60   -32000.00
04421               7.80   -32000.00
04422               8.20   -31200.00
04423               6.80   -31200.00
04424               8.20   -30400.00
04425               8.00   -32000.00
04426               6.00   -30400.00
04427               7.60   -30400.00
04428               6.80   -30400.00
04429               5.20   -30400.00
04430               7.00   -29600.00
04431               5.80   -29600.00
04432               5.40   -29600.00
04433               6.20   -29600.00
04434               4.60   -28800.00
04435               5.80   -28000.00
04436               5.80   -28800.00
04437               3.40   -27200.00
04438               5.20   -27200.00
04439               4.40   -27200.00
04440               3.80   -27200.00
04441               5.20   -26400.00
04442               3.80   -25600.00
04443               3.00   -25600.00
04444               4.00   -25600.00
04445               3.80   -24800.00
04446               3.60   -24000.00
04447               3.40   -24000.00
04448               3.40   -23200.00
04449               2.60   -23200.00
04450               3.00   -22400.00
04451               2.80   -22400.00
04452               2.20   -22400.00
04453               3.00   -21600.00
04454               2.80   -20800.00
04455               2.60   -20000.00
04456               2.60   -20000.00
04457               2.00   -18400.00
04458               1.60   -18400.00
04459               2.00   -18400.00
04460               2.20   -17600.00
04461               1.80   -17600.00
04462               2.00   -17600.00
04463               1.80   -16000.00
04464               1.40   -16000.00
04465               1.80   -16000.00
04466               1.20   -14400.00
04467               1.40   -14400.00
04468               1.20   -13600.00
04469               1.20   -12800.00
04470               1.00   -12800.00
04471               1.00   -11200.00
04472               1.00   -11200.00
04473               0.60   -10400.00
04474               0.40   -10400.00
04475               1.00    -9600.00
04476               0.40    -9600.00
04477               0.40    -8000.00
04478               0.60    -7200.00
04479               0.20    -8000.00
04480               0.40    -6400.00
04481               0.60    -6400.00
04482               0.20    -5600.00
04483               0.60    -4800.00
04484               0.20    -4000.00
04485              -0.40    -4000.00
04486               0.40    -3200.00
04487              -0.20    -1600.00
04488              -0.60    -1600.00
04489               0.20     -800.00
04490              -0.40     -800.00
04491              -0.60        0.00
04492               0.20        0.00
04493               0.20     1600.00
04494               2.80     1600.00
04495               0.60     1600.00
04496              -2.20     2400.00
04497               0.40     3200.00
04498               1.00     3200.00
04499              -2.00     4000.00
04500               6.80     4800.00
04501              25.00     7200.00
04502             -11.00     7200.00
04503             -25.00     8000.00
04504              13.20     8800.00
04505              14.60     8000.00
04506             -25.00     8000.00
04507              25.00     9600.00
04508              25.00     9600.00
04509             -25.00    10400.00
04510              25.00    11200.00
04511             -18.80    12000.00
04512             -25.00    12800.00
04513              25.00    12800.00
04514             -25.00    12800.00
04515              25.00    14400.00
04516               0.20    14400.00
04517             -25.00    15200.00
04518              25.00    16000.00
04519             -25.00    16000.00
04520             -15.80    16000.00
04521              25.00    17600.00
04522             -22.20    18400.00
04523             -25.00    18400.00
04524              25.00    19200.00
04525              -3.60    19200.00
04526             -25.00    20000.00
04527              25.00    20800.00
04528             -18.20    20800.00
04529              -9.80    21600.00
04530              17.20    22400.00
04531             -24.60    23200.00
04532               2.00    22400.00
04533               2.60    23200.00
04534             -11.80    24000.00
04535              -1.60    24000.00
04536               7.60    24000.00
04537             -19.60    25600.00
04538               3.40    25600.00
04539              -0.60    25600.00
04540             -16.60    27200.00
04541               5.60    27200.00
04542              -7.00    27200.00
04543              -8.20    27200.00
04544              -1.80    28000.00
04545              -5.00    28000.00
04546              -9.00    28000.00
04547              -2.40    28800.00
04548              -4.60    28800.00
04549              -9.40    28800.00
04550              -3.60    28800.00
04551              -7.00    30400.00
04552              -9.00    30400.00
04553              -2.20    30400.00
04554              -8.20    31200.00
04555              -7.80    31200.00
04556              -3.80    31200.00
04557             -10.20    31200.00
04558              -6.80    31200.00
04559              -7.00    31200.00
04560              -9.60    32800.00
04561              -6.40    32000.00
04562              -8.00    32000.00
04563              -9.00    32800.00
04564              -9.20    32800.00
04565              -9.20    32800.00
04566              -9.00    32800.00
04567              -9.60    32800.00
04568              -9.00    32800.00
04569             -10.80    32800.00
04570              -9.40    33600.00
04571              -9.80    32800.00
04572             -11.40    32800.00
04573              -9.00    33600.00
04574             -11.60    33600.00
04575             -10.20    33600.00
04576              -9.20    33600.00
04577             -11.80    33600.00
04578             -10.00    33600.00
04579             -10.40    33600.00
04580             -10.20    33600.00
04581              -9.80    33600.00
04582             -10.60    32800.00
04583              -9.60    32800.00
04584              -9.80    32000.00
04585              -9.00    32800.00
04586              -9.40    32800.00
04587              -9.20    32000.00
04588              -7.80    32000.00
04589              -8.60    32000.00
04590              -8.00    32000.00
04591              -7.80    31200.00
04592              -8.40    31200.00
04593              -6.80    31200.00
04594              -7.40    31200.00
04595              -7.40    30400.00
04596              -7.00    30400.00
04597              -7.60    30400.00
04598              -6.60    30400.00
04599              -5.80    29600.00
04600              -6.80    29600.00
04601              -6.20    28800.00
04602              -5.60    28800.00
04603              -5.40    28800.00
04604              -5.80    28000.00
04605              -5.40    28000.00
04606              -4.80    27200.00
04607              -5.00    27200.00
04608              -4.80    27200.00
04609              -5.00    26400.00
04610              -4.40    25600.00
04611              -4.40    25600.00
04612              -4.40    25600.00
04613              -3.80    24800.00
04614              -4.60    24800.00
04615              -4.40    24000.00
04616              -3.60    24000.00
04617              -3.40    23200.00
04618              -3.60    22400.00
04619              -3.60    21600.00
04620              -3.40    22400.00
04621              -3.40    21600.00
04622              -3.80    20800.00
04623              -3.60    20000.00
04624              -3.00    20000.00
04625              -2.40    19200.00
04626              -2.80    18400.00
04627              -2.80    18400.00
04628              -2.60    17600.00
04629              -3.00    17600.00
04630              -2.20    17600.00
04631              -2.20    16000.00
04632              -2.60    16000.00
04633              -2.40    15200.00
04634              -2.80    14400.00
04635              -2.00    14400.00
04636              -0.60    12800.00
04637              -3.00    12800.00
04638              -2.40    12000.00
04639              -0.20    11200.00
04640              -2.80    11200.00
04641              -2.80    10400.00
04642               0.20     9600.00
04643              -1.80     9600.00
04644              -2.80     8800.00
04645              -1.40     8800.00
04646              -0.40     8000.00
04647              -1.20     7200.00
04648              -3.40     6400.00
04649               0.40     5600.00
04650               0.20     5600.00
04651              -3.20     4800.00
04652               0.60     4000.00
04653               0.20     3200.00
04654              -3.60     2400.00
04655               0.40     2400.00
04656               1.20     1600.00
04657              -2.40     1600.00
04658               1.20      800.00
04659               1.20        0.00
04660              -0.60     -800.00
04661               4.40     -800.00
04662              -1.00    -1600.00
04663              -1.00    -2400.00
04664               2.60    -3200.00
04665               1.00    -3200.00
04666              -1.20    -4000.00
04667               6.80    -4800.00
04668              23.80    -5600.00
04669               9.40    -7200.00
04670             -25.00    -7200.00
04671              -5.00    -8000.00
04672              25.00    -8000.00
04673             -25.00    -8800.00
04674             -23.80    -8000.00
04675              25.00    -9600.00
04676             -14.00   -11200.00
04677             -25.00   -11200.00
04678              25.00   -11200.00
04679             -25.00   -12000.00
04680             -15.80   -12800.00
04681              25.00   -12800.00
04682             -25.00   -13600.00
04683              25.00   -14400.00
04684             -22.60   -14400.00
04685              -0.60   -14400.00
04686              25.00   -16000.00
04687             -25.00   -16000.00
04688               4.00   -16800.00
04689              25.00   -16800.00
04690             -19.60   -17600.00
04691             -12.20   -17600.00
04692              25.00   -19200.00
04693             -16.40   -19200.00
04694              -8.40   -20000.00
04695              25.00   -20800.00
04696             -15.00   -20800.00
04697               3.00   -21600.00
04698              13.80   -22400.00
04699             -10.20   -22400.00
04700               5.80   -23200.00
04701              11.20   -23200.00
04702              -4.60   -24000.00
04703               7.60   -24000.00
04704               9.40   -24800.00
04705              -8.20   -24000.00
04706              11.80   -25600.00
04707               4.40   -25600.00
04708              -2.60   -25600.00
04709              11.60   -26400.00
04710               3.60   -26400.00
04711               1.40   -27200.00
04712               7.60   -28000.00
04713               5.80   -28000.00
04714               2.60   -28800.00
04715               8.20   -28800.00
04716               5.20   -28800.00
04717               3.00   -28800.00
04718               8.40   -29600.00
04719               4.60   -28800.00
04720               5.20   -29600.00
04721               9.80   -29600.00
04722               4.60   -29600.00
04723               6.40   -31200.00
04724               9.00   -30400.00
04725               5.00   -30400.00
04726               7.40   -31200.00
04727               8.60   -31200.00
04728               7.40   -31200.00
04729               8.40   -32000.00
04730               8.20   -32000.00
04731               8.00   -32800.00
04732               8.20   -32000.00
04733               8.80   -32800.00
04734               9.00   -32000.00
04735               9.20   -32000.00
04736               9.60   -32800.00
04737               9.00   -32800.00
04738              10.00   -32800.00
04739               9.00   -32800.00
04740               9.60   -32800.00
04741              10.80   -32800.00
04742               9.20   -32000.00
04743              10.60   -32800.00
04744              10.60   -32800.00
04745               9.00   -32800.00
04746              10.00   -32000.00
04747               9.80   -32800.00
04748               9.20   -32800.00
04749               9.20   -32800.00
04750               9.00   -32000.00
04751               8.40   -32000.00
04752               8.40   -32000.00
04753               8.60   -32000.00
04754               7.80   -32000.00
04755               7.80   -32000.00
04756               7.80   -31200.00
04757               7.00   -31200.00
04758               7.40   -30400.00
04759               6.80   -30400.00
04760               7.00   -31200.00
04761               7.40   -30400.00
04762               5.80   -30400.00
04763               6.20   -29600.00
04764               6.00   -29600.00
04765               5.40   -28800.00
04766               5.80   -28800.00
04767               5.80   -28800.00
04768               4.60   -28800.00
04769               5.00   -28000.00
04770               5.20   -28000.00
04771               4.60   -28000.00
04772               4.40   -27200.00
04773               5.00   -27200.00
04774               4.20   -26400.00
04775               4.40   -26400.00
04776               3.80   -26400.00
04777               3.80   -25600.00
04778               4.20   -25600.00
04779               3.60   -24000.00
04780               3.40   -24000.00
04781               3.60   -24000.00
04782               2.60   -23200.00
04783               2.80   -23200.00
04784               3.20   -22400.00
04785               2.60   -22400.00
04786               2.80   -22400.00
04787               2.80   -20800.00
04788               2.80   -20800.00
04789               2.60   -20000.00
04790               2.00   -20000.00
04791               2.40   -18400.00
04792               2.20   -18400.00
04793               2.00   -17600.00
04794               1.80   -17600.00
04795               1.80   -16800.00
04796               1.80   -16000.00
04797               1.80   -16000.00
04798               1.80   -15200.00
04799               1.40   -14400.00
04800               1.20   -14400.00
04801               1.40   -13600.00
04802               1.00   -13600.00
04803               1.40   -12800.00
04804               1.00   -12800.00
04805               1.00   -12000.00
04806               1.60   -11200.00
04807               1.00   -10400.00
04808               0.40    -9600.00
04809               0.60    -9600.00
04810               0.60    -8800.00
04811               0.40    -8000.00
04812               0.20    -8000.00
04813               0.20    -7200.00
04814               0.40    -6400.00
04815               0.20    -5600.00
04816               0.40    -4800.00
04817              -0.20    -4000.00
04818               0.20    -4000.00
04819               0.20    -3200.00
04820              -0.20    -3200.00
04821              -0.40    -1600.00
04822              -0.40    -1600.00
04823              -0.40     -800.00
04824              -0.60     -800.00
04825               0.20        0.00
04826               0.00     1600.00
04827               0.80     1600.00
04828               2.60     2400.00
04829              -2.60     2400.00
04830              -0.60     3200.00
04831               1.20     3200.00
04832              -1.20     4800.00
04833               1.80     4800.00
04834              21.20     5600.00
04835              20.80     7200.00
04836             -25.00     8000.00
04837             -13.40     7200.00
04838              25.00     8000.00
04839             -25.00     8000.00
04840              -6.20     9600.00
04841              25.00     9600.00
04842             -25.00     9600.00
04843              24.20    12000.00
04844              25.00    11200.00
04845             -25.00    12000.00
04846              25.00    12800.00
04847             -25.00    12800.00
04848              -8.60    13600.00
04849              25.00    14400.00
04850             -25.00    15200.00
04851              25.00    15200.00
04852              18.00    16000.00
04853             -25.00    16000.00
04854              25.00    16800.00
04855               5.20    17600.00
04856             -25.00    18400.00
04857               7.40    18400.00
04858              23.40    19200.00
04859             -25.00    20000.00
04860              15.40    20800.00
04861              15.40    20800.00
04862             -25.00    21600.00
04863              22.60    22400.00
04864             -15.00    22400.00
04865             -11.80    22400.00
04866               7.00    23200.00
04867              -7.00    24000.00
04868              -8.60    24000.00
04869              10.20    24000.00
04870             -10.80    24800.00
04871             -10.60    25600.00
04872               9.20    25600.00
04873             -18.00    26400.00
04874              -0.40    26400.00
04875               1.00    27200.00
04876             -10.80    27200.00
04877              -3.00    27200.00
04878              -3.00    28000.00
04879              -8.60    28800.00
04880              -5.40    28800.00
04881              -1.20    28800.00
04882              -9.20    29600.00
04883              -5.80    28800.00
04884              -3.80    30400.00
04885              -9.80    29600.00
04886              -4.40    30400.00
04887              -4.60    30400.00
04888             -10.20    31200.00
04889              -4.00    31200.00
04890              -8.20    31200.00
04891              -9.40    32000.00
04892              -5.80    31200.00
04893              -9.60    32000.00
04894              -7.60    32800.00
04895              -7.00    32000.00
04896              -9.00    32800.00
04897              -9.00    32800.00
04898              -9.40    32800.00
04899              -8.60    32800.00
04900              -9.40    32800.00
04901              -9.00    33600.00
04902             -10.00    32800.00
04903             -10.20    33600.00
04904              -8.60    32800.00
04905             -11.60    33600.00
04906              -9.80    33600.00
04907             -10.20    33600.00
04908             -11.40    33600.00
04909              -8.60    33600.00
04910             -11.40    33600.00
04911             -11.00    33600.00
04912              -9.80    32800.00
04913             -10.40    32800.00
04914              -9.60    33600.00
04915             -10.20    32800.00
04916              -9.40    33600.00
04917              -9.40    32800.00
04918              -9.40    32800.00
04919              -8.40    32800.00
04920              -9.40    32800.00
04921              -8.40    32000.00
04922              -7.80    32800.00
04923              -8.60    32000.00
04924              -8.20    32000.00
04925              -8.20    31200.00
04926              -7.40    31200.00
04927              -6.80    31200.00
04928              -7.60    31200.00
04929              -7.00    31200.00
04930              -6.60    30400.00
04931              -6.60    30400.00
04932              -6.20    30400.00
04933              -6.20    28800.00
04934              -6.40    28800.00
04935              -6.00    28800.00
04936              -5.00    28800.00
04937              -6.00    28800.00
04938              -5.40    28000.00
04939              -4.60    28000.00
04940              -5.40    27200.00
04941              -4.80    27200.00
04942              -4.60    26400.00
04943              -5.40    26400.00
04944              -4.40    26400.00
04945              -4.20    25600.00
04946              -4.40    24800.00
04947              -4.20    24800.00
04948              -4.40    24800.00
04949              -3.80    24000.00
04950              -3.80    24000.00
04951              -3.60    23200.00
04952              -3.80    22400.00
04953              -3.60    21600.00
04954              -3.40    21600.00
04955              -3.60    21600.00
04956              -3.40    20800.00
04957              -3.60    20000.00
04958              -3.00    19200.00
04959              -2.60    19200.00
04960              -2.80    18400.00
04961              -2.80    17600.00
04962              -2.60    17600.00
04963              -2.60    16800.00
04964              -2.20    16000.00
04965              -2.60    16000.00
04966              -2.20    15200.00
04967              -2.60    14400.00
04968              -2.40    13600.00
04969              -2.00    14400.00
04970              -2.20    13600.00
04971              -2.20    12800.00
04972              -1.40    12000.00
04973              -2.00    11200.00
04974              -1.80    11200.00
04975              -1.40    11200.00
04976              -1.00     9600.00
04977              -1.80     9600.00
04978              -1.40     8800.00
04979              -1.20     8000.00
04980              -1.40     7200.00
04981              -1.00     6400.00
04982              -1.00     5600.00
04983              -1.40     5600.00
04984              -0.60     4800.00
04985              -1.20     4800.00
04986              -0.40     3200.00
04987              -0.40     3200.00
04988              -1.00     1600.00
04989              -0.60     1600.00
04990              -0.20     1600.00
04991              -0.60        0.00
04992               0.40        0.00
04993               0.60     -800.00
04994               3.20     -800.00
04995               0.60     -800.00
04996              -1.20    -1600.00
04997               1.20    -2400.00
04998               1.80    -3200.00
04999              -0.40    -3200.00
05000               3.00    -4000.00
