Unit:(mV)
                     CH1         CH2
Frequency              ? 300.030 kHz
00001              19.00    -5600.00
00002              21.80    -7200.00
00003             -25.00    -8000.00
00004             -18.20    -8000.00
00005              25.00    -8000.00
00006              -8.40    -8800.00
00007             -25.00    -9600.00
00008              25.00    -9600.00
00009              25.00   -11200.00
00010             -25.00   -10400.00
00011              25.00   -11200.00
00012              23.60   -12000.00
00013             -25.00   -12800.00
00014              25.00   -13600.00
00015             -14.20   -13600.00
00016              18.60   -14400.00
00017              -4.60   -14400.00
00018             -21.40   -16000.00
00019              25.00   -16000.00
00020             -22.00   -16000.00
00021             -16.20   -16800.00
00022              25.00   -17600.00
00023              -5.80   -17600.00
00024             -25.00   -18400.00
00025              25.00   -19200.00
00026               7.40   -20000.00
00027             -25.00   -20000.00
00028              25.00   -20000.00
00029               1.00   -20800.00
00030              -8.80   -22400.00
00031              16.20   -22400.00
00032              -3.80   -22400.00
00033               2.60   -23200.00
00034               8.60   -23200.00
00035               0.60   -24000.00
00036               5.20   -24000.00
00037              11.60   -24800.00
00038              -6.20   -25600.00
00039               9.80   -25600.00
00040               8.20   -25600.00
00041              -5.20   -26400.00
00042              13.20   -27200.00
00043               6.00   -27200.00
00044               0.80   -28000.00
00045               8.80   -28800.00
00046               6.80   -28800.00
00047               2.00   -28800.00
00048               8.40   -28800.00
00049               7.40   -29600.00
00050               3.60   -29600.00
00051               9.00   -29600.00
00052               6.60   -30400.00
00053               5.00   -30400.00
00054              10.00   -30400.00
00055               7.00   -30400.00
00056               6.60   -31200.00
00057              10.60   -32000.00
00058               6.20   -31200.00
00059               8.20   -32000.00
00060              10.00   -32000.00
00061               7.80   -32800.00
00062              10.00   -32000.00
00063               9.40   -32800.00
00064               9.00   -32000.00
00065               9.80   -32800.00
00066               9.80   -32800.00
00067              10.00   -32800.00
00068              10.00   -33600.00
00069              11.00   -32800.00
00070              10.20   -32800.00
00071              11.40   -32800.00
00072              11.40   -32800.00
00073               9.60   -32800.00
00074              11.00   -33600.00
00075              11.60   -32800.00
00076              12.20   -32800.00
00077              11.40   -33600.00
00078              10.60   -32800.00
00079              11.60   -32800.00
00080              10.40   -32800.00
00081              10.60   -32800.00
00082              11.60   -32800.00
00083               9.40   -33600.00
00084              10.40   -32800.00
00085              10.20   -32800.00
00086               9.00   -32800.00
00087               9.40   -32000.00
00088               9.40   -32000.00
00089               8.20   -31200.00
00090               9.00   -32000.00
00091               9.80   -30400.00
00092               5.80   -31200.00
00093               7.40   -30400.00
00094               9.80   -31200.00
00095               6.60   -30400.00
00096               7.40   -29600.00
00097               9.00   -30400.00
00098               6.20   -29600.00
00099               5.20   -29600.00
00100               7.00   -28800.00
00101               6.80   -28800.00
00102               6.00   -28800.00
00103               5.80   -28800.00
00104               6.00   -27200.00
00105               5.40   -27200.00
00106               4.20   -27200.00
00107               6.40   -27200.00
00108               5.20   -26400.00
00109               4.40   -26400.00
00110               5.00   -26400.00
00111               5.20   -25600.00
00112               3.80   -25600.00
00113               3.60   -24000.00
00114               5.20   -24000.00
00115               3.80   -24000.00
00116               2.80   -24000.00
00117               4.60   -23200.00
00118               3.40   -22400.00
00119               2.60   -22400.00
00120               3.60   -22400.00
00121               3.20   -20800.00
00122               3.00   -20800.00
00123               3.00   -20000.00
00124               3.20   -19200.00
00125               2.80   -18400.00
00126               2.60   -18400.00
00127               2.60   -17600.00
00128               2.40   -17600.00
00129               2.60   -16800.00
00130               2.00   -16800.00
00131               2.20   -16000.00
00132               2.00   -15200.00
00133               1.60   -14400.00
00134               1.80   -13600.00
00135               1.60   -13600.00
00136               1.40   -13600.00
00137               1.40   -12800.00
00138               1.80   -12000.00
00139               1.80   -11200.00
00140               1.20   -11200.00
00141               1.00   -10400.00
00142               1.20    -9600.00
00143               1.00    -9600.00
00144               1.00    -8000.00
00145               0.60    -7200.00
00146               0.60    -7200.00
00147               0.60    -6400.00
00148               0.40    -5600.00
00149               0.40    -4800.00
00150               0.40    -4000.00
00151               0.20    -4000.00
00152               0.40    -3200.00
00153              -0.20    -2400.00
00154              -0.20    -1600.00
00155              -0.20    -1600.00
00156              -0.40     -800.00
00157              -0.20     -800.00
00158               0.40        0.00
00159              -0.40     1600.00
00160               0.40     1600.00
00161               3.40     1600.00
00162              -2.80     2400.00
00163              -1.00     3200.00
00164               1.00     4000.00
00165              -1.00     3200.00
00166               0.00     4800.00
00167              15.40     5600.00
00168              25.00     7200.00
00169             -25.00     8000.00
00170             -25.00     8000.00
00171              25.00     8800.00
00172             -13.20     8800.00
00173             -25.00     9600.00
00174              25.00    10400.00
00175             -25.00     9600.00
00176             -25.00    11200.00
00177              25.00    11200.00
00178             -25.00    12000.00
00179              23.00    12800.00
00180               3.60    13600.00
00181             -25.00    14400.00
00182              25.00    14400.00
00183             -25.00    15200.00
00184              11.00    16000.00
00185              25.00    16000.00
00186             -25.00    16800.00
00187              23.80    16800.00
00188              25.00    17600.00
00189             -25.00    18400.00
00190             -11.80    19200.00
00191              25.00    19200.00
00192             -25.00    20000.00
00193              -5.40    20800.00
00194              25.00    21600.00
00195             -25.00    21600.00
00196              15.20    22400.00
00197             -10.20    22400.00
00198             -17.00    24000.00
00199              11.60    23200.00
00200             -10.80    24000.00
00201             -11.00    24800.00
00202              13.60    24800.00
00203             -11.00    25600.00
00204             -18.20    25600.00
00205              15.40    26400.00
00206             -18.40    27200.00
00207              -8.40    27200.00
00208               7.60    27200.00
00209             -13.80    28000.00
00210              -6.20    28800.00
00211              -1.20    28000.00
00212             -10.00    28800.00
00213              -7.40    28800.00
00214              -2.00    30400.00
00215             -10.20    29600.00
00216              -7.00    30400.00
00217              -4.80    30400.00
00218             -10.80    30400.00
00219              -5.80    31200.00
00220              -4.40    31200.00
00221             -12.40    31200.00
00222              -5.00    32000.00
00223              -8.40    32000.00
00224             -12.60    32800.00
00225              -5.80    32800.00
00226             -10.20    32800.00
00227             -10.00    32800.00
00228              -6.80    32800.00
00229             -10.20    32800.00
00230             -10.20    33600.00
00231             -10.40    33600.00
00232             -10.60    33600.00
00233             -10.20    33600.00
00234             -10.60    33600.00
00235             -10.80    33600.00
00236             -11.80    33600.00
00237              -9.80    33600.00
00238             -12.40    33600.00
00239             -11.80    33600.00
00240             -10.20    33600.00
00241             -13.60    33600.00
00242             -10.60    34400.00
00243             -11.60    33600.00
00244             -12.80    33600.00
00245             -10.80    33600.00
00246             -11.80    34400.00
00247             -10.80    33600.00
00248             -11.40    33600.00
00249             -11.40    33600.00
00250             -10.20    33600.00
00251             -10.60    33600.00
00252             -10.00    32800.00
00253             -10.60    32800.00
00254              -9.80    33600.00
00255              -9.40    32800.00
00256              -9.80    32000.00
00257              -9.20    32000.00
00258              -9.00    32800.00
00259              -8.60    32000.00
00260              -8.00    32000.00
00261              -8.40    32000.00
00262              -7.80    31200.00
00263              -7.80    30400.00
00264              -7.60    31200.00
00265              -7.00    30400.00
00266              -7.40    30400.00
00267              -7.20    30400.00
00268              -7.00    29600.00
00269              -6.20    28800.00
00270              -6.00    29600.00
00271              -6.60    28800.00
00272              -5.80    28000.00
00273              -6.20    27200.00
00274              -6.20    27200.00
00275              -6.00    27200.00
00276              -5.80    26400.00
00277              -4.60    26400.00
00278              -5.00    25600.00
00279              -5.00    25600.00
00280              -4.60    24800.00
00281              -5.80    24800.00
00282              -4.60    24800.00
00283              -4.40    24000.00
00284              -4.40    23200.00
00285              -4.20    23200.00
00286              -4.20    22400.00
00287              -3.80    22400.00
00288              -4.20    21600.00
00289              -4.00    20800.00
00290              -3.80    20800.00
00291              -3.80    19200.00
00292              -3.20    19200.00
00293              -3.60    19200.00
00294              -3.20    18400.00
00295              -3.20    17600.00
00296              -2.80    17600.00
00297              -2.20    16800.00
00298              -3.40    16000.00
00299              -2.80    16000.00
00300              -2.60    14400.00
00301              -3.00    14400.00
00302              -2.20    14400.00
00303              -2.60    13600.00
00304              -2.40    12800.00
00305              -2.20    12800.00
00306              -2.00    11200.00
00307              -2.20    11200.00
00308              -2.60    11200.00
00309              -1.80     9600.00
00310              -1.20     8800.00
00311              -2.20     9600.00
00312              -1.20     8000.00
00313              -1.40     8000.00
00314              -1.40     7200.00
00315              -1.00     6400.00
00316              -1.20     5600.00
00317              -1.20     4800.00
00318              -1.20     4800.00
00319              -1.20     4000.00
00320              -0.60     3200.00
00321              -1.20     2400.00
00322              -1.00     2400.00
00323               0.20     1600.00
00324              -0.20     1600.00
00325              -0.20        0.00
00326               1.00        0.00
00327               3.40     -800.00
00328               0.80    -1600.00
00329              -1.20    -1600.00
00330               1.80    -3200.00
00331               1.40    -3200.00
00332              -0.20    -3200.00
00333               2.60    -4000.00
00334              12.80    -4800.00
00335              25.00    -6400.00
00336             -25.00    -7200.00
00337             -25.00    -8000.00
00338              22.80    -8000.00
00339              11.20    -8800.00
00340             -25.00    -8800.00
00341              15.40    -9600.00
00342              25.00   -10400.00
00343             -25.00    -9600.00
00344              12.20   -11200.00
00345              25.00   -12000.00
00346             -25.00   -12000.00
00347              21.20   -12800.00
00348               3.80   -12800.00
00349               0.80   -14400.00
00350              17.00   -14400.00
00351             -25.00   -14400.00
00352              25.00   -16000.00
00353               5.00   -16000.00
00354             -25.00   -16800.00
00355              25.00   -17600.00
00356              13.20   -17600.00
00357             -25.00   -17600.00
00358              13.00   -18400.00
00359              25.00   -19200.00
00360             -25.00   -20000.00
00361              18.40   -20800.00
00362              17.00   -20800.00
00363             -15.40   -22400.00
00364              14.20   -22400.00
00365               1.40   -22400.00
00366              -2.00   -23200.00
00367               8.40   -24000.00
00368               3.40   -24000.00
00369               2.00   -24000.00
00370              13.40   -25600.00
00371              -3.20   -24800.00
00372               2.80   -25600.00
00373              14.20   -25600.00
00374              -6.00   -26400.00
00375               8.20   -27200.00
00376              10.80   -27200.00
00377              -0.20   -27200.00
00378               6.40   -27200.00
00379               9.00   -28800.00
00380               2.80   -28800.00
00381               6.80   -28800.00
00382               8.80   -29600.00
00383               3.40   -28800.00
00384               7.20   -29600.00
00385               7.80   -29600.00
00386               4.60   -30400.00
00387               9.40   -30400.00
00388               8.60   -30400.00
00389               5.20   -30400.00
00390              10.60   -31200.00
00391               7.40   -32000.00
00392               6.60   -31200.00
00393              10.20   -32000.00
00394               7.80   -32000.00
00395               9.80   -32000.00
00396              10.60   -32000.00
00397               8.20   -32000.00
00398               9.40   -32800.00
00399              10.00   -32800.00
00400               9.40   -32800.00
00401              10.00   -32800.00
00402              11.60   -32800.00
00403              10.60   -32800.00
00404              10.60   -32800.00
00405              11.80   -33600.00
00406              10.20   -32800.00
00407              11.40   -32800.00
00408              11.40   -32800.00
00409              10.60   -32800.00
00410              13.00   -32800.00
00411              10.60   -32800.00
00412              10.80   -32800.00
00413              12.40   -32800.00
00414              10.20   -32800.00
00415              10.00   -32800.00
00416              10.60   -32800.00
00417              10.20   -32800.00
00418               9.40   -32800.00
00419               9.80   -32800.00
00420               9.80   -32000.00
00421               9.00   -32000.00
00422               9.20   -32000.00
00423               8.40   -32000.00
00424               8.40   -32000.00
00425               8.20   -32000.00
00426               7.40   -30400.00
00427               8.60   -30400.00
00428               8.20   -30400.00
00429               6.60   -30400.00
00430               7.40   -30400.00
00431               7.00   -28800.00
00432               6.00   -29600.00
00433               7.00   -29600.00
00434               6.60   -28800.00
00435               5.80   -29600.00
00436               5.40   -28800.00
00437               6.60   -28000.00
00438               5.40   -28000.00
00439               5.60   -27200.00
00440               5.80   -27200.00
00441               4.60   -26400.00
00442               4.60   -26400.00
00443               4.40   -26400.00
00444               4.40   -25600.00
00445               5.00   -25600.00
00446               4.60   -24800.00
00447               5.00   -24000.00
00448               4.20   -24000.00
00449               3.40   -24000.00
00450               3.80   -23200.00
00451               3.20   -22400.00
00452               3.40   -22400.00
00453               3.80   -22400.00
00454               3.20   -21600.00
00455               3.20   -20800.00
00456               3.00   -20000.00
00457               2.60   -20000.00
00458               2.80   -18400.00
00459               3.40   -18400.00
00460               2.60   -18400.00
00461               2.00   -17600.00
00462               2.20   -17600.00
00463               2.60   -16800.00
00464               2.00   -16000.00
00465               2.40   -16000.00
00466               2.20   -15200.00
00467               2.00   -13600.00
00468               1.00   -13600.00
00469               1.40   -13600.00
00470               1.40   -12000.00
00471               1.00   -12800.00
00472               2.00   -12000.00
00473               1.80   -11200.00
00474               1.00   -10400.00
00475               1.20    -9600.00
00476               0.60    -8800.00
00477               0.60    -8000.00
00478               1.00    -8000.00
00479               0.40    -7200.00
00480               0.40    -6400.00
00481               0.80    -6400.00
00482               0.40    -5600.00
00483               0.60    -4800.00
00484               0.40    -4000.00
00485              -0.40    -3200.00
00486              -0.20    -3200.00
00487              -0.40    -2400.00
00488              -0.60    -1600.00
00489               0.20     -800.00
00490               0.00     -800.00
00491              -0.40        0.00
00492               0.20        0.00
00493              -0.20     1600.00
00494               2.60     1600.00
00495              -0.80     2400.00
00496              -1.80     2400.00
00497               0.60     3200.00
00498               0.40     4000.00
00499              -2.20     4800.00
00500               8.60     5600.00
00501              25.00     7200.00
00502             -23.60     8000.00
00503             -25.00     8000.00
00504              20.40     8800.00
00505               8.40     8800.00
00506             -25.00     8800.00
00507              25.00    10400.00
00508              25.00    10400.00
00509             -25.00    11200.00
00510              25.00    12000.00
00511             -25.00    12000.00
00512             -21.80    12800.00
00513              25.00    13600.00
00514             -25.00    12800.00
00515              25.00    14400.00
00516             -21.80    15200.00
00517             -25.00    15200.00
00518              25.00    16000.00
00519             -25.00    16000.00
00520             -12.60    17600.00
00521              25.00    17600.00
00522             -25.00    18400.00
00523             -25.00    18400.00
00524              25.00    19200.00
00525              -9.20    20000.00
00526             -25.00    20800.00
00527              25.00    21600.00
00528             -24.60    21600.00
00529               0.40    22400.00
00530               7.40    22400.00
00531             -25.00    23200.00
00532              10.00    24000.00
00533              -3.60    24000.00
00534             -16.40    24800.00
00535               7.60    24800.00
00536               2.00    25600.00
00537             -25.00    25600.00
00538              11.40    25600.00
00539              -6.20    26400.00
00540             -18.60    27200.00
00541               8.60    27200.00
00542              -9.00    28000.00
00543              -9.60    28000.00
00544              -0.40    28000.00
00545              -7.60    28800.00
00546              -9.20    28800.00
00547              -2.20    28800.00
00548              -9.00    29600.00
00549              -8.80    30400.00
00550              -4.60    30400.00
00551              -9.80    30400.00
00552              -8.40    31200.00
00553              -2.80    31200.00
00554             -11.80    31200.00
00555              -7.40    31200.00
00556              -5.00    32000.00
00557             -13.20    32000.00
00558              -7.00    32800.00
00559              -8.40    32800.00
00560             -11.20    32800.00
00561              -7.40    33600.00
00562              -9.40    33600.00
00563             -10.60    32800.00
00564             -10.20    33600.00
00565             -10.60    32800.00
00566             -10.60    33600.00
00567             -11.00    33600.00
00568             -10.40    33600.00
00569             -11.80    33600.00
00570             -10.20    33600.00
00571             -10.80    33600.00
00572             -12.40    33600.00
00573             -10.00    33600.00
00574             -13.60    33600.00
00575             -11.60    33600.00
00576             -10.80    33600.00
00577             -13.80    34400.00
00578             -10.60    33600.00
00579             -10.80    33600.00
00580             -11.60    33600.00
00581             -11.00    33600.00
00582             -11.40    33600.00
00583             -11.00    32800.00
00584             -11.00    33600.00
00585             -10.20    32800.00
00586             -10.20    32800.00
00587              -9.60    33600.00
00588              -9.20    33600.00
00589              -9.20    32800.00
00590              -8.40    32800.00
00591              -9.20    32000.00
00592              -9.40    32000.00
00593              -7.40    32800.00
00594              -8.60    32000.00
00595              -8.60    31200.00
00596              -7.60    31200.00
00597              -7.60    31200.00
00598              -7.00    30400.00
00599              -6.80    30400.00
00600              -7.40    30400.00
00601              -7.40    30400.00
00602              -7.00    28800.00
00603              -6.80    28800.00
00604              -6.80    28800.00
00605              -6.00    28000.00
00606              -5.80    28000.00
00607              -5.40    28000.00
00608              -5.20    27200.00
00609              -6.20    27200.00
00610              -5.80    26400.00
00611              -5.20    25600.00
00612              -5.80    25600.00
00613              -5.00    24800.00
00614              -5.40    24800.00
00615              -5.00    24000.00
00616              -4.00    24000.00
00617              -4.00    24000.00
00618              -4.40    22400.00
00619              -4.40    22400.00
00620              -4.20    21600.00
00621              -4.40    22400.00
00622              -3.80    21600.00
00623              -3.60    20800.00
00624              -3.80    19200.00
00625              -3.00    20000.00
00626              -3.00    19200.00
00627              -3.60    18400.00
00628              -3.60    18400.00
00629              -3.80    17600.00
00630              -3.00    16800.00
00631              -3.00    16000.00
00632              -2.80    15200.00
00633              -2.40    15200.00
00634              -2.60    14400.00
00635              -2.20    14400.00
00636              -2.40    12800.00
00637              -2.20    12800.00
00638              -2.00    12800.00
00639              -2.00    12000.00
00640              -2.20    11200.00
00641              -2.20    11200.00
00642              -1.80     9600.00
00643              -1.20     9600.00
00644              -2.20     8800.00
00645              -1.60     8000.00
00646              -1.60     8000.00
00647              -1.40     7200.00
00648              -1.20     6400.00
00649              -1.00     5600.00
00650              -1.00     4800.00
00651              -1.00     4800.00
00652              -0.60     4000.00
00653              -0.60     3200.00
00654              -1.20     2400.00
00655              -1.00     1600.00
00656              -0.60     1600.00
00657              -0.60     1600.00
00658              -0.40        0.00
00659               0.40        0.00
00660               2.40     -800.00
00661               3.00    -1600.00
00662              -1.40    -1600.00
00663               1.00    -3200.00
00664               2.00    -3200.00
00665               0.40    -4000.00
00666               1.00    -4000.00
00667               9.00    -4800.00
00668              25.00    -6400.00
00669              -3.80    -7200.00
00670             -25.00    -8000.00
00671               8.00    -8000.00
00672              24.40    -8800.00
00673             -25.00    -8800.00
00674             -14.60    -8800.00
00675              25.00   -10400.00
00676             -25.00   -10400.00
00677             -25.00   -11200.00
00678              25.00   -12000.00
00679             -25.00   -12000.00
00680              -8.60   -12800.00
00681              25.00   -13600.00
00682             -14.80   -13600.00
00683              25.00   -14400.00
00684             -25.00   -14400.00
00685              17.40   -16000.00
00686              25.00   -16000.00
00687             -25.00   -16800.00
00688              15.60   -17600.00
00689              25.00   -17600.00
00690             -25.00   -18400.00
00691              -5.40   -19200.00
00692              25.00   -19200.00
00693             -22.20   -19200.00
00694              -0.80   -20000.00
00695              25.00   -20800.00
00696             -14.40   -21600.00
00697               6.80   -22400.00
00698               8.40   -22400.00
00699              -5.20   -22400.00
00700               7.40   -23200.00
00701               6.60   -24000.00
00702              -0.20   -24000.00
00703              11.60   -24800.00
00704               3.00   -25600.00
00705              -3.40   -25600.00
00706              15.40   -25600.00
00707              -1.40   -25600.00
00708               2.20   -26400.00
00709              13.40   -27200.00
00710               0.60   -27200.00
00711               4.20   -27200.00
00712               9.80   -27200.00
00713               3.80   -28800.00
00714               5.40   -28800.00
00715               9.40   -28800.00
00716               5.20   -29600.00
00717               5.80   -29600.00
00718               9.00   -29600.00
00719               4.60   -30400.00
00720               7.40   -30400.00
00721              10.00   -30400.00
00722               5.40   -30400.00
00723               9.00   -31200.00
00724               9.00   -32000.00
00725               6.40   -31200.00
00726               9.20   -32000.00
00727               9.00   -32000.00
00728               8.80   -32000.00
00729              10.20   -32800.00
00730               8.20   -32000.00
00731               9.00   -32000.00
00732              10.00   -32800.00
00733               9.40   -32800.00
00734              10.60   -32800.00
00735              11.00   -32800.00
00736              10.80   -32800.00
00737              10.20   -32800.00
00738              11.60   -32800.00
00739               9.40   -32800.00
00740              10.00   -32800.00
00741              12.20   -32800.00
00742               9.20   -32800.00
00743              11.60   -33600.00
00744              12.20   -32800.00
00745              10.80   -32800.00
00746              12.60   -32800.00
00747              11.80   -32800.00
00748               9.80   -32800.00
00749               9.40   -32800.00
00750               9.40   -32800.00
00751               8.80   -32000.00
00752               9.40   -32000.00
00753               9.40   -32800.00
00754               9.80   -32800.00
00755              10.20   -32000.00
00756               8.20   -31200.00
00757               8.20   -32000.00
00758               9.40   -32000.00
00759               6.80   -31200.00
00760               7.20   -31200.00
00761               7.80   -30400.00
00762               6.40   -30400.00
00763               6.80   -30400.00
00764               8.20   -29600.00
00765               7.60   -29600.00
00766               7.20   -29600.00
00767               5.60   -29600.00
00768               6.00   -28800.00
00769               5.60   -28800.00
00770               5.20   -28000.00
00771               6.20   -27200.00
00772               5.80   -27200.00
00773               5.40   -27200.00
00774               5.80   -26400.00
00775               5.20   -26400.00
00776               5.20   -26400.00
00777               4.20   -25600.00
00778               4.20   -25600.00
00779               4.60   -25600.00
00780               3.80   -24000.00
00781               4.00   -24000.00
00782               5.20   -24000.00
00783               3.80   -23200.00
00784               3.40   -22400.00
00785               4.60   -22400.00
00786               2.80   -21600.00
00787               2.60   -21600.00
00788               4.20   -20800.00
00789               2.60   -20000.00
00790               2.60   -19200.00
00791               3.80   -18400.00
00792               2.60   -19200.00
00793               2.60   -17600.00
00794               3.00   -17600.00
00795               1.80   -16800.00
00796               2.20   -16000.00
00797               2.60   -16000.00
00798               1.80   -16000.00
00799               1.60   -15200.00
00800               2.00   -14400.00
00801               1.80   -13600.00
00802               1.20   -13600.00
00803               2.00   -12800.00
00804               1.40   -12000.00
00805               1.40   -11200.00
00806               1.40   -11200.00
00807               1.00   -10400.00
00808               1.00    -9600.00
00809               0.60    -9600.00
00810               0.60    -8000.00
00811               1.00    -8000.00
00812               0.40    -7200.00
00813               0.40    -6400.00
00814               0.40    -6400.00
00815               0.40    -5600.00
00816               0.60    -5600.00
00817              -0.20    -4800.00
00818              -1.20    -3200.00
00819               0.40    -3200.00
00820               0.40    -2400.00
00821              -0.60    -1600.00
00822              -0.40     -800.00
00823               1.00     -800.00
00824               0.40        0.00
00825              -1.20      800.00
00826              -0.60      800.00
00827               3.40     1600.00
00828               1.00     2400.00
00829              -4.60     2400.00
00830               0.80     3200.00
00831               1.80     4000.00
00832              -3.00     4800.00
00833               4.40     5600.00
00834              25.00     7200.00
00835               2.60     8000.00
00836             -25.00     8000.00
00837               5.00     8000.00
00838              23.40     8800.00
00839             -25.00     8800.00
00840              11.60    10400.00
00841              25.00    10400.00
00842             -25.00    11200.00
00843              25.00    12000.00
00844              25.00    12000.00
00845             -25.00    12000.00
00846              25.00    13600.00
00847             -25.00    13600.00
00848              25.00    14400.00
00849              25.00    14400.00
00850             -25.00    15200.00
00851              25.00    16000.00
00852              -8.40    16000.00
00853             -25.00    16800.00
00854              25.00    17600.00
00855              -3.80    18400.00
00856             -25.00    18400.00
00857              18.60    19200.00
00858              15.40    20000.00
00859             -25.00    20800.00
00860              25.00    21600.00
00861              -2.80    21600.00
00862             -17.80    22400.00
00863              18.60    22400.00
00864             -25.00    22400.00
00865               1.00    24000.00
00866               4.20    24000.00
00867             -17.20    24800.00
00868               0.00    24800.00
00869              11.60    25600.00
00870             -24.60    25600.00
00871               0.40    25600.00
00872               5.80    27200.00
00873             -25.00    26400.00
00874               5.20    27200.00
00875              -2.00    27200.00
00876             -13.40    28000.00
00877              -0.60    28800.00
00878              -4.60    28800.00
00879             -11.80    28800.00
00880              -3.40    28800.00
00881              -5.40    30400.00
00882             -10.80    29600.00
00883              -4.40    30400.00
00884              -7.40    31200.00
00885             -10.80    30400.00
00886              -3.00    31200.00
00887              -8.60    31200.00
00888             -10.60    31200.00
00889              -3.80    32000.00
00890             -11.80    32800.00
00891              -9.20    32000.00
00892              -6.80    32800.00
00893             -12.40    32800.00
00894              -7.60    32800.00
00895              -7.80    32800.00
00896             -11.00    33600.00
00897             -10.00    33600.00
00898             -10.40    33600.00
00899             -10.60    33600.00
00900             -10.80    33600.00
00901             -10.00    33600.00
00902             -11.60    33600.00
00903             -10.80    33600.00
00904             -10.20    33600.00
00905             -13.40    33600.00
00906             -10.60    33600.00
00907             -12.40    34400.00
00908             -12.60    33600.00
00909              -9.60    33600.00
00910             -13.40    33600.00
00911             -11.80    33600.00
00912             -10.60    33600.00
00913             -11.80    33600.00
00914             -11.00    33600.00
00915             -11.40    33600.00
00916             -10.80    33600.00
00917             -10.80    33600.00
00918             -10.00    33600.00
00919             -10.00    33600.00
00920             -10.20    33600.00
00921              -9.20    33600.00
00922              -9.80    32800.00
00923              -9.20    32800.00
00924              -9.00    32000.00
00925              -9.40    32000.00
00926              -7.80    32000.00
00927              -8.60    32000.00
00928              -8.40    31200.00
00929              -7.40    31200.00
00930              -7.60    31200.00
00931              -7.40    31200.00
00932              -7.00    30400.00
00933              -7.40    30400.00
00934              -7.20    29600.00
00935              -7.40    29600.00
00936              -6.60    29600.00
00937              -6.80    28800.00
00938              -6.60    28800.00
00939              -6.20    28000.00
00940              -6.20    28000.00
00941              -5.20    27200.00
00942              -6.00    27200.00
00943              -6.00    26400.00
00944              -4.40    26400.00
00945              -5.20    25600.00
00946              -5.00    25600.00
00947              -5.20    24800.00
00948              -5.00    24800.00
00949              -4.80    24000.00
00950              -4.60    24000.00
00951              -4.20    23200.00
00952              -4.60    23200.00
00953              -4.40    22400.00
00954              -3.60    21600.00
00955              -4.20    21600.00
00956              -4.40    21600.00
00957              -4.20    20000.00
00958              -2.80    19200.00
00959              -3.00    19200.00
00960              -4.00    18400.00
00961              -3.20    18400.00
00962              -3.20    17600.00
00963              -3.60    16800.00
00964              -2.40    16800.00
00965              -2.80    16000.00
00966              -3.00    15200.00
00967              -2.60    15200.00
00968              -2.00    14400.00
00969              -2.80    13600.00
00970              -2.20    13600.00
00971              -2.00    12800.00
00972              -2.00    12000.00
00973              -1.80    12000.00
00974              -2.00    11200.00
00975              -2.00    10400.00
00976              -1.00     9600.00
00977              -2.40     8800.00
00978              -1.60     8000.00
00979              -0.60     8000.00
00980              -2.00     8000.00
00981              -0.80     6400.00
00982              -1.00     5600.00
00983              -1.80     5600.00
00984              -0.20     5600.00
00985              -1.00     4000.00
00986              -1.40     3200.00
00987               1.00     3200.00
00988              -1.20     1600.00
00989              -1.40     1600.00
00990               1.00      800.00
00991              -0.60        0.00
00992              -0.40     -800.00
00993               2.20     -800.00
00994               3.80    -1600.00
00995              -1.40    -1600.00
00996               0.40    -1600.00
00997               1.80    -3200.00
00998               0.40    -3200.00
00999               0.60    -4000.00
01000               5.20    -4000.00
01001              21.20    -6400.00
01002              16.40    -7200.00
01003             -25.00    -7200.00
01004             -11.20    -8000.00
01005              25.00    -8000.00
01006             -17.40    -8800.00
01007             -25.00    -8800.00
01008              25.00    -9600.00
01009              24.20   -10400.00
01010             -25.00   -11200.00
01011              25.00   -12000.00
01012               4.80   -12800.00
01013             -25.00   -12800.00
01014              25.00   -13600.00
01015             -18.60   -13600.00
01016              22.60   -14400.00
01017             -14.80   -14400.00
01018             -11.00   -16000.00
01019              25.00   -16000.00
01020             -25.00   -16800.00
01021              -6.40   -17600.00
01022              25.00   -17600.00
01023             -13.00   -18400.00
01024             -21.20   -18400.00
01025              25.00   -19200.00
01026              -2.20   -20000.00
01027             -20.20   -20000.00
01028              25.00   -20800.00
01029              -5.00   -20800.00
01030              -4.60   -22400.00
01031              14.60   -22400.00
01032              -5.20   -23200.00
01033               4.00   -23200.00
01034               8.40   -24000.00
01035               0.00   -24000.00
01036               7.60   -24000.00
01037               9.40   -24800.00
01038              -6.60   -25600.00
01039              13.20   -25600.00
01040               5.80   -26400.00
01041              -4.40   -26400.00
01042              14.80   -27200.00
01043               3.80   -27200.00
01044               0.40   -27200.00
01045               9.80   -28800.00
01046               6.60   -27200.00
01047               2.20   -28800.00
01048               9.60   -28800.00
01049               7.60   -29600.00
01050               3.40   -28800.00
01051               9.40   -29600.00
01052               6.60   -29600.00
01053               6.00   -30400.00
01054              10.20   -30400.00
01055               6.80   -30400.00
01056               7.40   -32000.00
01057               9.80   -31200.00
01058               6.00   -32000.00
01059               9.00   -32000.00
01060               9.00   -32000.00
01061               7.80   -32000.00
01062              10.80   -32800.00
01063               9.40   -32000.00
01064               8.60   -32800.00
01065               9.80   -32800.00
01066              10.20   -32800.00
01067              10.20   -32800.00
01068               9.40   -32800.00
01069              10.80   -32800.00
01070              10.40   -32800.00
01071              10.60   -32800.00
01072              10.80   -32800.00
01073              10.80   -32800.00
01074              11.80   -32800.00
01075              10.20   -32800.00
01076              11.60   -32800.00
01077              11.80   -33600.00
01078              10.20   -32800.00
01079              11.60   -33600.00
01080              11.00   -32800.00
01081              10.00   -32800.00
01082              10.00   -32800.00
01083              10.20   -32800.00
01084              10.20   -32800.00
01085               9.00   -32000.00
01086               9.80   -32800.00
01087               9.20   -32000.00
01088               8.60   -32800.00
01089               9.00   -32000.00
01090               8.20   -32000.00
01091               8.40   -32000.00
01092               8.40   -31200.00
01093               7.60   -30400.00
01094               7.60   -31200.00
01095               7.60   -30400.00
01096               7.00   -30400.00
01097               7.40   -29600.00
01098               6.80   -29600.00
01099               6.80   -28800.00
01100               7.00   -29600.00
01101               6.20   -28800.00
01102               6.00   -28000.00
01103               6.20   -28000.00
01104               5.80   -28000.00
01105               5.20   -27200.00
01106               5.40   -27200.00
01107               5.40   -27200.00
01108               5.40   -26400.00
01109               5.20   -26400.00
01110               4.20   -25600.00
01111               4.60   -25600.00
01112               4.60   -24800.00
01113               4.00   -24800.00
01114               4.60   -24000.00
01115               4.20   -24000.00
01116               3.60   -23200.00
01117               4.20   -23200.00
01118               3.60   -22400.00
01119               3.40   -22400.00
01120               3.40   -21600.00
01121               3.40   -20800.00
01122               2.80   -20800.00
01123               2.80   -20000.00
01124               2.60   -19200.00
01125               2.60   -18400.00
01126               2.80   -18400.00
01127               2.60   -17600.00
01128               2.60   -16800.00
01129               2.60   -16800.00
01130               2.00   -16800.00
01131               1.80   -16000.00
01132               1.80   -15200.00
01133               2.00   -14400.00
01134               1.80   -14400.00
01135               1.20   -13600.00
01136               1.80   -12800.00
01137               1.20   -12800.00
01138               1.00   -12000.00
01139               1.80   -11200.00
01140               1.00   -11200.00
01141               0.40   -10400.00
01142               1.20    -9600.00
01143               1.00    -8800.00
01144               0.40    -8000.00
01145               1.00    -8000.00
01146               0.60    -7200.00
01147               0.40    -6400.00
01148               0.20    -6400.00
01149               0.40    -4800.00
01150               0.40    -4800.00
01151              -0.60    -4000.00
01152              -0.20    -3200.00
01153               0.40    -2400.00
01154              -0.40    -1600.00
01155              -0.60    -1600.00
01156               0.20    -1600.00
01157              -0.40     -800.00
01158              -0.40        0.00
01159               0.60      800.00
01160               1.40     1600.00
01161               2.60     1600.00
01162              -2.60     2400.00
01163              -0.80     3200.00
01164               1.00     4000.00
01165              -1.40     3200.00
01166               1.20     4800.00
01167              18.80     5600.00
01168              25.00     7200.00
01169             -25.00     8000.00
01170             -18.80     8000.00
01171              25.00     8800.00
01172             -22.20     8800.00
01173             -25.00     8800.00
01174              25.00     9600.00
01175             -25.00    10400.00
01176             -10.60    12000.00
01177              25.00    12000.00
01178             -25.00    12000.00
01179              25.00    13600.00
01180             -16.20    12800.00
01181             -19.20    14400.00
01182              25.00    14400.00
01183             -25.00    14400.00
01184              25.00    16000.00
01185              25.00    16000.00
01186             -25.00    16800.00
01187              25.00    17600.00
01188              21.80    18400.00
01189             -25.00    19200.00
01190              -2.80    19200.00
01191              25.00    20000.00
01192             -25.00    20000.00
01193               5.40    20800.00
01194              20.20    20800.00
01195             -25.00    22400.00
01196              19.40    22400.00
01197             -16.60    22400.00
01198             -12.20    24000.00
01199               9.20    24000.00
01200             -12.80    24000.00
01201              -6.80    24000.00
01202              13.00    25600.00
01203             -15.80    25600.00
01204             -13.00    25600.00
01205              13.00    26400.00
01206             -22.00    27200.00
01207              -2.60    27200.00
01208               4.40    27200.00
01209             -14.80    28000.00
01210              -3.80    28000.00
01211              -2.60    28800.00
01212             -11.00    28800.00
01213              -5.80    28800.00
01214              -3.00    29600.00
01215             -10.20    29600.00
01216              -5.60    30400.00
01217              -6.80    30400.00
01218             -12.00    30400.00
01219              -4.20    31200.00
01220              -6.00    31200.00
01221             -11.80    31200.00
01222              -3.20    32800.00
01223             -10.00    32000.00
01224             -11.80    32800.00
01225              -5.00    32000.00
01226             -11.40    32800.00
01227              -9.40    32800.00
01228              -6.60    32800.00
01229             -11.00    33600.00
01230             -10.60    32800.00
01231             -10.00    33600.00
01232             -10.80    33600.00
01233             -10.20    33600.00
01234             -10.00    33600.00
01235             -10.80    33600.00
01236             -11.00    33600.00
01237              -9.80    33600.00
01238             -12.60    33600.00
01239             -10.80    33600.00
01240             -10.80    33600.00
01241             -13.40    33600.00
01242              -9.40    34400.00
01243             -12.40    33600.00
01244             -13.40    33600.00
01245             -10.20    33600.00
01246             -12.20    33600.00
01247             -11.40    33600.00
01248             -11.20    33600.00
01249             -11.00    33600.00
01250             -10.80    33600.00
01251             -10.60    33600.00
01252              -9.80    33600.00
01253             -10.20    32800.00
01254              -9.40    33600.00
01255              -9.80    32800.00
01256              -9.60    32000.00
01257              -9.00    32000.00
01258              -9.40    32800.00
01259              -8.40    32800.00
01260              -8.20    31200.00
01261              -8.60    31200.00
01262              -8.00    31200.00
01263              -8.20    31200.00
01264              -7.80    30400.00
01265              -7.00    30400.00
01266              -7.60    30400.00
01267              -7.00    29600.00
01268              -7.00    29600.00
01269              -6.60    28800.00
01270              -6.20    28800.00
01271              -6.60    28800.00
01272              -6.60    28000.00
01273              -6.20    28000.00
01274              -5.80    27200.00
01275              -6.00    27200.00
01276              -6.20    26400.00
01277              -5.00    26400.00
01278              -5.00    25600.00
01279              -5.20    25600.00
01280              -5.20    24800.00
01281              -5.40    24800.00
01282              -4.60    24000.00
01283              -4.60    24000.00
01284              -4.40    24000.00
01285              -4.40    23200.00
01286              -4.20    22400.00
01287              -3.80    21600.00
01288              -4.20    21600.00
01289              -4.20    21600.00
01290              -3.60    20800.00
01291              -3.40    19200.00
01292              -3.00    19200.00
01293              -3.60    18400.00
01294              -3.40    17600.00
01295              -2.80    17600.00
01296              -3.00    17600.00
01297              -2.80    16800.00
01298              -3.00    16000.00
01299              -2.60    15200.00
01300              -2.60    15200.00
01301              -2.60    15200.00
01302              -2.00    14400.00
01303              -2.20    13600.00
01304              -2.20    12800.00
01305              -2.00    12000.00
01306              -2.00    12000.00
01307              -2.00    11200.00
01308              -2.60     9600.00
01309              -1.40     9600.00
01310              -1.80     8800.00
01311              -2.00     8800.00
01312              -0.60     8000.00
01313              -1.60     7200.00
01314              -1.40     6400.00
01315              -0.60     5600.00
01316              -1.00     5600.00
01317              -0.60     4800.00
01318              -0.60     4800.00
01319              -0.60     4000.00
01320              -0.60     2400.00
01321              -0.80     3200.00
01322              -1.00     2400.00
01323              -0.20      800.00
01324              -0.20        0.00
01325              -0.20        0.00
01326               0.60     -800.00
01327               3.60    -1600.00
01328               0.20    -1600.00
01329              -1.20    -1600.00
01330               1.80    -2400.00
01331               1.20    -3200.00
01332              -0.20    -4000.00
01333               3.60    -4000.00
01334              14.60    -4800.00
01335              25.00    -6400.00
01336             -25.00    -7200.00
01337             -25.00    -8000.00
01338              25.00    -8000.00
01339               3.80    -9600.00
01340             -25.00    -8800.00
01341              25.00    -9600.00
01342              25.00   -11200.00
01343             -25.00   -10400.00
01344              25.00   -11200.00
01345              25.00   -12000.00
01346             -25.00   -12800.00
01347              25.00   -13600.00
01348              -4.20   -13600.00
01349               7.80   -14400.00
01350               8.60   -14400.00
01351             -25.00   -15200.00
01352              25.00   -16000.00
01353              -6.80   -16800.00
01354             -25.00   -16800.00
01355              25.00   -17600.00
01356               5.40   -17600.00
01357             -25.00   -18400.00
01358              19.60   -19200.00
01359              19.40   -20000.00
01360             -25.00   -20000.00
01361              24.60   -20800.00
01362              11.20   -20800.00
01363             -13.40   -21600.00
01364              15.40   -22400.00
01365              -0.80   -22400.00
01366              -0.60   -23200.00
01367               8.40   -23200.00
01368               2.80   -24000.00
01369               3.00   -24800.00
01370              13.20   -24800.00
01371              -4.40   -25600.00
01372               6.00   -25600.00
01373              12.20   -26400.00
01374              -6.20   -26400.00
01375              11.00   -26400.00
01376               9.00   -27200.00
01377               0.20   -27200.00
01378               7.60   -28000.00
01379               8.40   -28800.00
01380               2.20   -28000.00
01381               7.40   -28800.00
01382               8.60   -28800.00
01383               3.40   -28800.00
01384               7.80   -29600.00
01385               8.00   -30400.00
01386               4.60   -29600.00
01387               9.20   -29600.00
01388               8.20   -30400.00
01389               5.80   -31200.00
01390              10.00   -32000.00
01391               6.80   -31200.00
01392               7.40   -32000.00
01393              10.00   -32000.00
01394               7.80   -32000.00
01395               9.80   -32000.00
01396               9.80   -32000.00
01397               8.60   -32800.00
01398               9.40   -32800.00
01399               9.40   -32800.00
01400              10.00   -32800.00
01401               9.80   -33600.00
01402              10.60   -32800.00
01403              10.80   -33600.00
01404              10.60   -32800.00
01405              10.80   -32800.00
01406              10.20   -32800.00
01407              12.20   -33600.00
01408              10.20   -33600.00
01409              10.60   -33600.00
01410              13.20   -32800.00
01411               9.80   -32800.00
01412              10.60   -32800.00
01413              12.20   -32800.00
01414              10.00   -33600.00
01415               9.40   -32800.00
01416              10.60   -32800.00
01417              10.60   -32800.00
01418               8.40   -32800.00
01419              10.00   -32800.00
01420              10.60   -32000.00
01421               8.40   -32800.00
01422               8.40   -32000.00
01423               9.20   -32000.00
01424               8.40   -32000.00
01425               7.00   -32000.00
01426               9.00   -30400.00
01427               9.00   -30400.00
01428               5.80   -30400.00
01429               8.20   -30400.00
01430               8.00   -29600.00
01431               5.20   -29600.00
01432               6.80   -29600.00
01433               8.00   -29600.00
01434               5.20   -28800.00
01435               6.00   -28800.00
01436               6.00   -28800.00
01437               5.40   -28000.00
01438               5.00   -28000.00
01439               6.60   -27200.00
01440               6.20   -27200.00
01441               4.20   -27200.00
01442               4.60   -25600.00
01443               5.20   -25600.00
01444               3.80   -25600.00
01445               4.20   -25600.00
01446               5.80   -24800.00
01447               4.20   -24000.00
01448               2.60   -24000.00
01449               5.00   -24000.00
01450               4.00   -23200.00
01451               2.40   -22400.00
01452               4.40   -22400.00
01453               4.40   -21600.00
01454               2.60   -20800.00
01455               3.00   -20800.00
01456               3.40   -20000.00
01457               2.40   -19200.00
01458               2.00   -19200.00
01459               3.20   -18400.00
01460               2.80   -17600.00
01461               1.80   -17600.00
01462               2.00   -17600.00
01463               2.20   -16800.00
01464               1.80   -16000.00
01465               1.60   -15200.00
01466               2.20   -15200.00
01467               2.00   -14400.00
01468               1.00   -13600.00
01469               1.40   -12800.00
01470               1.80   -12800.00
01471               0.60   -12800.00
01472               1.60   -11200.00
01473               1.80   -11200.00
01474               0.20   -10400.00
01475               0.60    -9600.00
01476               1.00    -9600.00
01477               0.40    -8800.00
01478               0.60    -8000.00
01479               1.00    -7200.00
01480               0.40    -7200.00
01481               0.20    -6400.00
01482               0.20    -5600.00
01483               0.20    -4800.00
01484              -0.20    -4000.00
01485               0.20    -3200.00
01486               0.20    -3200.00
01487              -0.20    -2400.00
01488              -0.20    -1600.00
01489              -0.40    -1600.00
01490              -0.60     -800.00
01491              -0.20        0.00
01492               0.00        0.00
01493               0.60     1600.00
01494               3.40     1600.00
01495              -1.40     2400.00
01496              -1.80     3200.00
01497               1.00     3200.00
01498               0.20     4000.00
01499              -1.00     4800.00
01500              11.60     5600.00
01501              25.00     7200.00
01502             -25.00     8000.00
01503             -25.00     8000.00
01504              25.00     8000.00
01505               0.40     8000.00
01506             -25.00     8800.00
01507              25.00     9600.00
01508               7.60    10400.00
01509             -25.00    11200.00
01510              25.00    12000.00
01511             -25.00    12000.00
01512              -2.60    12800.00
01513              25.00    12800.00
01514             -25.00    13600.00
01515              25.00    14400.00
01516             -25.00    15200.00
01517             -25.00    15200.00
01518              25.00    16000.00
01519             -25.00    16000.00
01520               4.00    17600.00
01521              25.00    17600.00
01522             -25.00    18400.00
01523             -23.00    19200.00
01524              25.00    19200.00
01525             -20.40    20000.00
01526             -20.80    20800.00
01527              25.00    20800.00
01528             -25.00    22400.00
01529               6.80    22400.00
01530               0.00    22400.00
01531             -22.80    23200.00
01532              11.80    24000.00
01533              -7.00    24000.00
01534             -14.60    24800.00
01535              10.20    24800.00
01536              -3.60    24800.00
01537             -23.80    25600.00
01538              14.20    25600.00
01539             -12.00    26400.00
01540             -15.00    27200.00
01541               9.40    27200.00
01542             -12.00    27200.00
01543              -8.60    27200.00
01544              -0.40    28800.00
01545              -8.60    28800.00
01546              -9.20    28800.00
01547              -1.60    28800.00
01548              -9.20    28800.00
01549              -8.40    30400.00
01550              -4.20    30400.00
01551             -10.60    30400.00
01552              -7.40    31200.00
01553              -3.00    31200.00
01554             -12.40    31200.00
01555              -6.80    31200.00
01556              -6.40    31200.00
01557             -13.00    32000.00
01558              -5.80    32000.00
01559              -9.20    32800.00
01560             -10.80    32800.00
01561              -6.60    32800.00
01562              -9.80    33600.00
01563             -10.80    32800.00
01564              -9.80    33600.00
01565             -10.00    33600.00
01566             -10.20    33600.00
01567             -10.60    33600.00
01568             -10.20    33600.00
01569             -12.00    33600.00
01570             -10.20    33600.00
01571             -11.60    33600.00
01572             -12.40    33600.00
01573             -10.00    34400.00
01574             -13.00    33600.00
01575             -10.60    33600.00
01576             -11.00    33600.00
01577             -13.40    33600.00
01578             -10.20    33600.00
01579             -11.60    33600.00
01580             -12.20    33600.00
01581             -11.00    33600.00
01582             -11.00    33600.00
01583             -10.60    33600.00
01584             -10.60    33600.00
01585              -9.80    32800.00
01586             -10.20    32800.00
01587             -10.00    33600.00
01588              -9.40    32000.00
01589              -9.40    32800.00
01590              -8.60    32800.00
01591              -9.80    32000.00
01592              -9.00    32000.00
01593              -7.80    31200.00
01594              -9.00    31200.00
01595              -8.20    31200.00
01596              -7.80    31200.00
01597              -8.20    31200.00
01598              -7.00    30400.00
01599              -7.40    30400.00
01600              -7.40    30400.00
01601              -7.00    29600.00
01602              -7.00    28800.00
01603              -6.60    28800.00
01604              -6.80    28800.00
01605              -6.20    28000.00
01606              -6.20    28000.00
01607              -6.00    27200.00
01608              -5.80    27200.00
01609              -6.60    27200.00
01610              -5.20    25600.00
01611              -5.00    25600.00
01612              -5.20    25600.00
01613              -4.60    25600.00
01614              -5.80    24800.00
01615              -4.60    24000.00
01616              -4.20    24000.00
01617              -4.60    24000.00
01618              -4.40    23200.00
01619              -4.20    22400.00
01620              -3.80    22400.00
01621              -4.40    21600.00
01622              -3.80    21600.00
01623              -3.80    20800.00
01624              -3.60    19200.00
01625              -3.00    19200.00
01626              -3.60    18400.00
01627              -3.00    18400.00
01628              -2.80    17600.00
01629              -3.20    17600.00
01630              -2.80    16000.00
01631              -2.80    16000.00
01632              -2.80    16000.00
01633              -2.40    14400.00
01634              -2.60    14400.00
01635              -2.60    14400.00
01636              -2.40    13600.00
01637              -2.20    12800.00
01638              -2.00    12000.00
01639              -1.60    12000.00
01640              -2.00    11200.00
01641              -2.00    11200.00
01642              -1.40     9600.00
01643              -1.00     8800.00
01644              -2.00     8800.00
01645              -1.40     8000.00
01646              -1.40     7200.00
01647              -1.80     7200.00
01648              -1.20     6400.00
01649              -0.60     5600.00
01650              -1.20     5600.00
01651              -1.00     4800.00
01652              -1.00     4000.00
01653              -0.40     3200.00
01654              -1.00     2400.00
01655              -1.20     1600.00
01656              -0.60     1600.00
01657               0.20      800.00
01658              -0.40        0.00
01659               0.00     -800.00
01660               2.80     -800.00
01661               2.00    -1600.00
01662              -2.20    -1600.00
01663               1.00    -2400.00
01664               1.80    -2400.00
01665               0.20    -4000.00
01666               1.80    -4000.00
01667              10.00    -4800.00
01668              25.00    -6400.00
01669             -12.80    -7200.00
01670             -25.00    -8000.00
01671              14.60    -8000.00
01672              19.80    -8800.00
01673             -25.00    -8800.00
01674              -3.80    -8000.00
01675              25.00   -10400.00
01676             -25.00   -10400.00
01677             -18.80   -11200.00
01678              25.00   -12000.00
01679             -25.00   -12800.00
01680               4.60   -12800.00
01681              17.40   -12800.00
01682              -9.20   -14400.00
01683              25.00   -14400.00
01684             -25.00   -16000.00
01685              25.00   -16000.00
01686              21.80   -16000.00
01687             -25.00   -16800.00
01688              23.60   -17600.00
01689              24.20   -17600.00
01690             -25.00   -18400.00
01691               2.20   -18400.00
01692              25.00   -19200.00
01693             -25.00   -20000.00
01694               7.80   -20000.00
01695              25.00   -20800.00
01696             -16.20   -21600.00
01697              10.60   -21600.00
01698               5.80   -22400.00
01699              -4.40   -23200.00
01700               8.20   -23200.00
01701               5.80   -24000.00
01702               0.20   -24000.00
01703              13.00   -24800.00
01704               0.40   -24800.00
01705              -1.20   -24800.00
01706              15.40   -25600.00
01707              -3.60   -26400.00
01708               5.00   -27200.00
01709              13.00   -27200.00
01710               0.20   -27200.00
01711               5.40   -27200.00
01712               9.80   -28000.00
01713               3.00   -28000.00
01714               5.60   -28000.00
01715              10.00   -29600.00
01716               4.20   -28800.00
01717               6.00   -29600.00
01718               9.00   -30400.00
01719               5.00   -30400.00
01720               8.20   -30400.00
01721               9.20   -30400.00
01722               5.20   -30400.00
01723               9.40   -30400.00
01724               8.00   -31200.00
01725               6.40   -32000.00
01726               9.60   -32000.00
01727               8.20   -32000.00
01728               9.40   -32000.00
01729              10.00   -32000.00
01730               8.20   -32800.00
01731               9.40   -32800.00
01732               9.80   -32800.00
01733               9.80   -32800.00
01734              10.00   -32800.00
01735              10.20   -32800.00
01736              10.80   -32800.00
01737              10.20   -32800.00
01738              11.00   -33600.00
01739              10.00   -32800.00
01740              11.00   -32800.00
01741              11.60   -32800.00
01742              10.00   -32800.00
01743              12.20   -33600.00
01744              10.80   -32800.00
01745              10.60   -32800.00
01746              11.80   -32800.00
01747              10.60   -32800.00
01748              10.60   -32800.00
01749              10.20   -32000.00
01750              10.20   -32800.00
01751               9.40   -32800.00
01752               9.60   -32800.00
01753               9.80   -32000.00
01754               8.40   -32000.00
01755               9.20   -32000.00
01756               8.60   -32000.00
01757               8.40   -32000.00
01758               8.40   -30400.00
01759               7.80   -31200.00
01760               8.40   -30400.00
01761               7.60   -30400.00
01762               7.00   -30400.00
01763               7.40   -30400.00
01764               7.20   -29600.00
01765               6.80   -29600.00
01766               6.80   -28800.00
01767               6.00   -28800.00
01768               6.00   -28800.00
01769               5.80   -28800.00
01770               6.20   -28000.00
01771               5.80   -27200.00
01772               5.40   -27200.00
01773               5.80   -27200.00
01774               5.40   -26400.00
01775               4.60   -26400.00
01776               5.00   -26400.00
01777               5.00   -25600.00
01778               4.80   -25600.00
01779               4.40   -25600.00
01780               4.40   -24000.00
01781               3.80   -24000.00
01782               3.40   -23200.00
01783               4.00   -24000.00
01784               3.40   -23200.00
01785               3.40   -22400.00
01786               3.40   -21600.00
01787               3.20   -20800.00
01788               3.40   -20800.00
01789               2.80   -20000.00
01790               2.60   -20000.00
01791               3.00   -20000.00
01792               2.60   -18400.00
01793               2.60   -17600.00
01794               2.20   -17600.00
01795               2.00   -16800.00
01796               2.20   -16800.00
01797               2.00   -16000.00
01798               1.80   -16000.00
01799               2.00   -14400.00
01800               1.80   -14400.00
01801               1.60   -13600.00
01802               1.20   -12800.00
01803               1.80   -12800.00
01804               1.00   -12800.00
01805               1.20   -11200.00
01806               1.40   -11200.00
01807               0.60   -10400.00
01808               1.40    -9600.00
01809               0.40    -9600.00
01810               0.60    -8000.00
01811               1.20    -8000.00
01812               0.40    -7200.00
01813               0.40    -7200.00
01814               1.00    -6400.00
01815               0.20    -4800.00
01816               0.20    -4800.00
01817              -0.20    -4000.00
01818              -0.20    -4000.00
01819               0.40    -3200.00
01820               0.00    -2400.00
01821              -0.20    -1600.00
01822               0.20    -1600.00
01823              -0.20     -800.00
01824              -0.40        0.00
01825               0.40      800.00
01826               0.20     1600.00
01827               2.60     1600.00
01828               0.60     2400.00
01829              -2.60     3200.00
01830               0.40     3200.00
01831               0.80     4000.00
01832              -2.20     4000.00
01833               6.60     4800.00
01834              25.00     7200.00
01835              -7.60     7200.00
01836             -25.00     8000.00
01837              11.40     8000.00
01838              18.60     8000.00
01839             -25.00     8800.00
01840              25.00    10400.00
01841              25.00     9600.00
01842             -25.00    10400.00
01843              25.00    11200.00
01844               7.60    11200.00
01845             -25.00    12800.00
01846              25.00    12800.00
01847             -25.00    12800.00
01848              25.00    14400.00
01849              15.40    15200.00
01850             -25.00    16000.00
01851              25.00    15200.00
01852             -25.00    16000.00
01853             -25.00    17600.00
01854              25.00    17600.00
01855             -13.00    18400.00
01856             -25.00    18400.00
01857              25.00    19200.00
01858               6.00    19200.00
01859             -25.00    20800.00
01860              25.00    21600.00
01861             -12.80    21600.00
01862             -11.00    22400.00
01863              15.00    22400.00
01864             -25.00    22400.00
01865               5.00    24000.00
01866               1.00    24000.00
01867             -17.20    24000.00
01868               2.60    24800.00
01869               7.80    24800.00
01870             -24.60    25600.00
01871               5.80    26400.00
01872               0.40    25600.00
01873             -23.20    26400.00
01874               8.40    27200.00
01875              -6.80    27200.00
01876             -13.20    28000.00
01877               1.20    28000.00
01878              -5.80    28800.00
01879             -12.00    28800.00
01880              -2.60    28800.00
01881              -5.60    29600.00
01882             -10.80    30400.00
01883              -5.40    30400.00
01884              -6.00    31200.00
01885             -10.20    30400.00
01886              -4.40    31200.00
01887              -7.60    31200.00
01888              -9.40    32000.00
01889              -6.60    32000.00
01890             -10.80    32000.00
01891              -6.80    32800.00
01892              -9.00    32000.00
01893             -11.00    32800.00
01894              -6.20    32800.00
01895             -10.20    32800.00
01896             -10.80    32800.00
01897              -9.40    33600.00
01898             -10.60    33600.00
01899              -9.40    33600.00
01900             -10.20    33600.00
01901             -10.80    33600.00
01902             -11.80    33600.00
01903              -9.80    33600.00
01904             -10.60    33600.00
01905             -12.60    33600.00
01906             -10.00    33600.00
01907             -13.00    33600.00
01908             -11.60    34400.00
01909             -10.20    33600.00
01910             -13.40    33600.00
01911             -10.60    33600.00
01912             -11.40    33600.00
01913             -12.40    33600.00
01914             -10.80    33600.00
01915             -12.20    33600.00
01916             -11.40    33600.00
01917             -10.00    33600.00
01918             -10.00    33600.00
01919             -10.80    32800.00
01920              -9.20    32800.00
01921              -9.20    32800.00
01922             -10.80    32800.00
01923              -9.20    32000.00
01924              -9.20    32000.00
01925              -9.80    32000.00
01926              -8.20    32000.00
01927              -8.40    32000.00
01928              -8.20    31200.00
01929              -8.20    31200.00
01930              -8.60    31200.00
01931              -7.00    30400.00
01932              -7.40    30400.00
01933              -7.80    30400.00
01934              -7.00    30400.00
01935              -6.80    29600.00
01936              -6.60    28800.00
01937              -6.80    28800.00
01938              -6.00    28000.00
01939              -6.20    27200.00
01940              -6.40    27200.00
01941              -5.40    28000.00
01942              -6.20    27200.00
01943              -6.00    26400.00
01944              -4.60    25600.00
01945              -5.00    25600.00
01946              -4.60    25600.00
01947              -5.40    24800.00
01948              -5.20    24800.00
01949              -4.40    24000.00
01950              -4.60    24000.00
01951              -4.20    23200.00
01952              -3.80    22400.00
01953              -4.20    22400.00
01954              -4.00    21600.00
01955              -3.80    21600.00
01956              -4.20    20800.00
01957              -3.80    20800.00
01958              -3.00    19200.00
01959              -3.40    19200.00
01960              -3.40    19200.00
01961              -2.60    18400.00
01962              -3.40    17600.00
01963              -2.80    17600.00
01964              -2.60    16000.00
01965              -3.00    16000.00
01966              -2.20    16000.00
01967              -2.80    14400.00
01968              -2.20    14400.00
01969              -2.60    13600.00
01970              -2.80    12800.00
01971              -1.80    12800.00
01972              -2.00    12000.00
01973              -2.00    12000.00
01974              -1.40    11200.00
01975              -2.20     9600.00
01976              -1.20     9600.00
01977              -1.20     8800.00
01978              -1.60     8800.00
01979              -1.20     8000.00
01980              -2.20     8000.00
01981              -1.20     6400.00
01982              -1.00     5600.00
01983              -1.40     5600.00
01984              -1.00     4800.00
01985              -0.60     4000.00
01986              -1.00     4000.00
01987              -1.00     3200.00
01988              -1.00     1600.00
01989              -1.00     1600.00
01990               0.00      800.00
01991               0.20        0.00
01992              -0.20        0.00
01993               1.80        0.00
01994               4.20    -1600.00
01995              -1.80    -1600.00
01996               0.20    -2400.00
01997               2.00    -3200.00
01998               0.40    -3200.00
01999               0.20    -4000.00
02000               6.80    -4800.00
02001              23.20    -5600.00
02002               9.00    -7200.00
02003             -25.00    -8000.00
02004              -4.00    -8000.00
02005              25.00    -8000.00
02006             -24.40    -8000.00
02007             -25.00    -8000.00
02008              25.00    -9600.00
02009               5.00   -10400.00
02010             -25.00   -10400.00
02011              25.00   -12000.00
02012             -13.80   -12000.00
02013             -25.00   -12800.00
02014              25.00   -13600.00
02015             -19.00   -13600.00
02016              25.00   -14400.00
02017             -22.00   -14400.00
02018              -0.20   -16000.00
02019              25.00   -16000.00
02020             -25.00   -16000.00
02021               2.60   -16800.00
02022              25.00   -17600.00
02023             -18.80   -17600.00
02024             -14.20   -18400.00
02025              25.00   -19200.00
02026             -11.00   -20000.00
02027             -12.00   -20000.00
02028              25.00   -20800.00
02029             -10.40   -21600.00
02030               0.00   -22400.00
02031              14.00   -22400.00
02032              -6.60   -23200.00
02033               5.20   -23200.00
02034               9.00   -23200.00
02035              -1.00   -24000.00
02036               9.00   -24000.00
02037               8.20   -25600.00
02038              -5.60   -25600.00
02039              13.80   -25600.00
02040               3.40   -26400.00
02041              -1.00   -26400.00
02042              13.80   -27200.00
02043               2.60   -27200.00
02044               2.80   -27200.00
02045               9.80   -28800.00
02046               5.20   -28800.00
02047               3.60   -28800.00
02048               9.40   -28800.00
02049               5.80   -28800.00
02050               4.40   -29600.00
02051               9.40   -29600.00
02052               5.20   -29600.00
02053               6.60   -30400.00
02054              10.00   -30400.00
02055               5.80   -30400.00
02056               8.20   -31200.00
02057              10.00   -32000.00
02058               5.80   -31200.00
02059               9.00   -32000.00
02060               9.00   -32000.00
02061               8.40   -32000.00
02062              10.20   -32000.00
02063               8.60   -32800.00
02064               9.00   -32000.00
02065               9.40   -32800.00
02066               9.40   -32800.00
02067              10.00   -32800.00
02068               9.80   -32800.00
02069              11.40   -32800.00
02070              10.60   -32800.00
02071              11.40   -32800.00
02072              10.60   -32800.00
02073              10.80   -32800.00
02074              12.20   -32800.00
02075              10.20   -33600.00
02076              11.40   -32800.00
02077              11.80   -33600.00
02078              10.20   -32800.00
02079              11.60   -32800.00
02080              11.00   -32800.00
02081              10.40   -32800.00
02082              10.60   -32800.00
02083              10.20   -32800.00
02084              10.00   -32800.00
02085               9.40   -32000.00
02086               9.80   -32000.00
02087               9.20   -32000.00
02088               9.20   -32000.00
02089               9.20   -32000.00
02090               8.40   -32000.00
02091               8.40   -31200.00
02092               8.20   -30400.00
02093               7.60   -30400.00
02094               7.80   -30400.00
02095               7.40   -30400.00
02096               7.40   -30400.00
02097               7.80   -29600.00
02098               6.80   -29600.00
02099               6.80   -29600.00
02100               6.60   -28800.00
02101               6.40   -28800.00
02102               6.60   -28000.00
02103               6.00   -28800.00
02104               5.60   -28000.00
02105               5.20   -27200.00
02106               5.40   -27200.00
02107               5.60   -27200.00
02108               5.00   -26400.00
02109               4.60   -27200.00
02110               4.60   -25600.00
02111               4.60   -25600.00
02112               4.20   -25600.00
02113               4.40   -24000.00
02114               4.00   -24000.00
02115               3.80   -24000.00
02116               4.00   -23200.00
02117               3.40   -23200.00
02118               3.60   -22400.00
02119               3.60   -22400.00
02120               3.40   -21600.00
02121               3.00   -20800.00
02122               3.40   -20000.00
02123               2.20   -19200.00
02124               2.80   -19200.00
02125               2.80   -18400.00
02126               2.00   -17600.00
02127               2.60   -17600.00
02128               2.60   -17600.00
02129               1.80   -16800.00
02130               2.00   -16000.00
02131               2.00   -16000.00
02132               1.80   -15200.00
02133               2.00   -14400.00
02134               1.40   -14400.00
02135               1.20   -13600.00
02136               1.80   -12800.00
02137               1.20   -12800.00
02138               1.00   -11200.00
02139               1.80   -11200.00
02140               0.60   -10400.00
02141               1.00   -10400.00
02142               1.00    -9600.00
02143               0.40    -8000.00
02144               1.00    -8000.00
02145               0.60    -7200.00
02146               0.60    -7200.00
02147               0.60    -6400.00
02148               0.20    -5600.00
02149               0.60    -4800.00
02150               0.20    -4000.00
02151               0.20    -3200.00
02152               0.20    -4000.00
02153               0.20    -2400.00
02154              -0.20    -2400.00
02155              -0.20    -1600.00
02156              -0.40     -800.00
02157              -0.40        0.00
02158               0.00        0.00
02159               0.40     1600.00
02160               1.80     1600.00
02161               2.20     1600.00
02162              -2.80     2400.00
02163              -0.40     3200.00
02164               1.00     4800.00
02165              -1.80     4000.00
02166               2.40     4800.00
02167              22.80     7200.00
02168              17.40     7200.00
02169             -25.00     8000.00
02170              -9.80     8800.00
02171              25.00     8800.00
02172             -25.00     8800.00
02173             -13.00     9600.00
02174              25.00    10400.00
02175             -25.00     9600.00
02176              10.80    11200.00
02177              25.00    12000.00
02178             -25.00    12000.00
02179              25.00    12800.00
02180             -25.00    13600.00
02181               0.20    14400.00
02182              25.00    14400.00
02183             -25.00    15200.00
02184              25.00    16000.00
02185              25.00    16000.00
02186             -25.00    17600.00
02187              25.00    17600.00
02188              12.20    18400.00
02189             -25.00    18400.00
02190               5.80    19200.00
02191              25.00    19200.00
02192             -25.00    19200.00
02193              14.60    21600.00
02194              12.00    20800.00
02195             -25.00    21600.00
02196              20.60    22400.00
02197             -21.20    23200.00
02198              -7.00    22400.00
02199               7.80    24000.00
02200             -15.20    24800.00
02201              -4.60    24800.00
02202              13.80    25600.00
02203             -19.80    24800.00
02204              -7.60    26400.00
02205              11.60    25600.00
02206             -24.40    27200.00
02207               0.60    27200.00
02208               3.00    27200.00
02209             -15.40    28000.00
02210              -2.80    28000.00
02211              -2.20    28800.00
02212             -11.40    28800.00
02213              -5.40    28800.00
02214              -3.60    29600.00
02215             -10.60    30400.00
02216              -5.40    30400.00
02217              -6.00    30400.00
02218             -11.00    31200.00
02219              -3.80    31200.00
02220              -7.00    31200.00
02221             -11.60    32000.00
02222              -3.60    32000.00
02223             -10.60    32800.00
02224             -10.80    32000.00
02225              -5.80    32800.00
02226             -11.40    32800.00
02227              -8.20    32800.00
02228              -7.00    33600.00
02229             -11.00    33600.00
02230             -10.20    33600.00
02231             -10.60    32800.00
02232             -10.80    33600.00
02233              -9.40    33600.00
02234              -9.80    33600.00
02235             -11.20    33600.00
02236             -10.80    34400.00
02237             -10.20    33600.00
02238             -13.40    33600.00
02239             -10.80    33600.00
02240             -11.60    33600.00
02241             -13.00    33600.00
02242              -9.20    33600.00
02243             -12.80    34400.00
02244             -12.40    33600.00
02245             -10.20    33600.00
02246             -12.40    33600.00
02247             -11.00    33600.00
02248             -11.40    33600.00
02249             -11.00    33600.00
02250             -11.00    33600.00
02251             -10.80    33600.00
02252              -9.80    32800.00
02253             -10.00    33600.00
02254              -9.80    32800.00
02255              -9.40    32800.00
02256              -8.80    32000.00
02257              -9.20    32800.00
02258             -10.00    32000.00
02259              -8.20    32000.00
02260              -8.00    32000.00
02261              -8.60    31200.00
02262              -8.20    31200.00
02263              -7.80    30400.00
02264              -7.80    30400.00
02265              -7.60    30400.00
02266              -7.40    30400.00
02267              -7.00    29600.00
02268              -7.40    28800.00
02269              -6.60    28800.00
02270              -6.00    28800.00
02271              -7.00    28800.00
02272              -6.00    28000.00
02273              -5.40    27200.00
02274              -6.00    27200.00
02275              -6.20    27200.00
02276              -5.80    27200.00
02277              -5.00    26400.00
02278              -5.80    25600.00
02279              -4.60    25600.00
02280              -5.00    24800.00
02281              -5.40    24800.00
02282              -3.80    24000.00
02283              -4.40    24000.00
02284              -4.40    24000.00
02285              -4.20    23200.00
02286              -4.00    22400.00
02287              -3.80    22400.00
02288              -4.20    21600.00
02289              -3.80    20800.00
02290              -3.80    20000.00
02291              -3.40    19200.00
02292              -3.40    19200.00
02293              -3.40    18400.00
02294              -3.00    18400.00
02295              -3.20    17600.00
02296              -3.00    17600.00
02297              -3.00    17600.00
02298              -3.20    16000.00
02299              -2.00    16000.00
02300              -2.60    15200.00
02301              -2.80    14400.00
02302              -1.80    14400.00
02303              -2.40    12800.00
02304              -3.40    12800.00
02305              -1.80    12000.00
02306              -1.80    12000.00
02307              -2.20    11200.00
02308              -2.60    10400.00
02309              -1.20     9600.00
02310              -1.80     9600.00
02311              -2.20     8800.00
02312              -1.40     8000.00
02313              -1.20     7200.00
02314              -1.40     6400.00
02315              -1.40     6400.00
02316              -0.60     5600.00
02317              -1.20     4800.00
02318              -1.80     4000.00
02319              -0.60     3200.00
02320              -0.60     3200.00
02321              -1.20     2400.00
02322              -1.20     1600.00
02323               0.00      800.00
02324              -0.20      800.00
02325              -0.60        0.00
02326               0.60     -800.00
02327               4.40     -800.00
02328              -1.00    -1600.00
02329              -1.00    -1600.00
02330               1.80    -3200.00
02331               1.20    -3200.00
02332               0.00    -4000.00
02333               4.60    -4000.00
02334              17.20    -4800.00
02335              23.40    -6400.00
02336             -25.00    -8000.00
02337             -23.80    -8000.00
02338              25.00    -8000.00
02339              -3.00    -8800.00
02340             -25.00    -8000.00
02341              25.00    -9600.00
02342              25.00   -10400.00
02343             -25.00   -10400.00
02344              25.00   -11200.00
02345              25.00   -11200.00
02346             -25.00   -12800.00
02347              25.00   -12800.00
02348             -11.60   -13600.00
02349              14.80   -14400.00
02350               0.20   -15200.00
02351             -25.00   -15200.00
02352              25.00   -16000.00
02353             -16.40   -16000.00
02354             -20.20   -17600.00
02355              25.00   -17600.00
02356              -1.40   -17600.00
02357             -25.00   -19200.00
02358              25.00   -18400.00
02359              11.80   -20000.00
02360             -25.00   -20000.00
02361              25.00   -20800.00
02362               4.40   -20800.00
02363             -10.20   -21600.00
02364              16.60   -22400.00
02365              -2.60   -22400.00
02366               1.20   -23200.00
02367               9.20   -24000.00
02368               2.00   -24000.00
02369               3.80   -24000.00
02370              12.40   -24800.00
02371              -5.80   -25600.00
02372               8.20   -25600.00
02373               9.40   -26400.00
02374              -5.40   -26400.00
02375              12.40   -27200.00
02376               7.40   -27200.00
02377               1.00   -27200.00
02378               8.40   -28800.00
02379               7.40   -28000.00
02380               1.80   -28800.00
02381               7.80   -28800.00
02382               7.80   -29600.00
02383               4.40   -29600.00
02384               8.40   -28800.00
02385               6.80   -30400.00
02386               4.80   -30400.00
02387               9.40   -31200.00
02388               6.80   -30400.00
02389               6.60   -30400.00
02390              10.80   -31200.00
02391               5.80   -31200.00
02392               8.20   -32000.00
02393               9.80   -32000.00
02394               7.00   -32000.00
02395              10.80   -32000.00
02396               9.40   -32000.00
02397               8.40   -32000.00
02398              10.00   -32800.00
02399               9.60   -32800.00
02400               9.80   -32800.00
02401              10.20   -32800.00
02402              10.60   -33600.00
02403              10.60   -32800.00
02404              11.40   -32800.00
02405              10.80   -32800.00
02406              10.00   -32800.00
02407              12.20   -32800.00
02408              10.60   -32800.00
02409              10.80   -32800.00
02410              12.60   -32800.00
02411              10.60   -32800.00
02412              11.20   -32800.00
02413              11.80   -33600.00
02414              10.20   -32800.00
02415              10.20   -32800.00
02416              10.60   -32800.00
02417              10.20   -32000.00
02418               9.20   -32800.00
02419              10.00   -32800.00
02420               9.60   -32800.00
02421               9.20   -32000.00
02422               9.20   -32000.00
02423               8.40   -32000.00
02424               8.40   -32000.00
02425               8.20   -31200.00
02426               7.60   -30400.00
02427               8.60   -30400.00
02428               7.60   -30400.00
02429               7.40   -30400.00
02430               7.40   -29600.00
02431               6.60   -29600.00
02432               6.60   -29600.00
02433               6.80   -29600.00
02434               6.00   -28800.00
02435               6.20   -28800.00
02436               6.00   -28800.00
02437               5.20   -28800.00
02438               5.20   -28000.00
02439               5.80   -27200.00
02440               5.40   -27200.00
02441               5.20   -27200.00
02442               5.20   -26400.00
02443               4.20   -25600.00
02444               4.60   -25600.00
02445               5.00   -25600.00
02446               4.00   -24000.00
02447               4.40   -24800.00
02448               4.20   -24000.00
02449               3.40   -24000.00
02450               3.60   -23200.00
02451               3.40   -22400.00
02452               3.00   -22400.00
02453               3.40   -21600.00
02454               3.40   -20800.00
02455               3.20   -20000.00
02456               2.80   -20000.00
02457               2.60   -19200.00
02458               3.00   -19200.00
02459               2.80   -18400.00
02460               2.60   -17600.00
02461               2.40   -17600.00
02462               2.20   -17600.00
02463               1.80   -16000.00
02464               2.00   -16000.00
02465               2.00   -16000.00
02466               1.80   -15200.00
02467               1.80   -14400.00
02468               1.80   -13600.00
02469               1.40   -13600.00
02470               1.00   -12800.00
02471               1.40   -12000.00
02472               1.80   -11200.00
02473               1.40   -10400.00
02474               1.20   -10400.00
02475               1.00    -9600.00
02476               0.60    -9600.00
02477               1.00    -8000.00
02478               0.60    -8000.00
02479               0.20    -7200.00
02480               0.60    -6400.00
02481               0.20    -6400.00
02482               0.20    -4800.00
02483               0.40    -4800.00
02484              -0.20    -3200.00
02485               0.40    -3200.00
02486               0.60    -3200.00
02487              -0.20    -2400.00
02488              -0.40    -1600.00
02489               0.00    -1600.00
02490              -0.40        0.00
02491              -0.20        0.00
02492              -0.40      800.00
02493               0.60     1600.00
02494               3.60     2400.00
02495              -2.40     2400.00
02496              -1.20     3200.00
02497               1.20     3200.00
02498              -0.60     4000.00
02499              -0.60     4800.00
02500              13.80     5600.00
02501              25.00     7200.00
02502             -25.00     8000.00
02503             -25.00     8000.00
02504              25.00     8000.00
02505              -8.60     8800.00
02506             -25.00     9600.00
02507              25.00     9600.00
02508             -13.40    10400.00
02509             -25.00    11200.00
02510              25.00    12000.00
02511             -25.00    12000.00
02512              14.20    12800.00
02513              13.20    13600.00
02514             -25.00    13600.00
02515              25.00    14400.00
02516             -25.00    15200.00
02517              -2.20    16000.00
02518              25.00    16000.00
02519             -25.00    16000.00
02520              17.40    17600.00
02521              25.00    17600.00
02522             -25.00    18400.00
02523             -16.20    18400.00
02524              25.00    20000.00
02525             -25.00    20000.00
02526             -11.00    20800.00
02527              25.00    21600.00
02528             -25.00    21600.00
02529              12.60    22400.00
02530              -6.40    22400.00
02531             -19.60    24000.00
02532              11.80    24000.00
02533              -9.20    24000.00
02534             -12.60    24800.00
02535              12.20    24800.00
02536              -8.40    24800.00
02537             -20.60    25600.00
02538              15.80    25600.00
02539             -16.40    26400.00
02540             -10.80    27200.00
02541               9.00    27200.00
02542             -13.40    28000.00
02543              -7.40    28000.00
02544              -0.60    28800.00
02545              -9.00    28000.00
02546              -8.20    28800.00
02547              -1.80    29600.00
02548              -9.20    30400.00
02549              -7.60    29600.00
02550              -4.40    31200.00
02551             -10.60    31200.00
02552              -6.60    31200.00
02553              -3.80    31200.00
02554             -12.60    31200.00
02555              -5.40    31200.00
02556              -6.80    32800.00
02557             -13.00    32800.00
02558              -5.40    32000.00
02559              -9.60    32800.00
02560             -10.80    32800.00
02561              -6.80    32800.00
02562              -9.80    32800.00
02563             -11.00    33600.00
02564             -10.00    33600.00
02565             -10.00    33600.00
02566             -10.80    32800.00
02567             -10.60    33600.00
02568             -10.20    33600.00
02569             -12.00    34400.00
02570             -10.00    33600.00
02571             -11.80    33600.00
02572             -12.20    33600.00
02573             -10.80    33600.00
02574             -13.40    34400.00
02575             -10.20    33600.00
02576             -11.40    33600.00
02577             -13.20    33600.00
02578             -10.20    33600.00
02579             -11.80    34400.00
02580             -11.60    33600.00
02581             -11.40    33600.00
02582             -11.20    33600.00
02583             -10.80    33600.00
02584             -10.80    33600.00
02585             -10.00    32800.00
02586             -10.60    33600.00
02587             -10.00    32800.00
02588              -9.60    32800.00
02589              -9.40    32800.00
02590              -8.60    32800.00
02591             -10.00    32000.00
02592              -8.60    32800.00
02593              -8.40    32000.00
02594              -8.20    32000.00
02595              -7.80    31200.00
02596              -7.80    31200.00
02597              -7.60    31200.00
02598              -7.40    30400.00
02599              -7.40    30400.00
02600              -7.60    30400.00
02601              -7.00    29600.00
02602              -6.60    28800.00
02603              -6.60    28800.00
02604              -6.80    28800.00
02605              -5.80    28000.00
02606              -5.80    28000.00
02607              -6.20    27200.00
02608              -5.20    27200.00
02609              -5.80    27200.00
02610              -5.20    25600.00
02611              -5.40    25600.00
02612              -4.60    25600.00
02613              -4.60    24800.00
02614              -6.00    24800.00
02615              -4.40    24000.00
02616              -3.80    24000.00
02617              -5.20    24000.00
02618              -4.40    23200.00
02619              -3.60    22400.00
02620              -4.20    22400.00
02621              -5.00    21600.00
02622              -3.40    21600.00
02623              -3.60    20800.00
02624              -4.40    20000.00
02625              -2.60    20000.00
02626              -3.00    19200.00
02627              -3.80    18400.00
02628              -2.80    18400.00
02629              -3.40    17600.00
02630              -2.60    16800.00
02631              -3.00    16000.00
02632              -3.40    15200.00
02633              -2.20    15200.00
02634              -2.80    14400.00
02635              -3.00    13600.00
02636              -1.80    13600.00
02637              -2.60    12800.00
02638              -3.00    12000.00
02639              -1.00    12000.00
02640              -2.60    11200.00
02641              -3.20    10400.00
02642              -0.60     9600.00
02643              -1.80     9600.00
02644              -2.60     8800.00
02645              -0.40     8000.00
02646              -1.80     8000.00
02647              -2.60     6400.00
02648              -0.40     7200.00
02649              -1.40     6400.00
02650              -1.80     4800.00
02651              -0.40     4800.00
02652              -1.00     4000.00
02653              -1.40     3200.00
02654              -0.60     2400.00
02655              -1.20     1600.00
02656              -0.60     1600.00
02657               0.00      800.00
02658               0.20        0.00
02659               0.40     -800.00
02660               3.00     -800.00
02661               1.60    -1600.00
02662              -1.40    -2400.00
02663               1.20    -2400.00
02664               1.40    -3200.00
02665               0.20    -3200.00
02666               1.80    -4000.00
02667              11.20    -4000.00
02668              25.00    -6400.00
02669             -21.00    -8000.00
02670             -25.00    -8000.00
02671              20.40    -8000.00
02672              14.60    -8800.00
02673             -25.00    -8800.00
02674               8.40    -8800.00
02675              25.00   -10400.00
02676             -25.00   -10400.00
02677               1.20   -11200.00
02678              25.00   -12000.00
02679             -25.00   -12000.00
02680              15.60   -13600.00
02681               8.80   -12800.00
02682              -3.40   -13600.00
02683              20.20   -14400.00
02684             -25.00   -14400.00
02685              25.00   -16000.00
02686              11.60   -16000.00
02687             -25.00   -16800.00
02688              25.00   -16800.00
02689              17.40   -17600.00
02690             -25.00   -18400.00
02691               9.20   -19200.00
02692              25.00   -20000.00
02693             -25.00   -20000.00
02694              14.60   -20000.00
02695              20.40   -20800.00
02696             -15.80   -21600.00
02697              13.20   -22400.00
02698               3.00   -22400.00
02699              -3.20   -23200.00
02700               8.00   -24000.00
02701               4.60   -23200.00
02702               1.20   -24000.00
02703              13.40   -24800.00
02704              -1.80   -24800.00
02705               1.40   -25600.00
02706              14.60   -25600.00
02707              -5.40   -26400.00
02708               7.20   -27200.00
02709              11.00   -26400.00
02710               0.00   -27200.00
02711               6.20   -28000.00
02712               9.00   -28000.00
02713               2.60   -28800.00
02714               6.40   -28800.00
02715               9.20   -28800.00
02716               3.60   -29600.00
02717               6.80   -29600.00
02718               8.40   -29600.00
02719               5.00   -29600.00
02720               8.40   -30400.00
02721               8.60   -30400.00
02722               5.80   -31200.00
02723              10.00   -32000.00
02724               7.80   -30400.00
02725               6.60   -32000.00
02726               9.80   -32000.00
02727               8.40   -32000.00
02728               9.40   -32000.00
02729               9.80   -32800.00
02730               8.80   -32800.00
02731               9.40   -32800.00
02732               9.80   -32800.00
02733              10.00   -32800.00
02734              10.00   -32800.00
02735              10.80   -32800.00
02736              11.00   -32800.00
02737              10.40   -32800.00
02738              11.00   -32800.00
02739              10.60   -32800.00
02740              11.60   -32800.00
02741              11.60   -32800.00
02742              10.60   -33600.00
02743              12.60   -32800.00
02744              10.80   -32800.00
02745              10.60   -32800.00
02746              11.40   -32800.00
02747              11.00   -33600.00
02748              10.60   -32800.00
02749              10.00   -32800.00
02750              10.60   -32000.00
02751               9.80   -32800.00
02752              10.00   -32800.00
02753              10.00   -32800.00
02754               9.00   -32000.00
02755               9.80   -32000.00
02756               8.80   -32000.00
02757               8.60   -32000.00
02758               8.60   -31200.00
02759               4.20   -31200.00
02760              13.40   -31200.00
02761              -0.60   -30400.00
02762               9.80   -30400.00
02763               9.00   -30400.00
02764               8.60   -29600.00
02765              11.80   -29600.00
02766               0.40   -28800.00
02767              12.20   -28800.00
02768              -0.40   -28800.00
02769               3.20   -28800.00
02770              10.00   -28000.00
02771               2.40   -27200.00
02772               7.40   -27200.00
02773               6.20   -27200.00
02774               6.60   -26400.00
02775               4.00   -26400.00
02776               6.80   -25600.00
02777               5.00   -25600.00
02778               0.40   -25600.00
02779               3.80   -25600.00
02780               5.80   -24000.00
02781               2.80   -24000.00
02782               2.40   -23200.00
02783               7.40   -23200.00
02784               6.60   -23200.00
02785               0.20   -22400.00
02786               3.80   -22400.00
02787               2.00   -21600.00
02788               1.00   -20800.00
02789               3.60   -20000.00
02790               2.00   -20000.00
02791               4.20   -18400.00
02792               4.20   -18400.00
02793               1.80   -18400.00
02794               2.80   -17600.00
02795               3.60   -17600.00
02796               0.60   -16800.00
02797               1.00   -16000.00
02798               2.00   -15200.00
02799               0.60   -14400.00
02800               2.60   -14400.00
02801               3.60   -14400.00
02802               1.20   -12800.00
02803               2.00   -12800.00
02804               1.00   -12800.00
02805               0.40   -11200.00
02806               1.00   -11200.00
02807              -0.20   -10400.00
02808               1.60    -9600.00
02809               1.60    -9600.00
02810               1.00    -8000.00
02811               2.00    -8000.00
02812               1.00    -7200.00
02813              -0.40    -6400.00
02814               0.40    -6400.00
02815               0.40    -4800.00
02816              -0.80    -5600.00
02817               0.20    -4000.00
02818               1.00    -3200.00
02819               0.60    -3200.00
02820               0.40    -2400.00
02821              -0.40    -1600.00
02822              -0.60     -800.00
02823              -0.40     -800.00
02824              -0.60        0.00
02825              -0.20      800.00
02826               0.60     1600.00
02827               3.00     1600.00
02828              -0.40     2400.00
02829              -2.60     2400.00
02830               0.20     3200.00
02831               0.20     3200.00
02832              -2.20     4000.00
02833               7.80     5600.00
02834              25.00     7200.00
02835             -17.80     8000.00
02836             -25.00     8000.00
02837              17.20     8800.00
02838              12.20     8800.00
02839             -25.00     8800.00
02840              25.00    10400.00
02841              25.00    10400.00
02842             -25.00    11200.00
02843              25.00    12000.00
02844             -13.80    12000.00
02845             -25.00    12800.00
02846              25.00    12800.00
02847             -25.00    14400.00
02848              25.00    14400.00
02849              -8.40    14400.00
02850             -25.00    16000.00
02851              25.00    16800.00
02852             -25.00    16800.00
02853             -21.20    17600.00
02854              25.00    17600.00
02855             -21.40    17600.00
02856             -25.00    19200.00
02857              25.00    19200.00
02858              -3.80    19200.00
02859             -25.00    20000.00
02860              25.00    21600.00
02861             -20.40    21600.00
02862              -3.80    22400.00
02863              10.80    22400.00
02864             -25.00    23200.00
02865               8.20    24000.00
02866              -2.20    24000.00
02867             -17.20    24800.00
02868               6.00    24800.00
02869               4.20    24800.00
02870             -25.00    25600.00
02871              10.20    25600.00
02872              -3.00    27200.00
02873             -21.20    27200.00
02874               8.60    27200.00
02875              -8.40    27200.00
02876             -11.00    28000.00
02877               0.40    28000.00
02878              -6.80    28000.00
02879             -10.20    28800.00
02880              -1.80    28800.00
02881              -7.60    29600.00
02882              -9.60    30400.00
02883              -3.80    30400.00
02884              -9.40    30400.00
02885              -9.20    30400.00
02886              -2.20    31200.00
02887             -11.00    31200.00
02888              -7.80    31200.00
02889              -4.20    32000.00
02890             -12.60    32000.00
02891              -7.60    32800.00
02892              -8.00    32000.00
02893             -11.60    32800.00
02894              -7.20    32800.00
02895              -9.40    32800.00
02896             -11.00    33600.00
02897              -9.80    32800.00
02898             -10.60    33600.00
02899             -10.60    33600.00
02900             -10.40    33600.00
02901             -10.20    33600.00
02902             -11.80    33600.00
02903             -10.20    33600.00
02904             -11.40    33600.00
02905             -12.60    33600.00
02906             -10.20    34400.00
02907             -12.60    33600.00
02908             -11.00    33600.00
02909             -11.00    33600.00
02910             -13.40    33600.00
02911             -10.80    33600.00
02912             -11.60    33600.00
02913             -11.80    33600.00
02914             -11.20    33600.00
02915             -11.60    33600.00
02916             -10.60    33600.00
02917             -10.80    33600.00
02918             -10.00    33600.00
02919              -9.80    32800.00
02920             -10.20    33600.00
02921              -9.40    32800.00
02922              -9.60    32800.00
02923              -9.20    32000.00
02924              -9.20    32000.00
02925              -9.00    32000.00
02926              -8.00    32000.00
02927              -8.20    31200.00
02928              -8.00    31200.00
02929              -8.20    30400.00
02930              -7.80    31200.00
02931              -7.20    30400.00
02932              -7.40    30400.00
02933              -7.00    30400.00
02934              -7.00    29600.00
02935              -6.80    28800.00
02936              -6.00    28800.00
02937              -7.00    28000.00
02938              -6.60    28000.00
02939              -5.80    28800.00
02940              -5.80    28000.00
02941              -5.80    27200.00
02942              -6.20    27200.00
02943              -5.00    27200.00
02944              -4.80    25600.00
02945              -5.80    25600.00
02946              -4.40    25600.00
02947              -5.00    24800.00
02948              -5.40    24000.00
02949              -4.20    24000.00
02950              -4.40    24000.00
02951              -4.40    23200.00
02952              -3.80    22400.00
02953              -3.80    22400.00
02954              -4.40    21600.00
02955              -4.40    21600.00
02956              -3.80    20000.00
02957              -4.00    19200.00
02958              -3.40    19200.00
02959              -3.60    18400.00
02960              -3.40    17600.00
02961              -3.00    17600.00
02962              -3.80    17600.00
02963              -2.80    16000.00
02964              -2.80    16000.00
02965              -3.60    16000.00
02966              -2.80    15200.00
02967              -2.60    15200.00
02968              -2.40    14400.00
02969              -2.60    13600.00
02970              -2.20    12800.00
02971              -2.60    12800.00
02972              -2.00    12000.00
02973              -2.20    11200.00
02974              -2.20    10400.00
02975              -2.20     9600.00
02976              -1.20     8800.00
02977              -2.20     8800.00
02978              -1.60     8000.00
02979              -1.40     7200.00
02980              -1.20     8000.00
02981              -1.20     6400.00
02982              -0.60     6400.00
02983              -1.20     4800.00
02984              -0.60     5600.00
02985              -1.00     4000.00
02986              -0.60     3200.00
02987              -1.00     2400.00
02988              -1.20     1600.00
02989              -0.60     1600.00
02990              -0.40        0.00
02991              -0.60        0.00
02992               0.20        0.00
02993               2.00     -800.00
02994               3.40    -1600.00
02995              -1.40    -1600.00
02996               1.00    -2400.00
02997               1.80    -3200.00
02998               0.60    -3200.00
02999               0.60    -4000.00
03000               7.80    -4800.00
03001              25.00    -5600.00
03002               1.20    -7200.00
03003             -25.00    -8000.00
03004               3.60    -8000.00
03005              25.00    -8800.00
03006             -25.00    -9600.00
03007             -20.20    -8000.00
03008              25.00    -9600.00
03009             -14.20   -10400.00
03010             -25.00   -10400.00
03011              25.00   -11200.00
03012             -25.00   -12000.00
03013             -17.00   -12800.00
03014              25.00   -12800.00
03015             -16.60   -13600.00
03016              25.00   -14400.00
03017             -25.00   -15200.00
03018              10.80   -16000.00
03019              25.00   -16000.00
03020             -25.00   -16800.00
03021              10.60   -16800.00
03022              25.00   -17600.00
03023             -23.60   -18400.00
03024              -9.60   -19200.00
03025              25.00   -19200.00
03026             -18.20   -19200.00
03027              -5.40   -20800.00
03028              25.00   -20800.00
03029             -13.20   -20800.00
03030               4.00   -21600.00
03031              10.00   -22400.00
03032              -5.40   -23200.00
03033               6.60   -23200.00
03034               7.00   -24000.00
03035              -0.20   -24000.00
03036              10.60   -24000.00
03037               4.40   -24800.00
03038              -4.40   -25600.00
03039              15.00   -26400.00
03040               0.20   -26400.00
03041               0.80   -26400.00
03042              14.00   -26400.00
03043               1.20   -27200.00
03044               3.20   -27200.00
03045               9.80   -28000.00
03046               4.40   -28800.00
03047               4.40   -28800.00
03048               9.40   -28800.00
03049               5.00   -28800.00
03050               4.80   -30400.00
03051               9.40   -30400.00
03052               5.20   -30400.00
03053               7.00   -30400.00
03054              10.00   -30400.00
03055               5.40   -31200.00
03056               8.40   -30400.00
03057               9.20   -31200.00
03058               5.60   -32000.00
03059               9.20   -32000.00
03060               9.20   -32000.00
03061               8.60   -32800.00
03062              10.60   -32000.00
03063               9.00   -32000.00
03064               9.20   -32000.00
03065               9.80   -32800.00
03066              10.00   -32800.00
03067              10.00   -32800.00
03068              10.20   -33600.00
03069              11.60   -32800.00
03070              10.20   -32800.00
03071              11.00   -33600.00
03072              10.80   -32800.00
03073              10.80   -32800.00
03074              12.20   -33600.00
03075              10.20   -32800.00
03076              12.00   -33600.00
03077              11.60   -32800.00
03078              10.60   -32800.00
03079              11.60   -32800.00
03080              11.00   -32800.00
03081              10.20   -32800.00
03082              10.00   -32800.00
03083              10.20   -32800.00
03084               9.80   -32000.00
03085               9.20   -32000.00
03086               9.80   -32800.00
03087               9.00   -32000.00
03088               9.00   -32800.00
03089               9.00   -32000.00
03090               8.60   -32000.00
03091               8.40   -31200.00
03092               7.60   -31200.00
03093               8.00   -30400.00
03094               8.20   -31200.00
03095               6.80   -30400.00
03096               7.40   -30400.00
03097               7.40   -29600.00
03098               6.60   -29600.00
03099               6.80   -29600.00
03100               6.20   -28800.00
03101               6.00   -28800.00
03102               6.60   -28800.00
03103               5.80   -28800.00
03104               5.80   -28000.00
03105               5.20   -27200.00
03106               5.20   -27200.00
03107               5.40   -27200.00
03108               5.00   -26400.00
03109               4.40   -26400.00
03110               4.60   -25600.00
03111               5.00   -24800.00
03112               3.80   -25600.00
03113               4.40   -24000.00
03114               4.20   -24000.00
03115               3.80   -24000.00
03116               4.20   -23200.00
03117               3.60   -23200.00
03118               3.60   -22400.00
03119               3.80   -22400.00
03120               3.20   -20800.00
03121               3.20   -21600.00
03122               3.00   -20000.00
03123               2.80   -20000.00
03124               2.80   -18400.00
03125               3.00   -19200.00
03126               2.60   -18400.00
03127               2.20   -17600.00
03128               2.60   -17600.00
03129               2.40   -16800.00
03130               2.00   -16000.00
03131               2.20   -16000.00
03132               2.00   -15200.00
03133               1.80   -14400.00
03134               2.00   -14400.00
03135               1.80   -13600.00
03136               1.60   -12800.00
03137               1.20   -12800.00
03138               1.40   -11200.00
03139               1.80   -11200.00
03140               1.00   -10400.00
03141               1.20    -9600.00
03142               0.60    -9600.00
03143               0.80    -9600.00
03144               1.20    -8000.00
03145               0.40    -7200.00
03146               1.00    -7200.00
03147               0.60    -6400.00
03148               0.20    -6400.00
03149               0.40    -4800.00
03150               0.20    -4800.00
03151               0.00    -4000.00
03152               0.40    -3200.00
03153              -0.20    -3200.00
03154              -0.40    -1600.00
03155              -0.20     -800.00
03156              -0.20     -800.00
03157              -0.40     -800.00
03158              -0.20        0.00
03159              -0.40      800.00
03160               2.00     1600.00
03161               1.60     1600.00
03162              -3.00     2400.00
03163              -0.20     3200.00
03164               0.60     3200.00
03165              -2.20     4800.00
03166               3.80     4800.00
03167              25.00     7200.00
03168               8.20     7200.00
03169             -25.00     8000.00
03170              -1.00     8800.00
03171              25.00     8800.00
03172             -25.00     8800.00
03173               1.20     9600.00
03174              25.00    10400.00
03175             -25.00     9600.00
03176              25.00    12000.00
03177              25.00    12000.00
03178             -25.00    12800.00
03179              25.00    12800.00
03180             -25.00    13600.00
03181              20.20    14400.00
03182              25.00    14400.00
03183             -25.00    15200.00
03184              25.00    16000.00
03185               4.60    16000.00
03186             -25.00    16800.00
03187              25.00    17600.00
03188               2.60    18400.00
03189             -25.00    18400.00
03190              13.40    18400.00
03191              20.00    20000.00
03192             -25.00    20800.00
03193              22.00    20800.00
03194               2.60    21600.00
03195             -21.20    22400.00
03196              20.40    22400.00
03197             -24.60    22400.00
03198              -2.00    24000.00
03199               5.80    24000.00
03200             -16.60    24000.00
03201              -2.00    24800.00
03202              12.40    24800.00
03203             -23.00    24800.00
03204              -2.60    25600.00
03205               8.40    26400.00
03206             -24.80    26400.00
03207               3.40    27200.00
03208               0.00    28000.00
03209             -14.00    27200.00
03210              -1.80    28000.00
03211              -3.80    28800.00
03212             -11.60    28800.00
03213              -3.80    28800.00
03214              -4.60    28800.00
03215             -10.80    30400.00
03216              -5.00    30400.00
03217              -7.60    30400.00
03218             -11.00    31200.00
03219              -3.60    30400.00
03220              -8.80    31200.00
03221             -10.20    31200.00
03222              -3.80    32000.00
03223             -11.60    32800.00
03224              -9.40    32800.00
03225              -6.20    32800.00
03226             -12.20    32800.00
03227              -7.80    32800.00
03228              -7.80    33600.00
03229             -11.40    33600.00
03230             -10.00    33600.00
03231             -10.60    33600.00
03232             -10.60    33600.00
03233             -10.80    33600.00
03234             -10.20    32800.00
03235             -11.00    33600.00
03236             -11.00    33600.00
03237             -10.60    33600.00
03238             -12.80    33600.00
03239             -10.60    33600.00
03240             -11.80    33600.00
03241             -12.60    33600.00
03242             -10.00    33600.00
03243             -12.60    34400.00
03244             -12.00    33600.00
03245             -10.80    33600.00
03246             -12.00    33600.00
03247             -11.20    33600.00
03248             -11.40    33600.00
03249             -10.80    33600.00
03250             -11.00    32800.00
03251             -10.20    33600.00
03252              -9.60    32800.00
03253             -10.60    32800.00
03254              -9.40    33600.00
03255              -9.20    32800.00
03256              -9.20    32800.00
03257              -9.00    32000.00
03258              -9.60    32000.00
03259              -8.00    32000.00
03260              -8.20    32800.00
03261              -8.60    31200.00
03262              -7.80    31200.00
03263              -7.60    31200.00
03264              -7.40    31200.00
03265              -7.00    30400.00
03266              -7.60    30400.00
03267              -7.40    29600.00
03268              -6.80    28800.00
03269              -6.00    28800.00
03270              -6.80    28800.00
03271              -6.40    28800.00
03272              -5.80    28000.00
03273              -6.00    27200.00
03274              -5.00    27200.00
03275              -5.60    27200.00
03276              -5.80    27200.00
03277              -4.40    26400.00
03278              -5.40    25600.00
03279              -4.60    25600.00
03280              -4.60    25600.00
03281              -5.20    24800.00
03282              -4.60    24000.00
03283              -4.60    24000.00
03284              -4.60    24000.00
03285              -3.80    22400.00
03286              -4.20    22400.00
03287              -4.40    21600.00
03288              -4.20    21600.00
03289              -3.00    20800.00
03290              -4.00    20000.00
03291              -3.80    19200.00
03292              -2.40    18400.00
03293              -3.20    18400.00
03294              -3.80    18400.00
03295              -3.20    17600.00
03296              -2.80    17600.00
03297              -3.20    16000.00
03298              -3.60    16000.00
03299              -1.80    15200.00
03300              -3.00    15200.00
03301              -3.60    14400.00
03302              -1.00    12800.00
03303              -2.20    12800.00
03304              -3.60    12000.00
03305              -1.40    12000.00
03306              -1.40    11200.00
03307              -3.00    11200.00
03308              -2.20     9600.00
03309               0.40     9600.00
03310              -3.40     9600.00
03311              -2.20     8800.00
03312               0.40     8000.00
03313              -2.60     7200.00
03314              -2.20     6400.00
03315               0.20     5600.00
03316              -1.20     5600.00
03317              -1.40     4800.00
03318              -0.80     4000.00
03319              -0.40     3200.00
03320              -1.00     2400.00
03321              -1.00     1600.00
03322               0.40     1600.00
03323               0.20     1600.00
03324              -1.40        0.00
03325               0.80        0.00
03326               1.40     -800.00
03327               2.60    -1600.00
03328               0.00    -1600.00
03329               0.60    -2400.00
03330               0.40    -3200.00
03331               1.20    -3200.00
03332               0.60    -4000.00
03333               4.20    -4000.00
03334              19.60    -5600.00
03335              20.40    -6400.00
03336             -25.00    -7200.00
03337             -16.60    -8000.00
03338              25.00    -8000.00
03339             -11.40    -8800.00
03340             -25.00    -9600.00
03341              25.00    -9600.00
03342              25.00   -10400.00
03343             -25.00   -10400.00
03344              25.00   -12000.00
03345              16.60   -12000.00
03346             -25.00   -12800.00
03347              25.00   -13600.00
03348             -16.40   -13600.00
03349              20.20   -14400.00
03350              -9.40   -14400.00
03351             -17.20   -16000.00
03352              25.00   -16000.00
03353             -25.00   -16000.00
03354             -12.20   -17600.00
03355              25.00   -17600.00
03356              -9.00   -18400.00
03357             -24.20   -19200.00
03358              25.00   -18400.00
03359               3.40   -20000.00
03360             -23.60   -20000.00
03361              25.00   -20800.00
03362              -1.20   -20800.00
03363              -7.00   -22400.00
03364              15.00   -22400.00
03365              -4.20   -23200.00
03366               3.00   -23200.00
03367               8.40   -23200.00
03368               1.00   -24000.00
03369               6.20   -24800.00
03370              10.60   -25600.00
03371              -6.20   -25600.00
03372              11.20   -25600.00
03373               7.00   -26400.00
03374              -4.60   -25600.00
03375              13.40   -27200.00
03376               5.20   -27200.00
03377               0.60   -28000.00
03378               9.00   -28000.00
03379               6.80   -28800.00
03380               2.60   -28800.00
03381               8.60   -28800.00
03382               7.40   -28800.00
03383               3.40   -29600.00
03384               9.40   -29600.00
03385               6.80   -29600.00
03386               5.40   -30400.00
03387              10.60   -30400.00
03388               6.80   -30400.00
03389               6.60   -31200.00
03390              10.20   -32000.00
03391               6.20   -32000.00
03392               8.40   -31200.00
03393               9.80   -32000.00
03394               8.00   -32000.00
03395              10.60   -32000.00
03396               9.40   -32000.00
03397               8.60   -32000.00
03398               9.80   -32800.00
03399              10.00   -32000.00
03400               9.80   -32800.00
03401              10.60   -32800.00
03402              11.40   -33600.00
03403              10.00   -32800.00
03404              11.40   -32800.00
03405              11.00   -32800.00
03406              10.00   -33600.00
03407              12.20   -32800.00
03408              10.80   -32800.00
03409              11.40   -32800.00
03410              12.40   -32800.00
03411              10.20   -32800.00
03412              11.40   -32800.00
03413              11.40   -32800.00
03414              10.20   -32800.00
03415              10.60   -32800.00
03416              10.20   -32800.00
03417              10.00   -32000.00
03418               9.40   -32800.00
03419               9.60   -32000.00
03420               9.00   -32000.00
03421               9.00   -32000.00
03422               9.20   -32000.00
03423               8.20   -32000.00
03424               8.40   -31200.00
03425               8.20   -30400.00
03426               7.60   -31200.00
03427               8.40   -31200.00
03428               7.40   -30400.00
03429               7.40   -30400.00
03430               7.40   -30400.00
03431               6.60   -29600.00
03432               6.80   -29600.00
03433               6.40   -29600.00
03434               5.80   -28800.00
03435               6.60   -28800.00
03436               5.80   -28800.00
03437               5.60   -28800.00
03438               5.60   -27200.00
03439               5.40   -27200.00
03440               5.40   -27200.00
03441               5.00   -26400.00
03442               4.80   -25600.00
03443               4.60   -26400.00
03444               4.80   -25600.00
03445               4.20   -25600.00
03446               4.20   -24800.00
03447               4.40   -24000.00
03448               3.80   -24000.00
03449               3.80   -23200.00
03450               3.80   -22400.00
03451               3.60   -22400.00
03452               3.80   -22400.00
03453               3.60   -21600.00
03454               3.40   -21600.00
03455               3.00   -20800.00
03456               2.60   -20000.00
03457               2.80   -19200.00
03458               2.80   -18400.00
03459               2.80   -17600.00
03460               2.80   -17600.00
03461               2.20   -17600.00
03462               2.20   -16800.00
03463               2.60   -16800.00
03464               2.00   -16000.00
03465               2.00   -16000.00
03466               1.80   -14400.00
03467               1.80   -14400.00
03468               2.00   -14400.00
03469               1.60   -12800.00
03470               1.40   -12800.00
03471               1.40   -12800.00
03472               1.40   -11200.00
03473               1.40   -10400.00
03474               0.60    -9600.00
03475               1.00    -9600.00
03476               1.00    -9600.00
03477               1.00    -8000.00
03478               0.40    -8000.00
03479               0.40    -7200.00
03480               0.40    -6400.00
03481               0.20    -6400.00
03482               0.40    -4800.00
03483               0.20    -4800.00
03484               0.00    -4000.00
03485               0.40    -3200.00
03486              -0.40    -2400.00
03487              -0.40    -2400.00
03488              -0.20    -1600.00
03489              -0.60    -1600.00
03490              -0.20        0.00
03491              -0.20        0.00
03492              -0.40      800.00
03493               1.60     1600.00
03494               3.00     2400.00
03495              -3.00     2400.00
03496              -1.00     3200.00
03497               0.60     3200.00
03498              -1.60     4800.00
03499               0.60     4800.00
03500              16.40     6400.00
03501              25.00     7200.00
03502             -25.00     8000.00
03503             -24.60     8000.00
03504              25.00     8800.00
03505             -16.60     8800.00
03506             -25.00     8800.00
03507              25.00    10400.00
03508             -25.00    10400.00
03509             -25.00    12000.00
03510              25.00    12000.00
03511             -25.00    12000.00
03512              25.00    12800.00
03513              -4.40    12800.00
03514             -25.00    14400.00
03515              25.00    14400.00
03516             -25.00    14400.00
03517              21.80    16000.00
03518              25.00    16000.00
03519             -25.00    16800.00
03520              25.00    17600.00
03521              25.00    17600.00
03522             -25.00    18400.00
03523              -8.60    19200.00
03524              25.00    19200.00
03525             -25.00    20800.00
03526              -1.20    20800.00
03527              25.00    21600.00
03528             -25.00    21600.00
03529              17.00    23200.00
03530             -12.60    23200.00
03531             -15.00    24000.00
03532              11.00    24000.00
03533             -11.40    24000.00
03534             -10.20    24800.00
03535              14.00    25600.00
03536             -12.60    25600.00
03537             -16.40    25600.00
03538              15.00    26400.00
03539             -19.80    27200.00
03540              -6.60    26400.00
03541               6.60    27200.00
03542             -14.20    28000.00
03543              -5.80    28000.00
03544              -1.40    28800.00
03545             -10.60    28800.00
03546              -6.80    28800.00
03547              -2.00    28800.00
03548             -10.80    29600.00
03549              -6.80    30400.00
03550              -5.00    30400.00
03551             -11.60    30400.00
03552              -5.40    31200.00
03553              -5.00    31200.00
03554             -12.40    32000.00
03555              -4.60    32000.00
03556              -8.40    32000.00
03557             -12.20    32800.00
03558              -5.40    32800.00
03559             -10.80    32800.00
03560              -9.80    32800.00
03561              -7.00    32800.00
03562             -10.80    33600.00
03563             -10.40    32800.00
03564             -10.00    33600.00
03565             -10.80    33600.00
03566             -10.60    33600.00
03567             -10.20    33600.00
03568             -10.80    33600.00
03569             -11.60    33600.00
03570              -9.80    34400.00
03571             -12.60    33600.00
03572             -11.60    33600.00
03573             -10.20    33600.00
03574             -13.40    33600.00
03575             -10.20    33600.00
03576             -12.00    33600.00
03577             -13.00    33600.00
03578             -10.60    33600.00
03579             -11.80    33600.00
03580             -11.20    33600.00
03581             -11.40    33600.00
03582             -11.00    33600.00
03583             -10.20    33600.00
03584             -10.20    33600.00
03585              -9.80    33600.00
03586             -10.00    32800.00
03587              -9.40    32800.00
03588              -9.40    32800.00
03589              -9.40    32000.00
03590              -8.60    32800.00
03591             -10.00    32000.00
03592              -8.40    32800.00
03593              -7.40    32000.00
03594              -8.60    31200.00
03595              -8.20    31200.00
03596              -7.60    31200.00
03597              -7.60    30400.00
03598              -7.00    30400.00
03599              -7.00    30400.00
03600              -7.40    30400.00
03601              -7.00    28800.00
03602              -6.20    28800.00
03603              -6.60    28800.00
03604              -6.60    28000.00
03605              -6.00    28000.00
03606              -6.20    28000.00
03607              -6.00    27200.00
03608              -6.00    27200.00
03609              -6.00    27200.00
03610              -4.60    27200.00
03611              -5.40    25600.00
03612              -5.20    24800.00
03613              -4.40    24800.00
03614              -5.40    24800.00
03615              -4.40    24000.00
03616              -4.40    24000.00
03617              -4.60    24000.00
03618              -4.40    23200.00
03619              -4.40    22400.00
03620              -4.00    21600.00
03621              -4.20    21600.00
03622              -3.80    21600.00
03623              -3.80    20800.00
03624              -3.60    20000.00
03625              -3.00    19200.00
03626              -3.40    19200.00
03627              -3.40    18400.00
03628              -3.40    17600.00
03629              -3.00    17600.00
03630              -2.60    16800.00
03631              -3.00    16000.00
03632              -2.60    16000.00
03633              -2.80    15200.00
03634              -2.80    14400.00
03635              -2.20    14400.00
03636              -2.40    13600.00
03637              -2.80    12800.00
03638              -1.80    12800.00
03639              -1.80    12000.00
03640              -2.00    11200.00
03641              -2.20    10400.00
03642              -1.20     9600.00
03643              -1.80     8800.00
03644              -1.80     8800.00
03645              -1.00     8000.00
03646              -1.20     8000.00
03647              -1.60     6400.00
03648              -0.60     6400.00
03649              -1.00     5600.00
03650              -1.20     5600.00
03651              -0.60     4800.00
03652              -0.60     3200.00
03653              -0.60     3200.00
03654              -0.80     2400.00
03655              -1.00     1600.00
03656               0.20     1600.00
03657              -0.20        0.00
03658              -0.40        0.00
03659               1.00        0.00
03660               3.60     -800.00
03661               0.40    -1600.00
03662              -1.40    -1600.00
03663               2.00    -2400.00
03664               1.40    -3200.00
03665              -0.20    -4000.00
03666               3.00    -4000.00
03667              13.80    -5600.00
03668              25.00    -6400.00
03669             -25.00    -8000.00
03670             -25.00    -8000.00
03671              24.40    -8000.00
03672               8.40    -8800.00
03673             -25.00    -8800.00
03674              21.00    -9600.00
03675              25.00   -11200.00
03676             -25.00   -10400.00
03677              20.20   -12000.00
03678              25.00   -11200.00
03679             -25.00   -12800.00
03680              24.80   -13600.00
03681               0.40   -12800.00
03682               3.60   -14400.00
03683              13.40   -14400.00
03684             -25.00   -15200.00
03685              25.00   -16000.00
03686              -0.20   -16000.00
03687             -25.00   -16800.00
03688              25.00   -17600.00
03689              10.00   -18400.00
03690             -25.00   -18400.00
03691              15.80   -19200.00
03692              23.40   -19200.00
03693             -25.00   -20000.00
03694              21.20   -20800.00
03695              14.60   -20800.00
03696             -14.60   -22400.00
03697              14.80   -22400.00
03698               0.20   -22400.00
03699              -1.40   -23200.00
03700               8.40   -23200.00
03701               3.00   -23200.00
03702               2.60   -24000.00
03703              13.20   -24000.00
03704              -3.80   -25600.00
03705               4.40   -25600.00
03706              13.20   -26400.00
03707              -6.00   -27200.00
03708               9.40   -27200.00
03709               9.80   -27200.00
03710               0.40   -27200.00
03711               7.00   -27200.00
03712               8.40   -28800.00
03713               2.20   -28800.00
03714               7.00   -28800.00
03715               9.00   -28800.00
03716               3.60   -28800.00
03717               7.80   -29600.00
03718               8.40   -29600.00
03719               5.20   -29600.00
03720               9.00   -30400.00
03721               8.60   -31200.00
03722               5.80   -30400.00
03723              10.20   -31200.00
03724               7.40   -32000.00
03725               7.00   -32000.00
03726              10.00   -32000.00
03727               8.20   -32000.00
03728               9.80   -32000.00
03729               9.80   -32000.00
03730               9.00   -32000.00
03731               9.40   -32800.00
03732               9.80   -32000.00
03733              10.40   -32800.00
03734               9.80   -32800.00
03735              10.60   -32800.00
03736              10.80   -33600.00
03737              10.40   -32800.00
03738              11.20   -32800.00
03739              10.00   -32800.00
03740              11.60   -33600.00
03741              11.00   -32800.00
03742              10.80   -33600.00
03743              12.40   -32800.00
03744              10.60   -32800.00
03745              10.20   -32800.00
03746              11.60   -32800.00
03747              10.20   -32800.00
03748              10.60   -32800.00
03749              10.00   -32800.00
03750              10.00   -32800.00
03751               9.80   -32800.00
03752               9.80   -32800.00
03753               9.20   -32000.00
03754               9.00   -32000.00
03755               9.00   -32000.00
03756               8.20   -32000.00
03757               8.40   -32000.00
03758               8.00   -31200.00
03759               7.40   -31200.00
03760               8.60   -31200.00
03761               7.40   -30400.00
03762               6.60   -30400.00
03763               7.40   -30400.00
03764               6.60   -29600.00
03765               6.60   -29600.00
03766               7.60   -28800.00
03767               5.40   -28800.00
03768               6.20   -28800.00
03769               6.20   -28800.00
03770               5.40   -28000.00
03771               5.40   -28000.00
03772               6.20   -27200.00
03773               5.60   -27200.00
03774               4.80   -26400.00
03775               5.40   -26400.00
03776               4.60   -26400.00
03777               4.40   -25600.00
03778               5.20   -25600.00
03779               3.80   -24800.00
03780               4.40   -24000.00
03781               4.40   -24000.00
03782               3.60   -23200.00
03783               3.80   -22400.00
03784               3.80   -23200.00
03785               3.40   -22400.00
03786               3.40   -21600.00
03787               4.20   -20800.00
03788               3.60   -20800.00
03789               2.00   -20000.00
03790               2.60   -19200.00
03791               3.80   -18400.00
03792               2.20   -18400.00
03793               1.80   -17600.00
03794               3.60   -17600.00
03795               3.00   -16800.00
03796               1.60   -16800.00
03797               1.80   -16000.00
03798               3.40   -16000.00
03799               2.20   -14400.00
03800              -0.40   -14400.00
03801               3.80   -13600.00
03802               2.80   -12800.00
03803              -0.80   -12800.00
03804               3.00   -12000.00
03805               2.00   -11200.00
03806              -2.20   -11200.00
03807               2.00   -10400.00
03808               2.00   -10400.00
03809              -1.20    -9600.00
03810               2.20    -8000.00
03811               1.80    -8000.00
03812              -1.20    -7200.00
03813               1.40    -6400.00
03814               0.20    -6400.00
03815              -0.60    -4800.00
03816               1.80    -4800.00
03817              -0.40    -4000.00
03818              -0.60    -4000.00
03819               0.60    -3200.00
03820              -0.40    -2400.00
03821              -0.20    -1600.00
03822               0.40     -800.00
03823              -1.00     -800.00
03824              -1.00        0.00
03825               0.20      800.00
03826              -0.20     1600.00
03827               3.80     1600.00
03828              -0.40     1600.00
03829              -2.20     2400.00
03830               1.20     3200.00
03831               0.20     4000.00
03832              -2.40     4800.00
03833               9.60     4800.00
03834              25.00     7200.00
03835             -25.00     8000.00
03836             -25.00     8000.00
03837              22.60     8000.00
03838               5.80     8800.00
03839             -25.00     8800.00
03840              25.00    10400.00
03841              21.00    11200.00
03842             -25.00    11200.00
03843              25.00    12000.00
03844             -25.00    12000.00
03845             -14.00    12800.00
03846              25.00    12800.00
03847             -25.00    13600.00
03848              25.00    14400.00
03849             -25.00    15200.00
03850             -25.00    15200.00
03851              25.00    16000.00
03852             -25.00    16800.00
03853              -5.40    17600.00
03854              25.00    18400.00
03855             -25.00    18400.00
03856             -25.00    18400.00
03857              25.00    19200.00
03858             -14.20    20800.00
03859             -25.00    20800.00
03860              25.00    21600.00
03861             -25.00    21600.00
03862               3.00    22400.00
03863               4.60    22400.00
03864             -24.60    23200.00
03865              10.20    24000.00
03866              -5.00    24000.00
03867             -16.00    24000.00
03868               9.00    25600.00
03869              -0.20    24800.00
03870             -25.00    25600.00
03871              13.00    25600.00
03872              -8.60    27200.00
03873             -17.20    27200.00
03874               9.00    27200.00
03875             -11.00    28000.00
03876              -9.20    28000.00
03877               0.20    28800.00
03878              -8.20    28800.00
03879              -9.60    28800.00
03880              -1.20    30400.00
03881              -9.00    29600.00
03882              -9.00    29600.00
03883              -4.20    30400.00
03884             -10.20    30400.00
03885              -8.20    31200.00
03886              -3.40    31200.00
03887             -12.00    31200.00
03888              -7.00    32000.00
03889              -5.80    32000.00
03890             -13.00    32000.00
03891              -6.60    32800.00
03892              -8.60    32800.00
03893             -10.80    32800.00
03894              -6.60    32800.00
03895              -9.80    32800.00
03896             -10.80    32800.00
03897              -9.80    33600.00
03898             -10.80    33600.00
03899             -10.60    33600.00
03900             -10.40    33600.00
03901             -10.60    33600.00
03902             -11.80    33600.00
03903             -10.20    33600.00
03904             -11.80    33600.00
03905             -12.20    33600.00
03906             -10.00    34400.00
03907             -13.00    33600.00
03908             -10.80    33600.00
03909             -10.20    33600.00
03910             -13.40    33600.00
03911             -11.00    33600.00
03912             -10.80    33600.00
03913             -12.20    33600.00
03914             -11.20    33600.00
03915             -10.60    33600.00
03916             -10.80    33600.00
03917             -11.40    33600.00
03918              -9.20    33600.00
03919              -9.80    32800.00
03920             -10.80    33600.00
03921              -9.00    32800.00
03922              -9.00    32000.00
03923              -9.20    32800.00
03924              -9.40    32000.00
03925              -8.40    32000.00
03926              -7.60    32000.00
03927              -9.00    32000.00
03928              -7.80    32000.00
03929              -7.60    31200.00
03930              -8.20    31200.00
03931              -7.60    30400.00
03932              -7.40    30400.00
03933              -7.00    30400.00
03934              -7.60    29600.00
03935              -6.00    28800.00
03936              -6.00    28800.00
03937              -7.60    28800.00
03938              -6.00    28000.00
03939              -6.00    28000.00
03940              -6.60    27200.00
03941              -5.80    27200.00
03942              -6.00    27200.00
03943              -5.20    27200.00
03944              -5.20    26400.00
03945              -5.20    25600.00
03946              -4.60    25600.00
03947              -5.80    24800.00
03948              -4.60    24000.00
03949              -3.80    24000.00
03950              -4.60    24000.00
03951              -4.20    24000.00
03952              -4.40    22400.00
03953              -4.20    21600.00
03954              -4.20    21600.00
03955              -4.20    21600.00
03956              -4.20    20800.00
03957              -3.60    20000.00
03958              -3.00    19200.00
03959              -3.00    19200.00
03960              -3.40    18400.00
03961              -3.60    18400.00
03962              -3.40    17600.00
03963              -2.60    16800.00
03964              -2.80    16000.00
03965              -3.00    16000.00
03966              -2.60    15200.00
03967              -2.80    14400.00
03968              -1.80    14400.00
03969              -2.40    13600.00
03970              -2.60    12800.00
03971              -2.00    12800.00
03972              -2.00    11200.00
03973              -1.80    11200.00
03974              -2.00    11200.00
03975              -2.00    10400.00
03976              -0.60     9600.00
03977              -2.00     8800.00
03978              -2.00     8000.00
03979              -0.80     7200.00
03980              -1.40     7200.00
03981              -1.80     6400.00
03982              -0.40     6400.00
03983              -0.60     4800.00
03984              -1.20     4800.00
03985              -0.60     4000.00
03986               0.00     3200.00
03987              -1.20     2400.00
03988              -1.00     2400.00
03989              -0.20     1600.00
03990              -0.40      800.00
03991              -0.60        0.00
03992               0.40        0.00
03993               2.60     -800.00
03994               2.80    -1600.00
03995              -2.20    -1600.00
03996               1.00    -2400.00
03997               1.80    -3200.00
03998              -0.20    -4000.00
03999               1.20    -4000.00
04000               9.20    -4800.00
04001              25.00    -6400.00
04002              -7.00    -8000.00
04003             -25.00    -8000.00
04004              10.80    -8000.00
04005              22.80    -8800.00
04006             -25.00    -8800.00
04007             -10.80    -9600.00
04008              25.00   -10400.00
04009             -25.00   -10400.00
04010             -25.00   -10400.00
04011              25.00   -12000.00
04012             -25.00   -12800.00
04013              -3.00   -12800.00
04014              22.80   -13600.00
04015             -12.20   -14400.00
04016              25.00   -13600.00
04017             -25.00   -14400.00
04018              21.60   -15200.00
04019              25.00   -16000.00
04020             -25.00   -16800.00
04021              19.20   -17600.00
04022              25.00   -17600.00
04023             -25.00   -17600.00
04024              -2.60   -19200.00
04025              25.00   -18400.00
04026             -24.00   -20000.00
04027               2.60   -20800.00
04028              25.00   -20800.00
04029             -14.80   -20800.00
04030               8.20   -22400.00
04031               7.40   -22400.00
04032              -4.60   -23200.00
04033               7.00   -23200.00
04034               6.20   -24000.00
04035               0.40   -24000.00
04036              11.80   -24800.00
04037               1.80   -25600.00
04038              -2.00   -24800.00
04039              15.60   -25600.00
04040              -2.00   -26400.00
04041               3.60   -26400.00
04042              13.40   -27200.00
04043               1.00   -27200.00
04044               4.40   -28000.00
04045               9.60   -28000.00
04046               4.20   -28800.00
04047               5.20   -28800.00
04048               9.80   -28800.00
04049               4.60   -28800.00
04050               5.80   -28800.00
04051               9.20   -29600.00
04052               5.40   -30400.00
04053               7.60   -30400.00
04054              10.00   -30400.00
04055               5.80   -30400.00
04056               9.00   -30400.00
04057               8.40   -32000.00
04058               6.80   -31200.00
04059               9.80   -32000.00
04060               8.60   -32000.00
04061               9.00   -32000.00
04062              10.00   -32000.00
04063               8.60   -32800.00
04064               9.20   -32800.00
04065               9.40   -32800.00
04066              10.00   -33600.00
04067               9.80   -32800.00
04068              10.40   -32800.00
04069              11.00   -32800.00
04070              10.00   -32800.00
04071              11.40   -32800.00
04072              10.20   -32800.00
04073              10.80   -32800.00
04074              11.80   -33600.00
04075              10.20   -32800.00
04076              12.20   -32800.00
04077              10.80   -32800.00
04078              10.20   -32800.00
04079              11.60   -32800.00
04080              10.60   -32800.00
04081              10.20   -32800.00
04082              10.20   -32800.00
04083               9.80   -33600.00
04084               9.40   -32800.00
04085               9.40   -32800.00
04086               9.40   -32000.00
04087               9.00   -32000.00
04088               9.20   -32000.00
04089               8.60   -32000.00
04090               8.20   -32000.00
04091               8.60   -31200.00
04092               8.20   -31200.00
04093               8.40   -30400.00
04094               7.80   -31200.00
04095               6.80   -30400.00
04096               7.20   -30400.00
04097               7.20   -29600.00
04098               6.80   -29600.00
04099               6.80   -28800.00
04100               5.80   -28800.00
04101               6.20   -28800.00
04102               6.40   -28800.00
04103               5.80   -28000.00
04104               5.80   -27200.00
04105               5.80   -27200.00
04106               5.20   -27200.00
04107               5.40   -26400.00
04108               5.00   -26400.00
04109               5.00   -26400.00
04110               5.00   -25600.00
04111               4.60   -25600.00
04112               4.60   -24000.00
04113               4.60   -24800.00
04114               3.80   -24000.00
04115               3.60   -24000.00
04116               4.40   -23200.00
04117               3.40   -22400.00
04118               3.00   -23200.00
04119               4.20   -22400.00
04120               3.40   -21600.00
04121               3.00   -20000.00
04122               3.40   -20000.00
04123               3.40   -20000.00
04124               2.60   -18400.00
04125               2.60   -18400.00
04126               3.60   -17600.00
04127               2.20   -17600.00
04128               1.80   -16800.00
04129               2.20   -16000.00
04130               2.00   -16000.00
04131               1.80   -15200.00
04132               1.40   -15200.00
04133               2.00   -14400.00
04134               2.20   -14400.00
04135               1.40   -12800.00
04136               1.40   -12800.00
04137               1.40   -12800.00
04138               1.00   -11200.00
04139               1.20   -11200.00
04140               1.20   -10400.00
04141               0.40    -9600.00
04142               0.40    -9600.00
04143               1.00    -8000.00
04144               0.60    -8000.00
04145               0.40    -7200.00
04146               1.00    -7200.00
04147               0.40    -6400.00
04148               0.00    -6400.00
04149               0.40    -4800.00
04150              -0.20    -4800.00
04151               0.20    -4000.00
04152               1.00    -3200.00
04153               0.20    -2400.00
04154              -0.40    -1600.00
04155              -0.40    -1600.00
04156              -0.60     -800.00
04157              -0.60        0.00
04158              -0.20        0.00
04159               0.40     1600.00
04160               3.00     1600.00
04161               1.00     2400.00
04162              -3.00     2400.00
04163              -0.20     3200.00
04164               0.80     3200.00
04165              -2.20     4800.00
04166               5.60     4800.00
04167              25.00     7200.00
04168              -1.80     7200.00
04169             -25.00     8000.00
04170               7.00     8000.00
04171              22.00     8000.00
04172             -25.00     8800.00
04173              17.40     9600.00
04174              25.00    10400.00
04175             -25.00     9600.00
04176              25.00    11200.00
04177              19.60    12000.00
04178             -25.00    12000.00
04179              25.00    12800.00
04180             -25.00    12800.00
04181              25.00    14400.00
04182              25.00    14400.00
04183             -25.00    16000.00
04184              25.00    16000.00
04185             -16.60    16800.00
04186             -25.00    17600.00
04187              25.00    17600.00
04188              -7.40    18400.00
04189             -25.00    19200.00
04190              21.20    19200.00
04191              11.20    19200.00
04192             -25.00    20000.00
04193              25.00    20800.00
04194              -7.40    21600.00
04195             -15.60    22400.00
04196              17.40    22400.00
04197             -25.00    23200.00
04198               2.20    23200.00
04199               2.80    24000.00
04200             -17.20    24000.00
04201               1.00    24800.00
04202              10.00    25600.00
04203             -25.00    25600.00
04204               2.80    25600.00
04205               4.00    25600.00
04206             -24.20    27200.00
04207               6.20    27200.00
04208              -4.40    28000.00
04209             -13.40    28000.00
04210              -0.40    28000.00
04211              -5.20    28800.00
04212             -11.60    28800.00
04213              -2.40    28800.00
04214              -6.00    30400.00
04215             -10.60    30400.00
04216              -4.00    31200.00
04217              -8.20    30400.00
04218             -10.40    30400.00
04219              -2.80    31200.00
04220              -9.80    31200.00
04221             -10.00    31200.00
04222              -3.80    32800.00
04223             -13.00    32000.00
04224              -8.60    32000.00
04225              -6.20    32800.00
04226             -12.20    33600.00
04227              -7.40    32000.00
04228              -8.40    32800.00
04229             -11.20    33600.00
04230              -9.80    33600.00
04231             -10.20    33600.00
04232             -10.40    33600.00
04233             -10.20    33600.00
04234             -10.20    33600.00
04235             -11.80    33600.00
04236             -10.80    33600.00
04237             -10.20    33600.00
04238             -13.20    33600.00
04239              -9.80    33600.00
04240             -12.40    34400.00
04241             -12.40    33600.00
04242              -9.60    33600.00
04243             -13.40    33600.00
04244             -11.60    33600.00
04245             -10.80    33600.00
04246             -12.20    33600.00
04247             -11.20    33600.00
04248             -11.60    33600.00
04249             -10.60    33600.00
04250             -10.80    33600.00
04251             -10.20    33600.00
04252             -10.00    33600.00
04253             -10.20    32000.00
04254              -9.80    32800.00
04255              -9.80    32800.00
04256              -8.40    32000.00
04257              -9.40    32800.00
04258              -9.60    32800.00
04259              -7.40    32000.00
04260              -8.60    31200.00
04261              -9.40    31200.00
04262              -7.40    31200.00
04263              -7.80    31200.00
04264              -8.40    31200.00
04265              -7.60    30400.00
04266              -7.00    30400.00
04267              -7.00    29600.00
04268              -7.00    28800.00
04269              -6.40    28800.00
04270              -7.00    28800.00
04271              -6.80    28000.00
04272              -6.20    28000.00
04273              -5.80    28000.00
04274              -5.40    27200.00
04275              -7.00    27200.00
04276              -5.20    27200.00
04277              -4.40    25600.00
04278              -6.00    25600.00
04279              -4.60    24800.00
04280              -5.20    25600.00
04281              -5.40    24800.00
04282              -4.20    24800.00
04283              -4.40    24000.00
04284              -3.80    24000.00
04285              -4.40    22400.00
04286              -4.60    22400.00
04287              -4.20    22400.00
04288              -3.80    21600.00
04289              -3.40    20800.00
04290              -3.80    20000.00
04291              -3.00    19200.00
04292              -3.40    19200.00
04293              -4.20    18400.00
04294              -3.00    17600.00
04295              -2.60    17600.00
04296              -2.80    16800.00
04297              -2.80    16000.00
04298              -2.60    16000.00
04299              -2.60    16000.00
04300              -3.20    14400.00
04301              -2.20    14400.00
04302              -2.20    14400.00
04303              -2.60    12800.00
04304              -2.00    12800.00
04305              -1.40    12000.00
04306              -1.40    11200.00
04307              -2.00    11200.00
04308              -2.20     9600.00
04309              -0.60     9600.00
04310              -2.00     8800.00
04311              -2.00     8000.00
04312              -0.60     8000.00
04313              -1.40     7200.00
04314              -1.20     6400.00
04315              -0.60     6400.00
04316              -2.00     5600.00
04317              -1.20     4800.00
04318              -1.00     4000.00
04319              -1.00     3200.00
04320               0.20     3200.00
04321              -0.60     2400.00
04322              -1.20     1600.00
04323               0.40     1600.00
04324              -0.40      800.00
04325              -0.20        0.00
04326               2.00     -800.00
04327               3.80    -1600.00
04328              -1.40    -1600.00
04329              -0.40    -2400.00
04330               1.20    -3200.00
04331               0.40    -3200.00
04332               0.20    -4000.00
04333               6.00    -4000.00
04334              22.60    -5600.00
04335              13.60    -7200.00
04336             -25.00    -8000.00
04337              -8.60    -8000.00
04338              25.00    -8800.00
04339             -19.80    -8800.00
04340             -25.00    -8000.00
04341              25.00   -10400.00
04342              17.00   -10400.00
04343             -25.00   -10400.00
04344              25.00   -12000.00
04345              -2.80   -12000.00
04346             -25.00   -12800.00
04347              25.00   -13600.00
04348             -18.80   -13600.00
04349              24.40   -14400.00
04350             -18.20   -14400.00
04351              -6.00   -16000.00
04352              25.00   -16000.00
04353             -25.00   -16800.00
04354              -2.80   -17600.00
04355              25.00   -17600.00
04356             -15.60   -18400.00
04357             -19.20   -19200.00
04358              25.00   -19200.00
04359              -5.40   -19200.00
04360             -17.20   -20800.00
04361              25.00   -20800.00
04362              -6.60   -20800.00
04363              -2.80   -21600.00
04364              14.20   -23200.00
04365              -5.20   -23200.00
04366               4.40   -23200.00
04367               8.40   -23200.00
04368               0.40   -24000.00
04369               7.60   -24000.00
04370               8.60   -24800.00
04371              -5.80   -25600.00
04372              13.20   -25600.00
04373               4.60   -25600.00
04374              -3.00   -26400.00
04375              13.80   -26400.00
04376               3.40   -27200.00
04377               1.80   -27200.00
04378               9.40   -28000.00
04379               6.20   -28800.00
04380               3.40   -28800.00
04381               9.20   -28800.00
04382               6.60   -29600.00
04383               3.40   -29600.00
04384               9.20   -29600.00
04385               6.60   -30400.00
04386               6.00   -30400.00
04387               9.80   -30400.00
04388               6.40   -31200.00
04389               7.80   -31200.00
04390               9.80   -31200.00
04391               5.40   -31200.00
04392               8.60   -32000.00
04393               9.40   -32000.00
04394               7.60   -32000.00
04395              10.00   -32000.00
04396               9.20   -32800.00
04397               9.00   -32800.00
04398               9.00   -32800.00
04399              10.00   -32800.00
04400              10.60   -32800.00
04401               9.60   -32800.00
04402              11.40   -32800.00
04403              10.60   -32800.00
04404              10.60   -32800.00
04405              10.20   -32800.00
04406              10.80   -32800.00
04407              11.60   -32800.00
04408              10.00   -32800.00
04409              12.20   -32800.00
04410              11.60   -33600.00
04411               9.20   -32800.00
04412              12.00   -32800.00
04413              11.40   -32800.00
04414              10.00   -32800.00
04415              10.80   -32000.00
04416              10.20   -32800.00
04417               9.60   -32800.00
04418               9.80   -32800.00
04419               9.80   -32000.00
04420               9.00   -32800.00
04421               9.20   -32000.00
04422               9.00   -32000.00
04423               7.80   -32000.00
04424               8.20   -32000.00
04425               7.80   -31200.00
04426               8.00   -30400.00
04427               8.40   -30400.00
04428               7.60   -30400.00
04429               7.60   -30400.00
04430               7.40   -30400.00
04431               6.80   -29600.00
04432               6.80   -29600.00
04433               6.60   -28800.00
04434               6.60   -28800.00
04435               6.60   -28800.00
04436               5.40   -28000.00
04437               5.40   -28800.00
04438               5.20   -27200.00
04439               5.80   -27200.00
04440               5.80   -27200.00
04441               5.20   -26400.00
04442               4.60   -26400.00
04443               4.60   -25600.00
04444               4.40   -25600.00
04445               4.60   -25600.00
04446               5.00   -24000.00
04447               4.60   -24000.00
04448               3.80   -24000.00
04449               3.80   -23200.00
04450               3.60   -23200.00
04451               3.60   -22400.00
04452               3.60   -22400.00
04453               3.20   -21600.00
04454               3.20   -20800.00
04455               2.80   -20800.00
04456               2.60   -20000.00
04457               2.80   -19200.00
04458               2.60   -18400.00
04459               2.60   -18400.00
04460               2.80   -17600.00
04461               2.40   -17600.00
04462               1.80   -16800.00
04463               1.80   -16800.00
04464               2.60   -16000.00
04465               1.80   -15200.00
04466               1.00   -15200.00
04467               2.00   -14400.00
04468               1.80   -12800.00
04469               1.00   -12800.00
04470               1.00   -12800.00
04471               2.00   -12000.00
04472               1.00   -11200.00
04473               0.40   -10400.00
04474               1.60   -10400.00
04475               0.80    -9600.00
04476               0.40    -9600.00
04477               1.80    -9600.00
04478               0.00    -8000.00
04479               0.40    -7200.00
04480               1.00    -6400.00
04481               0.20    -6400.00
04482               1.00    -4800.00
04483               0.00    -4000.00
04484              -0.20    -4000.00
04485               1.00    -3200.00
04486              -0.40    -2400.00
04487              -0.60    -2400.00
04488               1.00     -800.00
04489              -1.00     -800.00
04490              -0.80        0.00
04491               1.00        0.00
04492              -0.60     1600.00
04493               1.40     1600.00
04494               3.80     2400.00
04495              -3.80     2400.00
04496              -0.40     3200.00
04497               2.00     4000.00
04498              -2.20     3200.00
04499               1.80     5600.00
04500              20.80     7200.00
04501              22.00     7200.00
04502             -25.00     8000.00
04503             -14.20     8000.00
04504              25.00     8800.00
04505             -25.00     8800.00
04506             -19.80     8800.00
04507              25.00    10400.00
04508             -25.00    10400.00
04509              -1.40    11200.00
04510              25.00    12000.00
04511             -25.00    12000.00
04512              25.00    12800.00
04513             -23.60    12800.00
04514             -11.40    14400.00
04515              25.00    14400.00
04516             -25.00    15200.00
04517              25.00    16000.00
04518              25.00    16000.00
04519             -25.00    17600.00
04520              25.00    16800.00
04521              18.20    18400.00
04522             -25.00    18400.00
04523               0.40    19200.00
04524              25.00    19200.00
04525             -25.00    20000.00
04526               9.20    20800.00
04527              17.00    21600.00
04528             -25.00    21600.00
04529              19.80    22400.00
04530             -19.00    22400.00
04531             -10.20    23200.00
04532               9.40    24000.00
04533             -14.60    24000.00
04534              -7.00    24800.00
04535              14.00    25600.00
04536             -17.80    25600.00
04537             -10.80    25600.00
04538              13.20    26400.00
04539             -23.00    26400.00
04540              -2.60    27200.00
04541               4.20    27200.00
04542             -14.40    28000.00
04543              -3.80    28800.00
04544              -2.60    28800.00
04545             -11.40    28800.00
04546              -5.80    29600.00
04547              -2.80    28800.00
04548             -10.60    28800.00
04549              -5.80    30400.00
04550              -5.80    30400.00
04551             -11.40    30400.00
04552              -4.60    31200.00
04553              -6.60    31200.00
04554             -11.80    31200.00
04555              -3.80    32800.00
04556              -9.80    32800.00
04557             -11.00    32000.00
04558              -5.60    32000.00
04559             -11.40    32000.00
04560              -9.20    32800.00
04561              -7.40    32800.00
04562             -10.80    33600.00
04563             -10.00    33600.00
04564              -9.80    33600.00
04565             -10.60    33600.00
04566             -10.60    33600.00
04567             -10.00    33600.00
04568             -10.80    33600.00
04569             -11.80    33600.00
04570             -10.00    33600.00
04571             -12.60    33600.00
04572             -11.20    33600.00
04573             -10.80    33600.00
04574             -13.00    33600.00
04575             -10.00    33600.00
04576             -12.20    33600.00
04577             -12.40    33600.00
04578             -10.60    33600.00
04579             -11.80    33600.00
04580             -11.00    33600.00
04581             -11.60    34400.00
04582             -10.80    33600.00
04583             -10.60    33600.00
04584             -10.60    32800.00
04585             -10.00    33600.00
04586             -10.40    32800.00
04587              -9.80    32800.00
04588              -9.80    33600.00
04589              -9.20    32000.00
04590              -9.00    32800.00
04591              -9.60    32000.00
04592              -8.40    32000.00
04593              -8.20    32000.00
04594              -9.20    31200.00
04595              -8.40    31200.00
04596              -7.80    31200.00
04597              -8.20    30400.00
04598              -7.40    30400.00
04599              -7.40    30400.00
04600              -7.40    28800.00
04601              -7.00    29600.00
04602              -6.80    28800.00
04603              -6.80    28800.00
04604              -6.60    28000.00
04605              -6.00    28000.00
04606              -6.60    28000.00
04607              -5.40    27200.00
04608              -6.20    27200.00
04609              -6.00    26400.00
04610              -5.00    25600.00
04611              -5.40    26400.00
04612              -5.00    25600.00
04613              -5.00    25600.00
04614              -5.20    24800.00
04615              -4.40    24000.00
04616              -4.40    24000.00
04617              -4.40    23200.00
04618              -4.20    23200.00
04619              -4.40    22400.00
04620              -3.80    21600.00
04621              -4.20    21600.00
04622              -4.20    20800.00
04623              -3.80    20000.00
04624              -3.60    20000.00
04625              -3.00    19200.00
04626              -3.40    18400.00
04627              -3.40    18400.00
04628              -3.00    17600.00
04629              -3.00    17600.00
04630              -2.60    16800.00
04631              -2.60    16000.00
04632              -2.80    16000.00
04633              -3.00    15200.00
04634              -2.20    14400.00
04635              -2.20    14400.00
04636              -3.00    13600.00
04637              -2.20    12800.00
04638              -1.80    12000.00
04639              -2.00    12000.00
04640              -2.20    11200.00
04641              -2.00    10400.00
04642              -1.20     9600.00
04643              -1.40     9600.00
04644              -2.00     8000.00
04645              -1.00     8000.00
04646              -1.40     7200.00
04647              -1.40     6400.00
04648              -1.20     5600.00
04649              -1.00     5600.00
04650              -1.20     5600.00
04651              -1.20     4800.00
04652              -0.60     3200.00
04653              -0.80     3200.00
04654              -1.20     2400.00
04655              -1.00     2400.00
04656              -0.20      800.00
04657              -0.20      800.00
04658               0.00        0.00
04659               1.20     -800.00
04660               3.80    -1600.00
04661              -0.40    -1600.00
04662              -1.00    -2400.00
04663               1.80    -3200.00
04664               1.20    -3200.00
04665              -0.40    -4000.00
04666               3.60    -4000.00
04667              15.40    -5600.00
04668              25.00    -6400.00
04669             -25.00    -8000.00
04670             -25.00    -8000.00
04671              25.00    -8000.00
04672               1.00    -9600.00
04673             -25.00    -8000.00
04674              25.00    -9600.00
04675              25.00   -10400.00
04676             -25.00   -10400.00
04677              25.00   -11200.00
04678              25.00   -11200.00
04679             -25.00   -12800.00
04680              25.00   -13600.00
04681              -7.00   -13600.00
04682               9.40   -13600.00
04683               5.20   -14400.00
04684             -25.00   -16000.00
04685              25.00   -16000.00
04686             -12.20   -16800.00
04687             -23.00   -17600.00
04688              25.00   -17600.00
04689               1.20   -17600.00
04690             -25.00   -19200.00
04691              22.60   -18400.00
04692              13.80   -20000.00
04693             -25.00   -20000.00
04694              25.00   -20800.00
04695               7.00   -20800.00
04696             -12.40   -21600.00
04697              17.80   -22400.00
04698              -2.00   -22400.00
04699              -1.20   -23200.00
04700               9.00   -23200.00
04701               2.80   -24000.00
04702               3.40   -24000.00
04703              13.40   -24000.00
04704              -4.40   -25600.00
04705               6.80   -25600.00
04706              11.00   -25600.00
04707              -6.40   -26400.00
04708              11.00   -27200.00
04709               8.40   -27200.00
04710               1.00   -28000.00
04711               8.40   -28000.00
04712               7.80   -28000.00
04713               2.00   -28800.00
04714               8.20   -28800.00
04715               8.20   -28800.00
04716               2.60   -29600.00
04717               8.20   -30400.00
04718               7.60   -29600.00
04719               5.00   -30400.00
04720               9.40   -30400.00
04721               8.00   -30400.00
04722               6.00   -30400.00
04723              10.20   -31200.00
04724               6.60   -32000.00
04725               7.40   -32000.00
04726               9.60   -32000.00
04727               7.60   -32000.00
04728               9.80   -32000.00
04729               9.80   -32000.00
04730               8.60   -32000.00
04731               9.20   -32800.00
04732               9.80   -32800.00
04733               9.80   -32800.00
04734               9.60   -32800.00
04735              11.40   -32800.00
04736              10.20   -32800.00
04737              10.60   -32800.00
04738              11.60   -33600.00
04739               9.80   -32800.00
04740              11.80   -33600.00
04741              11.40   -33600.00
04742              10.60   -33600.00
04743              12.00   -33600.00
04744              10.60   -32800.00
04745              10.60   -32800.00
04746              11.00   -32000.00
04747              10.60   -32800.00
04748              10.60   -32800.00
04749              10.20   -32800.00
04750              10.20   -32800.00
04751               9.60   -32800.00
04752               9.20   -32000.00
04753               9.40   -32000.00
04754               9.20   -32000.00
04755               9.20   -32000.00
04756               8.20   -32000.00
04757               8.40   -31200.00
04758               8.40   -32000.00
04759               7.40   -30400.00
04760               8.20   -31200.00
04761               7.80   -30400.00
04762               7.00   -30400.00
04763               7.00   -30400.00
04764               6.80   -29600.00
04765               7.40   -29600.00
04766               6.60   -29600.00
04767               6.20   -28800.00
04768               6.80   -28800.00
04769               5.40   -28800.00
04770               5.40   -27200.00
04771               5.60   -28000.00
04772               5.40   -28000.00
04773               5.80   -27200.00
04774               5.40   -26400.00
04775               4.60   -26400.00
04776               4.20   -25600.00
04777               5.00   -25600.00
04778               4.40   -25600.00
04779               3.80   -24800.00
04780               4.40   -24000.00
04781               3.60   -24000.00
04782               3.60   -23200.00
04783               4.00   -23200.00
04784               3.60   -22400.00
04785               3.60   -22400.00
04786               3.20   -21600.00
04787               2.80   -21600.00
04788               3.40   -20800.00
04789               2.60   -20000.00
04790               2.80   -20000.00
04791               2.80   -18400.00
04792               2.60   -18400.00
04793               2.80   -17600.00
04794               1.80   -17600.00
04795               2.00   -16800.00
04796               2.20   -16800.00
04797               1.60   -16000.00
04798               1.80   -15200.00
04799               2.00   -15200.00
04800               1.40   -14400.00
04801               1.80   -14400.00
04802               1.40   -13600.00
04803               1.00   -12800.00
04804               1.40   -12000.00
04805               1.40   -11200.00
04806               0.60   -11200.00
04807               1.00   -10400.00
04808               1.20    -9600.00
04809               0.40    -9600.00
04810               1.00    -8000.00
04811               1.00    -8000.00
04812               0.20    -7200.00
04813               0.60    -6400.00
04814               0.40    -6400.00
04815               0.40    -6400.00
04816               0.20    -4800.00
04817               0.20    -4000.00
04818               0.40    -4000.00
04819               0.20    -2400.00
04820              -0.20    -2400.00
04821               0.20    -1600.00
04822              -0.60    -1600.00
04823              -0.60     -800.00
04824               0.20        0.00
04825               0.00        0.00
04826               0.40     1600.00
04827               3.60     2400.00
04828              -2.00     2400.00
04829              -1.40     3200.00
04830               1.20     3200.00
04831              -0.60     4800.00
04832              -0.40     4800.00
04833              12.20     5600.00
04834              25.00     6400.00
04835             -25.00     8000.00
04836             -25.00     8000.00
04837              25.00     8800.00
04838              -3.40     8000.00
04839             -25.00     8800.00
04840              25.00     9600.00
04841              -1.20     9600.00
04842             -25.00    11200.00
04843              25.00    12000.00
04844             -25.00    12000.00
04845               5.20    12800.00
04846              22.40    12800.00
04847             -25.00    14400.00
04848              25.00    14400.00
04849             -25.00    15200.00
04850             -15.00    16000.00
04851              25.00    16000.00
04852             -25.00    16800.00
04853               9.80    17600.00
04854              25.00    17600.00
04855             -25.00    18400.00
04856             -20.00    18400.00
04857              25.00    19200.00
04858             -25.00    20000.00
04859             -16.60    20800.00
04860              25.00    20800.00
04861             -25.00    21600.00
04862               9.40    22400.00
04863              -3.00    22400.00
04864             -21.40    22400.00
04865              11.60    23200.00
04866              -8.40    24000.00
04867             -13.60    24800.00
04868              11.40    25600.00
04869              -6.20    25600.00
04870             -22.00    24800.00
04871              14.80    26400.00
04872             -14.60    27200.00
04873             -12.60    27200.00
04874               9.00    28000.00
04875             -12.80    28000.00
04876              -7.60    28000.00
04877              -0.40    28800.00
04878              -9.40    28000.00
04879              -8.60    28800.00
04880              -1.80    29600.00
04881              -9.80    30400.00
04882              -8.00    30400.00
04883              -4.20    29600.00
04884             -10.40    30400.00
04885              -7.00    30400.00
04886              -3.80    32000.00
04887             -12.20    31200.00
04888              -5.80    31200.00
04889              -6.80    32000.00
04890             -13.00    32000.00
04891              -6.00    32000.00
04892             -10.00    32800.00
04893             -10.20    32800.00
04894              -6.60    32800.00
04895             -10.20    32800.00
04896             -10.80    33600.00
04897              -9.60    32800.00
04898             -10.60    33600.00
04899             -10.60    33600.00
04900             -10.20    33600.00
04901             -10.20    33600.00
04902             -11.80    33600.00
04903             -10.00    33600.00
04904             -11.80    33600.00
04905             -12.20    33600.00
04906             -10.20    34400.00
04907             -13.40    33600.00
04908             -10.60    33600.00
04909             -11.00    33600.00
04910             -13.40    33600.00
04911             -10.80    33600.00
04912             -11.80    33600.00
04913             -11.60    33600.00
04914             -11.40    33600.00
04915             -11.00    33600.00
04916             -10.80    33600.00
04917             -11.00    32800.00
04918              -9.80    33600.00
04919             -10.60    33600.00
04920              -9.80    32800.00
04921              -9.40    32800.00
04922              -9.40    32000.00
04923              -8.60    32000.00
04924              -9.80    32800.00
04925              -9.00    32000.00
04926              -7.60    32000.00
04927              -9.00    31200.00
04928              -8.60    31200.00
04929              -7.80    31200.00
04930              -8.20    30400.00
04931              -7.60    30400.00
04932              -7.60    30400.00
04933              -7.40    30400.00
04934              -6.80    29600.00
04935              -6.80    28800.00
04936              -6.60    28800.00
04937              -6.80    28800.00
04938              -6.00    28000.00
04939              -6.00    28000.00
04940              -5.80    27200.00
04941              -6.00    27200.00
04942              -6.00    27200.00
04943              -5.00    27200.00
04944              -5.80    25600.00
04945              -5.40    25600.00
04946              -4.60    24800.00
04947              -5.40    24800.00
04948              -4.60    24000.00
04949              -4.40    24000.00
04950              -4.60    24000.00
04951              -4.20    23200.00
04952              -4.40    22400.00
04953              -3.80    22400.00
04954              -3.80    21600.00
04955              -3.80    20800.00
04956              -3.60    20800.00
04957              -3.60    19200.00
04958              -3.60    19200.00
04959              -3.40    19200.00
04960              -3.00    18400.00
04961              -3.40    18400.00
04962              -3.40    17600.00
04963              -2.00    16000.00
04964              -2.80    16000.00
04965              -3.40    16000.00
04966              -2.20    15200.00
04967              -2.20    14400.00
04968              -2.80    14400.00
04969              -2.20    12800.00
04970              -1.80    12800.00
04971              -2.00    12000.00
04972              -2.00    12000.00
04973              -2.20    11200.00
04974              -2.60    11200.00
04975              -2.20     9600.00
04976              -1.80     9600.00
04977              -1.80     8800.00
04978              -1.20     8000.00
04979              -2.00     8000.00
04980              -1.40     6400.00
04981              -0.60     6400.00
04982              -1.40     6400.00
04983              -1.00     4800.00
04984              -0.40     4800.00
04985              -1.20     3200.00
04986              -0.80     3200.00
04987              -0.60     2400.00
04988              -1.20     2400.00
04989              -0.40     1600.00
04990               0.00      800.00
04991              -0.60        0.00
04992               0.00     -800.00
04993               2.80     -800.00
04994               1.80    -1600.00
04995              -1.40    -1600.00
04996               2.20    -1600.00
04997               1.80    -3200.00
04998              -0.40    -4000.00
04999               1.40    -4000.00
05000              10.20    -4800.00
