Unit:(mV)
                     CH1         CH2
Frequency              ? 299.929 kHz
00001              25.00    -6400.00
00002             -17.60    -7200.00
00003             -25.00    -7200.00
00004              17.40    -8000.00
00005              14.20    -8000.00
00006             -25.00    -8000.00
00007              16.20    -9600.00
00008              25.00    -9600.00
00009             -25.00   -10400.00
00010              22.20   -11200.00
00011              25.00   -11200.00
00012             -25.00   -11200.00
00013              25.00   -12800.00
00014               1.40   -12800.00
00015              -9.60   -13600.00
00016              25.00   -14400.00
00017             -25.00   -14400.00
00018              25.00   -15200.00
00019              13.60   -15200.00
00020             -25.00   -16800.00
00021              25.00   -16800.00
00022              12.60   -16800.00
00023             -25.00   -17600.00
00024              13.80   -17600.00
00025              21.40   -19200.00
00026             -25.00   -19200.00
00027              22.20   -20000.00
00028              14.60   -20800.00
00029             -20.20   -20800.00
00030              21.40   -20800.00
00031              -2.60   -21600.00
00032              -8.60   -22400.00
00033              15.60   -22400.00
00034               2.00   -23200.00
00035              -4.40   -23200.00
00036              17.40   -24000.00
00037              -2.00   -24000.00
00038              -3.80   -24000.00
00039              16.40   -24800.00
00040              -5.00   -25600.00
00041               4.60   -25600.00
00042              11.40   -26400.00
00043              -0.20   -26400.00
00044               5.00   -27200.00
00045               8.00   -27200.00
00046               2.60   -28000.00
00047               5.40   -27200.00
00048               8.60   -27200.00
00049               2.20   -28800.00
00050               6.60   -28800.00
00051               7.60   -28800.00
00052               3.00   -28800.00
00053               8.40   -28800.00
00054               8.20   -29600.00
00055               3.80   -29600.00
00056               9.20   -30400.00
00057               6.80   -29600.00
00058               5.20   -30400.00
00059               9.00   -30400.00
00060               7.00   -30400.00
00061               8.20   -30400.00
00062               9.00   -31200.00
00063               7.60   -31200.00
00064               8.40   -31200.00
00065               9.00   -32000.00
00066               8.20   -32000.00
00067               8.00   -32000.00
00068              10.60   -31200.00
00069              10.00   -32000.00
00070               8.60   -32000.00
00071              10.60   -32000.00
00072               8.60   -32000.00
00073               8.80   -32000.00
00074              10.60   -32000.00
00075              10.20   -32000.00
00076              10.60   -32000.00
00077               9.20   -32000.00
00078               9.80   -32000.00
00079               9.80   -32000.00
00080               9.40   -32000.00
00081               9.80   -32000.00
00082               8.20   -32000.00
00083              10.00   -31200.00
00084               9.20   -32000.00
00085               6.80   -31200.00
00086               9.00   -31200.00
00087               8.60   -31200.00
00088               7.20   -30400.00
00089               8.60   -30400.00
00090               8.20   -30400.00
00091               5.80   -30400.00
00092               6.80   -29600.00
00093               7.40   -30400.00
00094               6.00   -29600.00
00095               6.00   -29600.00
00096               7.20   -28800.00
00097               6.00   -28800.00
00098               5.80   -29600.00
00099               6.00   -28800.00
00100               5.60   -28000.00
00101               5.20   -28000.00
00102               5.40   -27200.00
00103               5.20   -27200.00
00104               4.60   -26400.00
00105               4.20   -26400.00
00106               4.80   -25600.00
00107               4.60   -25600.00
00108               4.00   -25600.00
00109               4.20   -24800.00
00110               4.20   -24800.00
00111               3.80   -24800.00
00112               3.60   -24000.00
00113               3.80   -23200.00
00114               3.40   -23200.00
00115               3.40   -23200.00
00116               3.40   -22400.00
00117               2.80   -22400.00
00118               3.00   -21600.00
00119               2.80   -20800.00
00120               2.60   -20000.00
00121               3.00   -20000.00
00122               2.20   -19200.00
00123               2.60   -18400.00
00124               2.20   -18400.00
00125               2.00   -17600.00
00126               2.60   -17600.00
00127               1.80   -17600.00
00128               1.80   -16000.00
00129               2.20   -16000.00
00130               1.80   -16000.00
00131               2.00   -14400.00
00132               1.40   -14400.00
00133               1.20   -13600.00
00134               2.20   -13600.00
00135               0.40   -12800.00
00136               1.40   -12000.00
00137               1.40   -12000.00
00138               0.40   -11200.00
00139               1.20   -10400.00
00140               0.80    -9600.00
00141               0.40    -9600.00
00142               1.20    -8800.00
00143               0.40    -8800.00
00144               0.60    -8000.00
00145               0.60    -7200.00
00146               0.20    -7200.00
00147               0.00    -6400.00
00148               0.60    -5600.00
00149               0.20    -4800.00
00150              -0.20    -4000.00
00151               0.20    -4000.00
00152               0.20    -3200.00
00153              -0.40    -1600.00
00154              -0.20    -1600.00
00155               0.20     -800.00
00156              -1.20     -800.00
00157               0.00        0.00
00158               0.60        0.00
00159              -1.00     1600.00
00160               2.80     1600.00
00161               0.60     2400.00
00162              -3.40     2400.00
00163               1.20     3200.00
00164               0.20     3200.00
00165              -2.20     4800.00
00166               7.20     5600.00
00167              25.00     6400.00
00168              -9.00     7200.00
00169             -25.00     8000.00
00170              10.80     8000.00
00171              14.80     8000.00
00172             -25.00     8000.00
00173              25.00     9600.00
00174              25.00     9600.00
00175             -25.00    11200.00
00176              25.00    11200.00
00177             -19.20    11200.00
00178             -25.00    12000.00
00179              25.00    12800.00
00180             -25.00    12800.00
00181              25.00    14400.00
00182               5.20    14400.00
00183             -25.00    14400.00
00184              25.00    16000.00
00185             -25.00    16000.00
00186             -16.80    16000.00
00187              25.00    16800.00
00188             -25.00    17600.00
00189             -21.40    18400.00
00190              25.00    18400.00
00191              -7.60    18400.00
00192             -25.00    19200.00
00193              25.00    20000.00
00194             -21.40    20800.00
00195              -8.20    21600.00
00196              21.00    21600.00
00197             -25.00    22400.00
00198               5.20    22400.00
00199               3.60    22400.00
00200             -15.60    24000.00
00201               1.00    24000.00
00202               8.40    24000.00
00203             -21.00    24800.00
00204               3.60    25600.00
00205               0.40    25600.00
00206             -19.00    25600.00
00207               7.00    26400.00
00208              -7.60    27200.00
00209              -8.20    27200.00
00210              -0.80    28000.00
00211              -6.20    27200.00
00212              -8.40    28000.00
00213              -2.60    28000.00
00214              -5.20    28800.00
00215              -9.60    28800.00
00216              -2.80    28800.00
00217              -7.60    29600.00
00218              -9.00    29600.00
00219              -2.00    30400.00
00220              -8.60    30400.00
00221              -7.80    30400.00
00222              -3.80    31200.00
00223             -11.00    30400.00
00224              -6.80    31200.00
00225              -6.80    31200.00
00226             -10.20    32000.00
00227              -6.20    31200.00
00228              -8.20    32000.00
00229              -9.20    32800.00
00230              -9.20    32000.00
00231              -9.40    32000.00
00232              -8.60    32000.00
00233             -10.00    32800.00
00234              -9.20    32800.00
00235             -10.20    33600.00
00236              -9.40    32800.00
00237              -9.80    32800.00
00238             -10.80    32800.00
00239              -9.20    32800.00
00240             -11.40    32800.00
00241             -10.80    32800.00
00242              -8.40    32800.00
00243             -11.80    32800.00
00244             -10.20    32800.00
00245              -9.20    32000.00
00246             -10.00    32800.00
00247             -10.80    32800.00
00248             -11.00    32800.00
00249              -9.00    32800.00
00250             -10.20    32000.00
00251              -9.20    32000.00
00252              -7.00    32000.00
00253             -10.00    32800.00
00254              -9.00    32000.00
00255              -7.00    31200.00
00256              -9.00    32000.00
00257              -9.40    31200.00
00258              -5.80    31200.00
00259              -7.40    31200.00
00260              -9.40    30400.00
00261              -5.40    30400.00
00262              -7.60    30400.00
00263              -8.60    30400.00
00264              -3.80    30400.00
00265              -7.00    28800.00
00266              -7.60    28800.00
00267              -5.00    28800.00
00268              -7.00    28000.00
00269              -5.20    28000.00
00270              -4.60    28000.00
00271              -6.00    27200.00
00272              -4.60    27200.00
00273              -5.40    27200.00
00274              -5.40    26400.00
00275              -5.20    25600.00
00276              -5.00    25600.00
00277              -4.60    24800.00
00278              -4.20    24800.00
00279              -3.60    24000.00
00280              -5.40    24800.00
00281              -4.20    24000.00
00282              -3.80    23200.00
00283              -4.40    22400.00
00284              -3.60    22400.00
00285              -3.80    21600.00
00286              -3.00    22400.00
00287              -3.80    20800.00
00288              -3.60    20800.00
00289              -2.80    19200.00
00290              -3.80    19200.00
00291              -2.80    19200.00
00292              -2.80    18400.00
00293              -3.60    18400.00
00294              -2.80    17600.00
00295              -3.00    17600.00
00296              -2.20    16000.00
00297              -2.20    16000.00
00298              -2.60    16000.00
00299              -2.20    15200.00
00300              -2.60    15200.00
00301              -2.40    13600.00
00302              -2.40    12800.00
00303              -2.20    12800.00
00304              -1.60    12000.00
00305              -1.40    11200.00
00306              -2.00    11200.00
00307              -2.40    11200.00
00308              -2.00     9600.00
00309              -1.80     9600.00
00310              -1.60     8800.00
00311              -1.20     8000.00
00312              -1.20     7200.00
00313              -1.80     7200.00
00314              -1.00     6400.00
00315              -0.60     6400.00
00316              -1.00     5600.00
00317              -0.80     4800.00
00318              -0.60     4000.00
00319              -0.60     3200.00
00320              -0.80     2400.00
00321              -1.00     1600.00
00322              -0.60     1600.00
00323              -0.60      800.00
00324               0.00        0.00
00325               0.40        0.00
00326               1.20     -800.00
00327               3.60     -800.00
00328              -1.20    -1600.00
00329              -0.20    -1600.00
00330               1.40    -3200.00
00331               1.00    -3200.00
00332              -0.20    -3200.00
00333               6.00    -4000.00
00334              22.20    -5600.00
00335              11.80    -7200.00
00336             -25.00    -7200.00
00337              -6.40    -8000.00
00338              25.00    -8000.00
00339             -24.20    -8000.00
00340             -24.00    -8800.00
00341              25.00    -9600.00
00342             -13.80   -10400.00
00343             -25.00   -10400.00
00344              25.00   -11200.00
00345             -25.00   -11200.00
00346             -15.80   -12800.00
00347              25.00   -12800.00
00348             -25.00   -12800.00
00349              25.00   -13600.00
00350             -18.80   -14400.00
00351              -6.20   -15200.00
00352              25.00   -14400.00
00353             -25.00   -16000.00
00354               3.00   -16800.00
00355              25.00   -16800.00
00356             -21.20   -17600.00
00357              -9.40   -17600.00
00358              25.00   -19200.00
00359             -18.00   -18400.00
00360              -6.00   -19200.00
00361              25.00   -20000.00
00362             -19.00   -20000.00
00363               6.20   -20800.00
00364              15.40   -20800.00
00365             -15.00   -22400.00
00366               9.80   -23200.00
00367              11.60   -23200.00
00368              -7.60   -23200.00
00369               9.80   -24000.00
00370              10.80   -24000.00
00371             -10.60   -24000.00
00372              13.40   -24800.00
00373               5.00   -24800.00
00374              -4.20   -25600.00
00375              13.20   -26400.00
00376               2.60   -26400.00
00377               1.40   -27200.00
00378               9.00   -27200.00
00379               4.60   -27200.00
00380               2.60   -27200.00
00381               9.20   -28800.00
00382               4.40   -28000.00
00383               3.20   -28800.00
00384               9.20   -28800.00
00385               3.80   -28800.00
00386               5.60   -28800.00
00387              10.00   -29600.00
00388               3.80   -29600.00
00389               7.00   -29600.00
00390               9.20   -29600.00
00391               4.60   -30400.00
00392               8.40   -30400.00
00393               8.60   -30400.00
00394               7.00   -30400.00
00395               9.40   -30400.00
00396               8.20   -31200.00
00397               7.80   -32000.00
00398               8.40   -31200.00
00399               8.60   -31200.00
00400               9.00   -32000.00
00401               9.20   -32000.00
00402               9.20   -32000.00
00403               9.20   -32000.00
00404              10.60   -32000.00
00405               8.80   -31200.00
00406               9.40   -32000.00
00407              10.80   -32000.00
00408               9.00   -32000.00
00409              10.60   -32000.00
00410              10.20   -32000.00
00411               8.60   -32000.00
00412              10.60   -32000.00
00413               9.80   -32000.00
00414               9.20   -32000.00
00415               9.00   -32000.00
00416               8.60   -32000.00
00417               8.60   -30400.00
00418               8.60   -31200.00
00419               8.40   -30400.00
00420               7.80   -30400.00
00421               8.40   -31200.00
00422               7.80   -30400.00
00423               7.00   -31200.00
00424               7.80   -30400.00
00425               6.60   -30400.00
00426               6.80   -29600.00
00427               7.60   -29600.00
00428               5.80   -28800.00
00429               6.00   -28800.00
00430               6.60   -28800.00
00431               5.00   -28800.00
00432               5.80   -28800.00
00433               6.20   -28800.00
00434               4.40   -28000.00
00435               5.00   -28000.00
00436               5.20   -27200.00
00437               4.60   -27200.00
00438               4.40   -27200.00
00439               5.20   -26400.00
00440               4.20   -26400.00
00441               4.60   -25600.00
00442               3.80   -25600.00
00443               3.80   -25600.00
00444               5.00   -24000.00
00445               3.60   -24000.00
00446               3.40   -24000.00
00447               4.20   -23200.00
00448               2.60   -23200.00
00449               3.00   -22400.00
00450               3.60   -21600.00
00451               2.60   -20800.00
00452               2.80   -20800.00
00453               3.20   -20000.00
00454               2.80   -20800.00
00455               2.60   -19200.00
00456               2.60   -18400.00
00457               2.40   -18400.00
00458               2.20   -17600.00
00459               2.60   -17600.00
00460               1.80   -16800.00
00461               2.20   -16800.00
00462               2.00   -16800.00
00463               1.40   -15200.00
00464               2.00   -16000.00
00465               1.40   -14400.00
00466               1.20   -14400.00
00467               1.80   -13600.00
00468               1.20   -13600.00
00469               1.20   -12800.00
00470               1.20   -12000.00
00471               1.20   -11200.00
00472               1.60   -10400.00
00473               0.60   -10400.00
00474               0.60    -9600.00
00475               0.60    -8800.00
00476               0.40    -8000.00
00477               0.60    -8000.00
00478               0.40    -7200.00
00479               0.60    -6400.00
00480               0.40    -6400.00
00481               0.20    -6400.00
00482               0.20    -4800.00
00483               0.40    -4000.00
00484              -0.40    -3200.00
00485              -0.40    -2400.00
00486               0.40    -2400.00
00487              -0.20    -2400.00
00488              -0.60    -1600.00
00489              -0.20     -800.00
00490              -0.40        0.00
00491              -0.20      800.00
00492              -0.20      800.00
00493               1.00     1600.00
00494               2.80     2400.00
00495              -3.40     2400.00
00496              -1.00     3200.00
00497               1.20     3200.00
00498              -1.00     4800.00
00499               1.00     4800.00
00500              19.00     6400.00
00501              24.20     7200.00
00502             -25.00     8000.00
00503             -17.20     8000.00
00504              25.00     8000.00
00505             -25.00     8000.00
00506              -8.00     8800.00
00507              25.00     9600.00
00508             -25.00     9600.00
00509              21.20    11200.00
00510              25.00    11200.00
00511             -25.00    12000.00
00512              25.00    12800.00
00513             -22.00    12800.00
00514             -17.20    14400.00
00515              25.00    14400.00
00516             -25.00    14400.00
00517              25.00    16000.00
00518              25.00    16000.00
00519             -25.00    16000.00
00520              25.00    16800.00
00521               3.60    17600.00
00522             -25.00    18400.00
00523              11.40    18400.00
00524              19.60    19200.00
00525             -25.00    19200.00
00526              17.00    20800.00
00527              15.40    20800.00
00528             -25.00    20800.00
00529              25.00    21600.00
00530             -17.40    22400.00
00531             -14.60    22400.00
00532              12.20    23200.00
00533             -11.00    24000.00
00534              -8.60    24000.00
00535              12.20    24000.00
00536             -11.00    24800.00
00537             -12.40    25600.00
00538              11.00    25600.00
00539             -18.80    25600.00
00540              -1.20    26400.00
00541               1.80    26400.00
00542             -12.40    27200.00
00543              -1.80    27200.00
00544              -4.20    27200.00
00545              -8.60    28000.00
00546              -5.20    28000.00
00547              -2.20    28800.00
00548             -10.00    28800.00
00549              -5.20    28800.00
00550              -4.40    29600.00
00551             -10.80    29600.00
00552              -3.60    29600.00
00553              -5.20    30400.00
00554             -10.20    29600.00
00555              -3.60    30400.00
00556              -8.60    31200.00
00557             -10.00    31200.00
00558              -5.20    30400.00
00559             -10.60    31200.00
00560              -7.40    32000.00
00561              -6.80    32000.00
00562              -9.80    32800.00
00563              -8.60    32000.00
00564              -9.20    32800.00
00565              -9.40    32000.00
00566              -9.20    32800.00
00567              -9.00    32800.00
00568             -10.20    32800.00
00569             -10.20    32000.00
00570              -8.60    32800.00
00571             -11.60    32800.00
00572              -9.60    32800.00
00573             -10.00    33600.00
00574             -11.60    32800.00
00575              -7.80    32800.00
00576             -11.80    32800.00
00577             -11.00    32800.00
00578              -9.20    32800.00
00579             -11.00    32800.00
00580              -9.40    32000.00
00581             -10.00    32800.00
00582             -10.20    32000.00
00583              -9.40    32800.00
00584              -8.60    32000.00
00585              -8.60    32000.00
00586              -9.40    32800.00
00587              -7.80    32000.00
00588              -8.60    31200.00
00589              -8.20    31200.00
00590              -7.60    32000.00
00591              -8.40    31200.00
00592              -7.40    30400.00
00593              -7.00    31200.00
00594              -7.40    30400.00
00595              -6.80    30400.00
00596              -7.00    29600.00
00597              -6.60    29600.00
00598              -6.00    28800.00
00599              -7.00    28800.00
00600              -6.20    28800.00
00601              -5.80    28000.00
00602              -6.00    28000.00
00603              -5.80    28000.00
00604              -5.40    28000.00
00605              -5.80    27200.00
00606              -5.40    27200.00
00607              -4.40    27200.00
00608              -5.40    26400.00
00609              -5.20    25600.00
00610              -4.00    25600.00
00611              -5.00    25600.00
00612              -4.40    24800.00
00613              -4.00    24000.00
00614              -5.00    24000.00
00615              -3.80    24000.00
00616              -4.00    23200.00
00617              -4.00    22400.00
00618              -3.60    22400.00
00619              -3.80    21600.00
00620              -3.40    21600.00
00621              -3.40    20000.00
00622              -3.80    20000.00
00623              -3.60    20000.00
00624              -3.00    19200.00
00625              -3.00    19200.00
00626              -3.00    18400.00
00627              -2.40    17600.00
00628              -3.00    17600.00
00629              -3.00    16800.00
00630              -1.80    16000.00
00631              -3.00    16000.00
00632              -2.80    15200.00
00633              -2.00    14400.00
00634              -2.60    13600.00
00635              -2.20    14400.00
00636              -2.00    12800.00
00637              -2.60    12000.00
00638              -1.40    12000.00
00639              -1.80    11200.00
00640              -1.80    11200.00
00641              -1.40     9600.00
00642              -1.20     9600.00
00643              -2.00     8800.00
00644              -1.00     8000.00
00645              -1.20     8000.00
00646              -1.40     8000.00
00647              -0.60     6400.00
00648              -1.00     6400.00
00649              -1.40     5600.00
00650              -0.60     4800.00
00651              -1.20     4800.00
00652              -0.60     3200.00
00653              -0.20     2400.00
00654              -1.00     2400.00
00655              -0.60     1600.00
00656               0.20     1600.00
00657              -0.40      800.00
00658               0.40        0.00
00659               0.60     -800.00
00660               3.00    -1600.00
00661               0.40    -1600.00
00662              -1.20    -1600.00
00663               1.40    -2400.00
00664               1.20    -3200.00
00665               0.20    -3200.00
00666               2.80    -4000.00
00667              14.00    -4800.00
00668              25.00    -6400.00
00669             -25.00    -7200.00
00670             -25.00    -8000.00
00671              24.40    -8000.00
00672               3.60    -8000.00
00673             -25.00    -8000.00
00674              25.00    -9600.00
00675              25.00   -10400.00
00676             -25.00    -9600.00
00677              25.00   -11200.00
00678              25.00   -11200.00
00679             -25.00   -11200.00
00680              25.00   -13600.00
00681             -17.80   -12800.00
00682               6.00   -13600.00
00683              18.20   -13600.00
00684             -25.00   -14400.00
00685              25.00   -15200.00
00686              -4.40   -16000.00
00687             -25.00   -16000.00
00688              25.00   -16000.00
00689               0.20   -17600.00
00690             -25.00   -17600.00
00691              23.40   -18400.00
00692               9.20   -19200.00
00693             -25.00   -19200.00
00694              25.00   -20000.00
00695               2.00   -20800.00
00696             -14.20   -20000.00
00697              24.20   -20800.00
00698              -9.20   -22400.00
00699              -3.00   -22400.00
00700              16.20   -23200.00
00701              -2.60   -23200.00
00702              -0.40   -24000.00
00703              18.00   -24000.00
00704              -6.20   -24000.00
00705               2.20   -24800.00
00706              14.20   -25600.00
00707              -6.80   -25600.00
00708               8.80   -25600.00
00709               9.00   -26400.00
00710              -0.40   -26400.00
00711               6.60   -26400.00
00712               6.80   -27200.00
00713               1.80   -27200.00
00714               6.80   -27200.00
00715               8.20   -28000.00
00716               2.00   -28800.00
00717               7.80   -28800.00
00718               6.60   -28800.00
00719               3.60   -28800.00
00720               9.20   -28800.00
00721               6.80   -29600.00
00722               4.60   -29600.00
00723               9.80   -30400.00
00724               6.00   -30400.00
00725               6.20   -30400.00
00726               9.00   -30400.00
00727               6.60   -30400.00
00728               8.60   -31200.00
00729               8.60   -31200.00
00730               7.40   -32000.00
00731               8.60   -32000.00
00732               8.60   -31200.00
00733               8.60   -31200.00
00734               9.20   -32000.00
00735               9.80   -32000.00
00736               8.80   -32000.00
00737              10.00   -32000.00
00738              10.20   -32000.00
00739               8.40   -32000.00
00740              11.00   -32000.00
00741              10.00   -32000.00
00742               9.40   -32000.00
00743              10.80   -32800.00
00744               9.00   -32000.00
00745               9.80   -32000.00
00746               9.80   -32000.00
00747               9.40   -32000.00
00748               9.40   -32000.00
00749               8.40   -32000.00
00750               8.60   -32000.00
00751               9.00   -32000.00
00752               8.40   -31200.00
00753               7.60   -31200.00
00754               8.20   -31200.00
00755               8.20   -31200.00
00756               7.00   -30400.00
00757               7.00   -30400.00
00758               7.40   -30400.00
00759               6.80   -29600.00
00760               6.80   -29600.00
00761               6.80   -29600.00
00762               6.20   -29600.00
00763               6.80   -28800.00
00764               6.00   -28800.00
00765               5.60   -28800.00
00766               5.80   -28000.00
00767               5.20   -27200.00
00768               5.20   -28000.00
00769               5.40   -27200.00
00770               4.40   -27200.00
00771               4.60   -27200.00
00772               5.00   -26400.00
00773               4.60   -25600.00
00774               4.40   -26400.00
00775               4.60   -25600.00
00776               3.40   -24800.00
00777               4.20   -24800.00
00778               4.40   -24000.00
00779               3.40   -24000.00
00780               3.60   -24000.00
00781               4.00   -23200.00
00782               3.00   -22400.00
00783               2.80   -22400.00
00784               3.00   -21600.00
00785               3.40   -20800.00
00786               2.80   -20800.00
00787               2.80   -20800.00
00788               3.00   -20000.00
00789               2.60   -19200.00
00790               2.00   -18400.00
00791               2.20   -18400.00
00792               2.40   -17600.00
00793               2.20   -17600.00
00794               1.80   -16800.00
00795               2.60   -16000.00
00796               1.80   -16000.00
00797               1.80   -14400.00
00798               2.00   -14400.00
00799               1.40   -14400.00
00800               1.40   -13600.00
00801               1.60   -13600.00
00802               1.00   -12800.00
00803               1.40   -12000.00
00804               1.00   -11200.00
00805               1.40   -11200.00
00806               1.20   -10400.00
00807               0.60    -9600.00
00808               0.40    -9600.00
00809               0.20    -8000.00
00810               0.40    -8000.00
00811               0.40    -8000.00
00812               1.00    -7200.00
00813               0.60    -7200.00
00814              -0.20    -5600.00
00815               0.00    -5600.00
00816               0.60    -4800.00
00817              -0.80    -4000.00
00818              -0.60    -3200.00
00819               0.80    -3200.00
00820               0.20    -3200.00
00821              -1.00    -1600.00
00822              -0.60    -1600.00
00823               0.40        0.00
00824              -1.20        0.00
00825               0.20        0.00
00826               1.20     1600.00
00827               3.00     1600.00
00828              -2.80     2400.00
00829              -0.20     3200.00
00830               1.20     3200.00
00831              -2.20     4000.00
00832              -0.40     4000.00
00833              10.60     5600.00
00834              25.00     7200.00
00835             -25.00     8000.00
00836             -25.00     8000.00
00837              19.40     8000.00
00838               3.20     8800.00
00839             -25.00     8000.00
00840              25.00    10400.00
00841              -4.20     9600.00
00842             -25.00    11200.00
00843              25.00    11200.00
00844             -25.00    11200.00
00845              -4.60    12800.00
00846              25.00    12800.00
00847             -25.00    12800.00
00848              25.00    14400.00
00849             -25.00    14400.00
00850             -25.00    15200.00
00851              25.00    15200.00
00852             -25.00    16000.00
00853               9.00    16800.00
00854              25.00    16800.00
00855             -25.00    17600.00
00856             -11.60    19200.00
00857              25.00    18400.00
00858             -22.00    19200.00
00859             -18.40    20000.00
00860              25.00    20000.00
00861             -25.00    20800.00
00862               6.00    21600.00
00863              10.00    21600.00
00864             -25.00    22400.00
00865              11.40    22400.00
00866              -1.20    23200.00
00867             -15.80    23200.00
00868               5.20    24000.00
00869               3.40    24800.00
00870             -21.40    24800.00
00871               9.00    25600.00
00872              -5.80    25600.00
00873             -14.80    25600.00
00874               7.20    27200.00
00875             -10.20    27200.00
00876              -6.00    27200.00
00877              -1.80    28000.00
00878              -7.00    28000.00
00879              -7.80    27200.00
00880              -2.20    28000.00
00881              -7.20    28800.00
00882              -8.40    28800.00
00883              -2.80    28800.00
00884              -9.20    29600.00
00885              -7.60    28800.00
00886              -2.20    29600.00
00887             -10.20    30400.00
00888              -6.20    30400.00
00889              -3.80    30400.00
00890             -11.60    31200.00
00891              -6.00    31200.00
00892              -7.40    31200.00
00893             -11.20    32000.00
00894              -6.60    31200.00
00895              -8.60    32000.00
00896              -9.40    32000.00
00897              -7.80    32800.00
00898              -9.40    32000.00
00899              -7.60    32800.00
00900              -9.20    32000.00
00901             -10.00    32800.00
00902             -10.20    32800.00
00903              -9.20    32800.00
00904             -11.60    32800.00
00905             -10.40    32800.00
00906              -8.20    32800.00
00907             -12.60    32800.00
00908              -8.20    32800.00
00909              -9.00    32800.00
00910             -12.60    32800.00
00911              -9.20    33600.00
00912             -10.80    32000.00
00913             -10.60    32800.00
00914             -10.00    32800.00
00915             -10.20    32000.00
00916              -9.00    32800.00
00917              -8.40    32800.00
00918              -8.60    32000.00
00919              -8.60    32800.00
00920              -8.60    32000.00
00921              -9.20    32000.00
00922              -8.60    32000.00
00923              -8.00    31200.00
00924              -8.60    31200.00
00925              -7.60    30400.00
00926              -6.40    31200.00
00927              -7.00    31200.00
00928              -7.00    30400.00
00929              -7.00    30400.00
00930              -6.80    29600.00
00931              -6.80    30400.00
00932              -6.80    28800.00
00933              -6.20    28800.00
00934              -6.00    28800.00
00935              -5.40    28800.00
00936              -5.20    28000.00
00937              -5.80    28000.00
00938              -5.40    27200.00
00939              -5.80    27200.00
00940              -5.40    27200.00
00941              -4.60    26400.00
00942              -5.80    26400.00
00943              -4.80    25600.00
00944              -4.20    24800.00
00945              -5.00    24800.00
00946              -3.80    24800.00
00947              -4.40    24000.00
00948              -4.60    24000.00
00949              -3.80    23200.00
00950              -3.80    22400.00
00951              -3.80    22400.00
00952              -4.20    21600.00
00953              -3.40    21600.00
00954              -3.60    20800.00
00955              -3.80    20800.00
00956              -3.40    20000.00
00957              -3.40    19200.00
00958              -2.80    18400.00
00959              -3.00    18400.00
00960              -3.40    18400.00
00961              -2.80    17600.00
00962              -2.80    16800.00
00963              -2.20    16000.00
00964              -2.20    16000.00
00965              -2.60    15200.00
00966              -2.00    14400.00
00967              -2.20    14400.00
00968              -2.20    12800.00
00969              -2.20    12800.00
00970              -2.80    12800.00
00971              -2.00    12000.00
00972              -1.40    11200.00
00973              -2.00    11200.00
00974              -1.80    11200.00
00975              -1.20     9600.00
00976              -1.20     8800.00
00977              -1.60     8800.00
00978              -1.20     8000.00
00979              -1.80     8000.00
00980              -1.40     7200.00
00981              -1.00     6400.00
00982              -0.80     5600.00
00983              -0.60     5600.00
00984              -1.00     4800.00
00985              -0.60     4000.00
00986              -0.60     3200.00
00987              -1.00     3200.00
00988              -1.00     2400.00
00989              -0.20     1600.00
00990              -0.40      800.00
00991              -0.40        0.00
00992               0.40        0.00
00993               2.20     -800.00
00994               2.80     -800.00
00995              -1.20    -1600.00
00996               1.40    -1600.00
00997               1.40    -3200.00
00998              -0.20    -3200.00
00999               1.00    -3200.00
01000               7.80    -4000.00
01001              25.00    -6400.00
01002              -0.60    -7200.00
01003             -25.00    -8000.00
01004               5.20    -7200.00
01005              23.00    -8000.00
01006             -25.00    -8000.00
01007              -7.80    -8000.00
01008              25.00    -9600.00
01009             -25.00   -10400.00
01010             -17.20   -10400.00
01011              25.00   -11200.00
01012             -25.00   -11200.00
01013              10.80   -12800.00
01014              24.40   -12800.00
01015             -25.00   -12800.00
01016              25.00   -13600.00
01017             -25.00   -14400.00
01018              10.80   -15200.00
01019              25.00   -14400.00
01020             -25.00   -16000.00
01021              16.60   -16000.00
01022              25.00   -16800.00
01023             -25.00   -17600.00
01024               1.20   -18400.00
01025              25.00   -19200.00
01026             -25.00   -18400.00
01027               8.20   -20000.00
01028              25.00   -20000.00
01029             -22.80   -20000.00
01030              14.60   -20800.00
01031               7.40   -21600.00
01032             -13.60   -22400.00
01033              13.20   -22400.00
01034               7.80   -23200.00
01035              -7.40   -23200.00
01036              14.20   -24000.00
01037               5.00   -24000.00
01038              -8.80   -24800.00
01039              16.20   -24800.00
01040              -0.20   -25600.00
01041               0.20   -25600.00
01042              13.80   -25600.00
01043               0.60   -26400.00
01044               3.00   -26400.00
01045               9.20   -27200.00
01046               3.40   -27200.00
01047               3.60   -27200.00
01048               9.80   -27200.00
01049               3.00   -28800.00
01050               4.20   -28800.00
01051               9.20   -28800.00
01052               3.20   -28800.00
01053               7.00   -28800.00
01054               9.80   -29600.00
01055               3.80   -29600.00
01056               8.20   -29600.00
01057               8.20   -29600.00
01058               4.60   -30400.00
01059               8.60   -31200.00
01060               7.80   -30400.00
01061               7.40   -30400.00
01062               9.40   -30400.00
01063               7.60   -31200.00
01064               7.80   -32000.00
01065               8.60   -32000.00
01066               8.20   -32000.00
01067               9.00   -32000.00
01068               9.60   -32000.00
01069               8.60   -32000.00
01070               9.20   -32000.00
01071              10.60   -32000.00
01072               8.40   -32000.00
01073               9.80   -32000.00
01074              10.60   -32000.00
01075               8.40   -32000.00
01076              10.60   -32000.00
01077               9.40   -32000.00
01078               9.00   -32000.00
01079              10.80   -32000.00
01080               9.20   -32000.00
01081               9.40   -32000.00
01082               9.20   -32000.00
01083               8.20   -32000.00
01084               8.20   -32000.00
01085               8.20   -32000.00
01086               8.20   -30400.00
01087               8.20   -31200.00
01088               8.20   -31200.00
01089               8.20   -30400.00
01090               7.00   -30400.00
01091               7.00   -30400.00
01092               6.80   -29600.00
01093               6.20   -29600.00
01094               7.00   -29600.00
01095               6.60   -29600.00
01096               5.60   -28800.00
01097               7.40   -28800.00
01098               5.20   -28800.00
01099               5.00   -28800.00
01100               7.60   -28800.00
01101               4.00   -28000.00
01102               3.80   -27200.00
01103               6.80   -26400.00
01104               3.80   -27200.00
01105               4.60   -26400.00
01106               6.40   -26400.00
01107               3.60   -26400.00
01108               5.00   -25600.00
01109               4.20   -25600.00
01110               3.20   -25600.00
01111               4.60   -24000.00
01112               3.40   -24000.00
01113               3.60   -24000.00
01114               4.20   -23200.00
01115               2.80   -22400.00
01116               3.60   -22400.00
01117               3.40   -21600.00
01118               2.80   -21600.00
01119               2.60   -20800.00
01120               2.80   -20800.00
01121               3.00   -20000.00
01122               2.20   -20000.00
01123               2.80   -18400.00
01124               2.60   -18400.00
01125               2.20   -17600.00
01126               2.40   -17600.00
01127               1.80   -16800.00
01128               1.80   -16800.00
01129               1.80   -16000.00
01130               1.60   -15200.00
01131               2.00   -14400.00
01132               1.80   -13600.00
01133               1.40   -13600.00
01134               1.60   -13600.00
01135               1.00   -12800.00
01136               1.20   -12800.00
01137               1.00   -12000.00
01138               1.00   -11200.00
01139               1.20   -11200.00
01140               0.40    -9600.00
01141               0.60    -9600.00
01142               0.60    -9600.00
01143               0.20    -8000.00
01144               0.40    -8000.00
01145               0.20    -6400.00
01146               0.20    -7200.00
01147               0.40    -6400.00
01148               0.20    -4800.00
01149               0.20    -4800.00
01150               0.20    -4000.00
01151               0.00    -3200.00
01152              -0.20    -2400.00
01153              -0.20    -2400.00
01154              -0.60    -1600.00
01155              -0.60     -800.00
01156              -0.60        0.00
01157              -0.60        0.00
01158              -0.20      800.00
01159               0.20     1600.00
01160               2.00     1600.00
01161               1.80     2400.00
01162              -2.60     2400.00
01163              -0.20     3200.00
01164               0.60     3200.00
01165              -1.80     3200.00
01166               3.40     5600.00
01167              25.00     6400.00
01168              11.00     7200.00
01169             -25.00     8000.00
01170              -3.40     8000.00
01171              24.60     8000.00
01172             -25.00     8800.00
01173              16.20     9600.00
01174              25.00    10400.00
01175             -25.00    10400.00
01176              25.00    11200.00
01177              25.00    11200.00
01178             -25.00    12000.00
01179              25.00    12800.00
01180             -25.00    12800.00
01181              17.00    14400.00
01182              25.00    14400.00
01183             -25.00    14400.00
01184              25.00    15200.00
01185              -8.20    16000.00
01186             -25.00    16800.00
01187              25.00    17600.00
01188             -12.80    17600.00
01189             -25.00    17600.00
01190              20.40    19200.00
01191               8.60    19200.00
01192             -25.00    19200.00
01193              25.00    20800.00
01194              -2.00    20800.00
01195             -24.40    20800.00
01196              25.00    21600.00
01197             -25.00    22400.00
01198              -5.40    22400.00
01199               9.40    23200.00
01200             -13.80    23200.00
01201              -5.00    24000.00
01202              11.80    24000.00
01203             -17.20    24800.00
01204              -5.80    25600.00
01205               7.40    25600.00
01206             -21.00    25600.00
01207               3.60    25600.00
01208              -2.40    26400.00
01209             -11.40    27200.00
01210              -0.60    27200.00
01211              -5.20    27200.00
01212              -9.40    27200.00
01213              -3.60    28000.00
01214              -3.60    28000.00
01215             -10.60    28800.00
01216              -3.80    29600.00
01217              -6.00    28800.00
01218             -10.80    29600.00
01219              -2.60    30400.00
01220              -7.00    30400.00
01221              -9.80    30400.00
01222              -3.40    30400.00
01223             -10.00    31200.00
01224              -8.40    31200.00
01225              -5.60    31200.00
01226             -10.60    31200.00
01227              -6.20    31200.00
01228              -7.40    32000.00
01229              -9.60    32000.00
01230              -8.60    32800.00
01231              -9.40    32000.00
01232              -9.20    32800.00
01233              -9.20    32800.00
01234              -8.60    32000.00
01235             -10.20    32800.00
01236              -9.40    32000.00
01237              -9.00    32800.00
01238             -11.60    32800.00
01239              -8.60    32800.00
01240             -10.80    32800.00
01241             -10.80    32000.00
01242              -8.20    32000.00
01243             -12.20    32800.00
01244             -10.00    32800.00
01245              -9.40    32800.00
01246             -10.80    32000.00
01247              -9.20    32800.00
01248             -10.20    32000.00
01249             -10.00    32000.00
01250              -9.20    32000.00
01251              -9.00    32000.00
01252              -8.60    32800.00
01253              -9.20    32000.00
01254              -8.20    32000.00
01255              -8.40    31200.00
01256              -7.60    31200.00
01257              -8.00    31200.00
01258              -8.40    31200.00
01259              -6.80    30400.00
01260              -7.60    30400.00
01261              -7.60    30400.00
01262              -6.80    30400.00
01263              -7.60    29600.00
01264              -6.20    29600.00
01265              -6.20    28800.00
01266              -7.40    28800.00
01267              -6.00    28800.00
01268              -6.20    28800.00
01269              -6.00    28000.00
01270              -5.60    28000.00
01271              -5.40    27200.00
01272              -5.40    27200.00
01273              -5.80    26400.00
01274              -4.20    26400.00
01275              -5.40    25600.00
01276              -6.00    25600.00
01277              -3.80    25600.00
01278              -4.60    24800.00
01279              -4.80    24800.00
01280              -3.80    24000.00
01281              -4.40    24000.00
01282              -4.40    24000.00
01283              -3.80    22400.00
01284              -3.80    22400.00
01285              -3.80    22400.00
01286              -3.40    21600.00
01287              -4.40    20800.00
01288              -3.00    20800.00
01289              -3.60    20800.00
01290              -4.60    19200.00
01291              -1.40    19200.00
01292              -2.60    18400.00
01293              -4.40    18400.00
01294              -1.40    17600.00
01295              -3.00    17600.00
01296              -4.00    16800.00
01297              -1.00    16000.00
01298              -2.60    16000.00
01299              -3.60    14400.00
01300              -0.80    14400.00
01301              -2.00    13600.00
01302              -3.00    12800.00
01303              -1.20    12800.00
01304              -2.20    12000.00
01305              -2.20    11200.00
01306              -0.60    11200.00
01307              -2.00    11200.00
01308              -1.80     9600.00
01309              -0.60     9600.00
01310              -2.00     8800.00
01311              -1.20     8800.00
01312              -1.80     8000.00
01313              -1.40     7200.00
01314              -0.40     6400.00
01315              -1.20     6400.00
01316              -1.20     4800.00
01317               0.40     4800.00
01318              -1.00     4000.00
01319              -1.00     4000.00
01320              -0.40     2400.00
01321              -1.00     1600.00
01322              -1.00     1600.00
01323               0.20     1600.00
01324              -0.20        0.00
01325               0.20        0.00
01326               0.60     -800.00
01327               3.80    -1600.00
01328              -0.60    -1600.00
01329              -1.40    -2400.00
01330               1.60    -3200.00
01331               1.20    -3200.00
01332              -0.60    -4000.00
01333               4.40    -4000.00
01334              18.40    -4800.00
01335              22.00    -6400.00
01336             -25.00    -7200.00
01337             -21.00    -8000.00
01338              25.00    -8000.00
01339              -9.20    -8800.00
01340             -25.00    -8000.00
01341              25.00    -9600.00
01342              24.20   -10400.00
01343             -25.00    -9600.00
01344              25.00   -11200.00
01345               1.40   -11200.00
01346             -25.00   -11200.00
01347              25.00   -12800.00
01348             -25.00   -13600.00
01349              20.20   -14400.00
01350               2.00   -13600.00
01351             -25.00   -14400.00
01352              25.00   -16000.00
01353             -20.20   -16000.00
01354             -14.00   -16800.00
01355              25.00   -16800.00
01356             -10.20   -17600.00
01357             -19.80   -18400.00
01358              25.00   -18400.00
01359              -3.00   -19200.00
01360             -20.20   -19200.00
01361              25.00   -20000.00
01362              -8.60   -20000.00
01363              -5.40   -21600.00
01364              21.80   -20800.00
01365             -13.20   -22400.00
01366               3.00   -22400.00
01367              14.80   -22400.00
01368              -5.40   -23200.00
01369               3.60   -23200.00
01370              15.80   -24000.00
01371              -9.20   -24000.00
01372               7.80   -24000.00
01373              10.20   -24800.00
01374              -7.00   -25600.00
01375              11.80   -25600.00
01376               5.80   -26400.00
01377               0.40   -26400.00
01378               8.40   -27200.00
01379               6.00   -27200.00
01380               2.00   -27200.00
01381               7.80   -27200.00
01382               6.60   -28000.00
01383               2.40   -28800.00
01384               9.00   -28800.00
01385               5.40   -28800.00
01386               4.40   -28800.00
01387               9.80   -28800.00
01388               5.40   -29600.00
01389               5.80   -29600.00
01390               9.80   -29600.00
01391               5.40   -30400.00
01392               7.00   -30400.00
01393               9.20   -30400.00
01394               6.80   -30400.00
01395               8.60   -31200.00
01396               8.20   -31200.00
01397               7.60   -31200.00
01398               7.80   -32000.00
01399               8.40   -31200.00
01400               9.00   -32000.00
01401               8.60   -32000.00
01402               9.40   -32000.00
01403               9.00   -32000.00
01404               9.80   -32000.00
01405               9.40   -32000.00
01406               8.60   -32000.00
01407              10.60   -32000.00
01408               9.20   -32000.00
01409               9.80   -32000.00
01410              10.60   -32000.00
01411               8.60   -32000.00
01412              10.00   -32000.00
01413              10.00   -32000.00
01414               9.20   -32000.00
01415               9.20   -32000.00
01416               8.60   -32000.00
01417               8.60   -30400.00
01418               8.40   -32000.00
01419               8.40   -31200.00
01420               7.80   -30400.00
01421               7.80   -31200.00
01422               8.20   -30400.00
01423               7.20   -30400.00
01424               7.60   -29600.00
01425               7.00   -30400.00
01426               7.00   -29600.00
01427               7.60   -29600.00
01428               6.20   -28800.00
01429               6.60   -29600.00
01430               6.40   -28800.00
01431               5.80   -28800.00
01432               5.80   -28800.00
01433               5.80   -28800.00
01434               5.20   -28000.00
01435               5.20   -27200.00
01436               5.80   -27200.00
01437               5.20   -27200.00
01438               4.40   -27200.00
01439               5.20   -26400.00
01440               4.60   -26400.00
01441               4.20   -25600.00
01442               4.20   -24800.00
01443               4.20   -24800.00
01444               4.40   -24000.00
01445               3.80   -24000.00
01446               3.60   -24000.00
01447               4.20   -23200.00
01448               3.00   -23200.00
01449               3.20   -22400.00
01450               3.60   -22400.00
01451               3.00   -21600.00
01452               2.60   -20800.00
01453               2.80   -20800.00
01454               3.40   -20000.00
01455               2.00   -20000.00
01456               3.20   -19200.00
01457               2.60   -18400.00
01458               1.00   -18400.00
01459               3.00   -17600.00
01460               2.00   -16800.00
01461               1.20   -16800.00
01462               2.20   -16000.00
01463               1.80   -15200.00
01464               1.40   -16000.00
01465               1.80   -14400.00
01466               1.40   -14400.00
01467               0.80   -13600.00
01468               1.20   -13600.00
01469               1.20   -12800.00
01470              -0.20   -12000.00
01471               1.80   -11200.00
01472               2.20   -11200.00
01473               0.40   -10400.00
01474               0.60    -9600.00
01475               0.60    -8800.00
01476              -0.40    -8000.00
01477               0.60    -8800.00
01478               1.00    -8000.00
01479               0.20    -6400.00
01480               1.20    -6400.00
01481               0.00    -6400.00
01482              -0.40    -4800.00
01483               0.40    -4000.00
01484              -0.60    -3200.00
01485              -0.20    -3200.00
01486               0.60    -2400.00
01487              -0.60    -1600.00
01488              -0.20    -2400.00
01489               0.40     -800.00
01490               0.20        0.00
01491              -0.40        0.00
01492               0.00      800.00
01493              -0.40     1600.00
01494               2.00     1600.00
01495              -1.60     1600.00
01496              -0.40     3200.00
01497               1.80     3200.00
01498               0.40     4000.00
01499              -1.00     4800.00
01500              13.00     5600.00
01501              25.00     7200.00
01502             -25.00     8000.00
01503             -25.00     8000.00
01504              25.00     8000.00
01505             -10.80     8000.00
01506             -25.00     8800.00
01507              25.00    10400.00
01508             -25.00     9600.00
01509             -24.20    11200.00
01510              25.00    12000.00
01511             -25.00    12000.00
01512              25.00    12800.00
01513              19.00    12800.00
01514             -25.00    13600.00
01515              25.00    14400.00
01516             -25.00    14400.00
01517               6.00    15200.00
01518              25.00    16000.00
01519             -25.00    16000.00
01520              25.00    16000.00
01521              23.40    17600.00
01522             -25.00    17600.00
01523              -2.20    18400.00
01524              25.00    19200.00
01525             -25.00    19200.00
01526              -2.20    20000.00
01527              25.00    20000.00
01528             -25.00    21600.00
01529              17.00    21600.00
01530              -3.00    21600.00
01531             -24.60    22400.00
01532              13.40    22400.00
01533              -5.00    24000.00
01534             -13.00    24000.00
01535               9.20    24000.00
01536              -3.40    24000.00
01537             -19.80    24800.00
01538              11.60    24800.00
01539             -13.40    25600.00
01540              -8.60    26400.00
01541               6.00    25600.00
01542             -12.60    27200.00
01543              -3.60    27200.00
01544              -3.00    27200.00
01545              -8.40    28000.00
01546              -6.60    28000.00
01547              -2.00    28000.00
01548              -8.20    28800.00
01549              -7.60    28800.00
01550              -3.60    28800.00
01551              -9.80    30400.00
01552              -6.20    28800.00
01553              -3.20    30400.00
01554             -10.20    30400.00
01555              -5.40    30400.00
01556              -6.80    31200.00
01557             -10.60    31200.00
01558              -5.60    32000.00
01559              -9.40    32000.00
01560              -7.60    31200.00
01561              -6.20    32000.00
01562              -9.40    32000.00
01563              -8.40    32800.00
01564              -9.40    32000.00
01565              -9.20    32000.00
01566              -8.20    32800.00
01567              -9.40    32000.00
01568              -9.40    32800.00
01569             -10.20    32800.00
01570              -9.00    32800.00
01571             -10.80    32800.00
01572             -10.20    32000.00
01573              -9.40    32800.00
01574             -11.80    32800.00
01575              -8.60    32800.00
01576             -10.80    32800.00
01577             -11.40    32800.00
01578              -9.00    32000.00
01579             -11.00    32800.00
01580              -9.40    32800.00
01581              -9.80    32800.00
01582             -10.40    32000.00
01583              -9.40    32800.00
01584              -9.00    32000.00
01585              -9.00    32800.00
01586              -9.00    32000.00
01587              -8.20    31200.00
01588              -8.40    31200.00
01589              -8.60    31200.00
01590              -7.60    31200.00
01591              -8.60    31200.00
01592              -7.80    30400.00
01593              -6.80    31200.00
01594              -7.60    30400.00
01595              -7.40    30400.00
01596              -7.00    30400.00
01597              -6.80    29600.00
01598              -6.20    28800.00
01599              -6.80    28800.00
01600              -6.60    28800.00
01601              -6.00    28800.00
01602              -6.00    28800.00
01603              -5.80    27200.00
01604              -5.40    27200.00
01605              -5.20    27200.00
01606              -5.80    27200.00
01607              -5.00    26400.00
01608              -5.00    26400.00
01609              -6.00    25600.00
01610              -4.20    25600.00
01611              -4.60    25600.00
01612              -5.00    24800.00
01613              -3.80    24800.00
01614              -5.00    24000.00
01615              -4.40    24000.00
01616              -3.60    23200.00
01617              -3.60    22400.00
01618              -4.20    22400.00
01619              -3.80    21600.00
01620              -3.80    21600.00
01621              -3.80    20800.00
01622              -3.40    20800.00
01623              -3.80    20000.00
01624              -3.20    19200.00
01625              -2.20    19200.00
01626              -3.00    18400.00
01627              -2.80    17600.00
01628              -2.20    17600.00
01629              -2.80    16000.00
01630              -2.20    16000.00
01631              -2.00    16000.00
01632              -2.60    15200.00
01633              -2.20    14400.00
01634              -2.20    15200.00
01635              -2.20    13600.00
01636              -2.20    12800.00
01637              -2.20    12000.00
01638              -1.40    12000.00
01639              -1.20    11200.00
01640              -1.80    11200.00
01641              -2.00    10400.00
01642              -1.00     9600.00
01643              -1.60     8800.00
01644              -1.40     8800.00
01645              -1.00     8000.00
01646              -1.40     8000.00
01647              -1.40     6400.00
01648              -0.60     6400.00
01649              -1.20     5600.00
01650              -0.60     4800.00
01651              -0.60     4800.00
01652              -0.40     4000.00
01653              -0.60     3200.00
01654              -0.60     2400.00
01655              -1.00     1600.00
01656              -0.40      800.00
01657              -0.40      800.00
01658               0.20        0.00
01659               0.40        0.00
01660               2.20     -800.00
01661               1.80    -1600.00
01662              -1.40    -1600.00
01663               1.20    -1600.00
01664               1.20    -3200.00
01665               0.20    -3200.00
01666               1.20    -4000.00
01667              10.00    -4800.00
01668              25.00    -6400.00
01669             -14.20    -7200.00
01670             -25.00    -7200.00
01671              15.40    -8000.00
01672              16.20    -8000.00
01673             -25.00    -8000.00
01674              11.60    -8800.00
01675              25.00    -9600.00
01676             -25.00    -9600.00
01677              15.60   -11200.00
01678              25.00   -11200.00
01679             -25.00   -11200.00
01680              25.00   -12800.00
01681               6.00   -12800.00
01682             -13.40   -13600.00
01683              25.00   -14400.00
01684             -25.00   -14400.00
01685              25.00   -14400.00
01686              17.00   -15200.00
01687             -25.00   -16000.00
01688              25.00   -16800.00
01689              15.20   -16800.00
01690             -25.00   -17600.00
01691              11.80   -17600.00
01692              23.00   -18400.00
01693             -25.00   -19200.00
01694              19.80   -20000.00
01695              17.40   -20800.00
01696             -21.20   -20800.00
01697              21.00   -21600.00
01698              -0.20   -22400.00
01699              -9.80   -21600.00
01700              15.40   -22400.00
01701               3.60   -22400.00
01702              -5.20   -23200.00
01703              17.20   -24000.00
01704              -0.40   -24000.00
01705              -4.60   -24800.00
01706              16.60   -25600.00
01707              -4.20   -25600.00
01708               3.60   -25600.00
01709              12.20   -25600.00
01710              -0.40   -26400.00
01711               4.40   -26400.00
01712               8.40   -26400.00
01713               2.60   -27200.00
01714               5.00   -27200.00
01715               9.20   -28800.00
01716               2.60   -28800.00
01717               5.80   -28800.00
01718               8.20   -28800.00
01719               3.00   -29600.00
01720               7.80   -28800.00
01721               8.40   -29600.00
01722               3.80   -29600.00
01723               8.80   -29600.00
01724               6.80   -30400.00
01725               5.20   -29600.00
01726               8.80   -30400.00
01727               7.40   -30400.00
01728               7.80   -31200.00
01729               8.60   -31200.00
01730               7.60   -31200.00
01731               7.80   -32000.00
01732               8.40   -32000.00
01733               8.60   -32000.00
01734               8.60   -32000.00
01735               9.20   -32000.00
01736               9.20   -32000.00
01737               9.20   -32000.00
01738               9.80   -32000.00
01739               8.60   -32000.00
01740              10.20   -32000.00
01741              10.00   -32000.00
01742               9.00   -32000.00
01743              10.80   -32800.00
01744               9.00   -32000.00
01745               9.40   -32000.00
01746              10.60   -32000.00
01747               9.00   -32000.00
01748               9.40   -32000.00
01749               9.20   -31200.00
01750               8.60   -32000.00
01751               8.40   -32000.00
01752               8.40   -32000.00
01753               7.80   -30400.00
01754               7.80   -31200.00
01755               8.20   -30400.00
01756               7.40   -30400.00
01757               7.40   -30400.00
01758               7.40   -30400.00
01759               6.60   -29600.00
01760               7.40   -29600.00
01761               7.00   -29600.00
01762               6.40   -29600.00
01763               6.80   -28800.00
01764               6.20   -28800.00
01765               5.40   -28800.00
01766               6.20   -28800.00
01767               5.60   -28000.00
01768               5.20   -28000.00
01769               5.40   -27200.00
01770               5.20   -27200.00
01771               4.60   -26400.00
01772               4.60   -26400.00
01773               5.00   -26400.00
01774               4.60   -25600.00
01775               4.60   -25600.00
01776               3.80   -25600.00
01777               3.80   -24800.00
01778               4.20   -24000.00
01779               3.60   -24000.00
01780               3.80   -23200.00
01781               3.60   -23200.00
01782               3.20   -23200.00
01783               3.60   -22400.00
01784               2.60   -21600.00
01785               3.00   -22400.00
01786               3.00   -20800.00
01787               2.60   -20800.00
01788               2.80   -20000.00
01789               2.60   -19200.00
01790               2.20   -18400.00
01791               2.60   -18400.00
01792               2.20   -17600.00
01793               2.20   -17600.00
01794               1.80   -16800.00
01795               1.80   -16800.00
01796               2.20   -16000.00
01797               1.20   -15200.00
01798               1.40   -15200.00
01799               2.00   -14400.00
01800               1.20   -14400.00
01801               1.20   -13600.00
01802               1.00   -12800.00
01803               1.40   -12800.00
01804               1.00   -11200.00
01805               0.40   -11200.00
01806               2.20   -10400.00
01807               0.20    -9600.00
01808              -0.40    -9600.00
01809               1.40    -8800.00
01810               0.40    -8000.00
01811               0.20    -7200.00
01812               1.80    -7200.00
01813               0.40    -6400.00
01814              -0.40    -5600.00
01815               1.20    -4800.00
01816               0.20    -4000.00
01817              -0.60    -4800.00
01818               0.80    -3200.00
01819              -0.20    -3200.00
01820              -0.40    -2400.00
01821               0.40    -1600.00
01822              -0.80    -1600.00
01823               0.20        0.00
01824               0.40        0.00
01825              -0.40        0.00
01826               0.40     1600.00
01827               3.20     1600.00
01828              -0.20     2400.00
01829              -1.80     2400.00
01830               1.00     2400.00
01831              -0.20     4000.00
01832              -1.80     4800.00
01833               6.20     5600.00
01834              25.00     6400.00
01835              -4.60     7200.00
01836             -25.00     8000.00
01837               9.00     8800.00
01838              17.80     8800.00
01839             -25.00     8800.00
01840              25.00     9600.00
01841              25.00    10400.00
01842             -25.00    10400.00
01843              25.00    11200.00
01844              -9.40    11200.00
01845             -25.00    12800.00
01846              25.00    12800.00
01847             -25.00    12800.00
01848              25.00    14400.00
01849              13.60    14400.00
01850             -25.00    15200.00
01851              25.00    15200.00
01852             -25.00    16000.00
01853             -22.80    16000.00
01854              25.00    16800.00
01855             -25.00    17600.00
01856             -23.00    17600.00
01857              25.00    18400.00
01858              -4.40    19200.00
01859             -25.00    19200.00
01860              25.00    20000.00
01861             -18.60    20800.00
01862             -12.40    21600.00
01863              22.80    21600.00
01864             -25.00    22400.00
01865               3.00    22400.00
01866               5.20    22400.00
01867             -15.60    23200.00
01868              -1.00    24000.00
01869               9.20    24000.00
01870             -20.40    24800.00
01871               1.40    25600.00
01872               1.80    25600.00
01873             -19.40    25600.00
01874               6.60    26400.00
01875              -6.80    27200.00
01876              -8.60    27200.00
01877              -0.60    28000.00
01878              -6.00    28000.00
01879              -8.60    28000.00
01880              -2.80    28800.00
01881              -5.00    28000.00
01882             -10.20    28800.00
01883              -2.80    28800.00
01884              -7.40    29600.00
01885              -9.40    30400.00
01886              -2.00    30400.00
01887              -9.00    30400.00
01888              -8.20    30400.00
01889              -3.80    30400.00
01890             -10.80    31200.00
01891              -6.80    31200.00
01892              -7.00    31200.00
01893             -10.20    32000.00
01894              -6.00    32800.00
01895              -8.40    32000.00
01896              -9.20    32800.00
01897              -8.60    32000.00
01898              -9.80    32800.00
01899              -8.60    32000.00
01900              -9.20    32000.00
01901              -9.20    32800.00
01902             -10.00    32800.00
01903              -9.20    32800.00
01904              -9.20    32000.00
01905             -11.00    32800.00
01906              -8.60    32800.00
01907             -11.40    32800.00
01908              -9.80    32800.00
01909              -8.60    32800.00
01910             -12.40    32800.00
01911              -9.40    32800.00
01912             -10.20    32800.00
01913             -10.60    32800.00
01914              -9.20    32800.00
01915             -10.80    32800.00
01916              -9.80    32800.00
01917              -9.40    32000.00
01918              -8.80    32000.00
01919              -9.20    32000.00
01920              -9.00    32800.00
01921              -8.40    31200.00
01922              -8.40    32000.00
01923              -7.80    31200.00
01924              -8.80    31200.00
01925              -8.40    31200.00
01926              -6.80    31200.00
01927              -7.60    30400.00
01928              -7.40    30400.00
01929              -7.60    30400.00
01930              -7.40    30400.00
01931              -5.80    28800.00
01932              -6.20    28800.00
01933              -6.80    28800.00
01934              -6.60    28800.00
01935              -6.00    28000.00
01936              -5.40    28000.00
01937              -6.60    28000.00
01938              -5.40    27200.00
01939              -5.20    27200.00
01940              -6.00    27200.00
01941              -4.40    27200.00
01942              -5.20    26400.00
01943              -5.40    25600.00
01944              -4.20    25600.00
01945              -4.40    25600.00
01946              -4.20    24800.00
01947              -4.40    24000.00
01948              -4.60    23200.00
01949              -3.60    24000.00
01950              -3.80    22400.00
01951              -3.80    22400.00
01952              -3.80    22400.00
01953              -3.40    21600.00
01954              -3.40    21600.00
01955              -3.80    20800.00
01956              -3.00    20000.00
01957              -3.20    19200.00
01958              -2.80    19200.00
01959              -2.60    18400.00
01960              -3.00    17600.00
01961              -2.80    17600.00
01962              -2.60    16800.00
01963              -2.20    16000.00
01964              -2.20    16800.00
01965              -2.60    16000.00
01966              -2.20    15200.00
01967              -2.00    14400.00
01968              -1.80    14400.00
01969              -2.40    12800.00
01970              -2.20    12800.00
01971              -1.40    12000.00
01972              -1.80    12000.00
01973              -1.80    11200.00
01974              -1.20    11200.00
01975              -2.20     9600.00
01976              -1.00     9600.00
01977              -1.00     8800.00
01978              -1.80     8000.00
01979              -1.40     8000.00
01980              -1.00     7200.00
01981              -1.20     6400.00
01982              -1.00     5600.00
01983              -1.20     4800.00
01984              -0.40     4800.00
01985              -1.00     4000.00
01986              -0.60     3200.00
01987              -0.60     2400.00
01988              -1.00     1600.00
01989              -1.00     1600.00
01990              -0.20      800.00
01991              -0.20        0.00
01992               0.20        0.00
01993               1.20     -800.00
01994               3.80     -800.00
01995              -1.40    -1600.00
01996              -0.40    -1600.00
01997               1.80    -3200.00
01998               0.60    -3200.00
01999              -0.20    -4000.00
02000               5.80    -4000.00
02001              22.00    -5600.00
02002              14.00    -6400.00
02003             -25.00    -8000.00
02004              -9.20    -8000.00
02005              25.00    -8000.00
02006             -22.20    -8000.00
02007             -25.00    -8000.00
02008              25.00    -9600.00
02009              -6.80   -10400.00
02010             -25.00   -10400.00
02011              25.00   -11200.00
02012             -25.00   -11200.00
02013             -22.00   -12000.00
02014              25.00   -12800.00
02015             -25.00   -12800.00
02016              25.00   -13600.00
02017             -15.60   -14400.00
02018             -10.20   -15200.00
02019              25.00   -14400.00
02020             -25.00   -16000.00
02021               0.20   -16000.00
02022              25.00   -16800.00
02023             -19.80   -17600.00
02024             -11.60   -18400.00
02025              25.00   -18400.00
02026             -15.60   -18400.00
02027              -8.40   -19200.00
02028              25.00   -20000.00
02029             -17.20   -20800.00
02030               4.20   -20800.00
02031              16.80   -20800.00
02032             -15.40   -22400.00
02033               8.60   -22400.00
02034              12.60   -23200.00
02035              -7.40   -23200.00
02036               8.40   -24000.00
02037              11.80   -24000.00
02038             -10.00   -24000.00
02039              12.40   -24800.00
02040               6.20   -24800.00
02041              -4.20   -25600.00
02042              12.60   -25600.00
02043               3.00   -26400.00
02044               2.00   -27200.00
02045               7.60   -27200.00
02046               5.20   -27200.00
02047               3.00   -27200.00
02048               7.80   -27200.00
02049               5.60   -28000.00
02050               2.60   -28800.00
02051               8.60   -28800.00
02052               5.20   -28800.00
02053               4.40   -28800.00
02054               9.80   -29600.00
02055               5.60   -29600.00
02056               5.40   -29600.00
02057               9.00   -29600.00
02058               5.40   -30400.00
02059               6.80   -30400.00
02060               9.80   -30400.00
02061               6.20   -30400.00
02062               8.20   -32000.00
02063               8.80   -31200.00
02064               6.80   -31200.00
02065               8.00   -32000.00
02066               9.80   -32000.00
02067               8.20   -31200.00
02068               9.00   -32000.00
02069              10.00   -32000.00
02070               8.40   -32000.00
02071              10.00   -32000.00
02072               9.00   -32000.00
02073               9.00   -32000.00
02074              10.80   -32000.00
02075               9.00   -32000.00
02076              10.40   -32000.00
02077              10.60   -32000.00
02078               8.60   -32000.00
02079              10.40   -32000.00
02080               9.80   -32000.00
02081               9.00   -32000.00
02082               9.20   -31200.00
02083               8.80   -32000.00
02084               8.40   -31200.00
02085               8.60   -31200.00
02086               8.60   -30400.00
02087               7.80   -31200.00
02088               8.40   -30400.00
02089               7.80   -30400.00
02090               6.80   -30400.00
02091               7.40   -30400.00
02092               7.00   -31200.00
02093               7.40   -29600.00
02094               7.40   -29600.00
02095               5.80   -29600.00
02096               6.60   -29600.00
02097               5.80   -28800.00
02098               5.20   -28800.00
02099               6.80   -28800.00
02100               6.20   -28000.00
02101               4.80   -28000.00
02102               5.80   -27200.00
02103               5.20   -27200.00
02104               4.60   -26400.00
02105               5.00   -27200.00
02106               5.40   -26400.00
02107               4.20   -26400.00
02108               4.40   -25600.00
02109               4.40   -25600.00
02110               3.80   -25600.00
02111               4.20   -24000.00
02112               3.60   -23200.00
02113               3.60   -24000.00
02114               3.60   -23200.00
02115               2.40   -23200.00
02116               3.60   -22400.00
02117               3.00   -22400.00
02118               3.20   -20800.00
02119               3.00   -20800.00
02120               2.80   -20800.00
02121               2.80   -20000.00
02122               2.20   -20000.00
02123               2.80   -18400.00
02124               2.00   -19200.00
02125               1.80   -18400.00
02126               3.00   -17600.00
02127               1.40   -16800.00
02128               1.20   -16800.00
02129               2.80   -16800.00
02130               1.20   -15200.00
02131               1.80   -15200.00
02132               1.80   -14400.00
02133               1.60   -14400.00
02134               1.00   -13600.00
02135               0.60   -12800.00
02136               2.60   -12800.00
02137               0.20   -12000.00
02138               0.60   -11200.00
02139               2.60   -11200.00
02140               0.80   -10400.00
02141              -0.60    -9600.00
02142               0.40    -8800.00
02143               1.80    -8000.00
02144              -0.60    -8000.00
02145               0.80    -7200.00
02146               2.80    -7200.00
02147              -2.00    -6400.00
02148               0.20    -5600.00
02149               2.40    -4800.00
02150              -1.60    -4800.00
02151              -0.40    -4000.00
02152               2.20    -3200.00
02153              -1.40    -2400.00
02154              -1.00    -1600.00
02155               1.40    -1600.00
02156              -1.20     -800.00
02157              -0.40        0.00
02158               1.20        0.00
02159              -0.60     1600.00
02160               1.40     1600.00
02161               2.60     1600.00
02162              -3.00     2400.00
02163               0.40     3200.00
02164               1.20     3200.00
02165              -1.40     3200.00
02166               1.80     4800.00
02167              17.20     6400.00
02168              25.00     7200.00
02169             -25.00     7200.00
02170             -21.40     8000.00
02171              25.00     8800.00
02172             -23.20     8800.00
02173             -13.20     8800.00
02174              25.00    10400.00
02175             -25.00     9600.00
02176              12.60    11200.00
02177              25.00    11200.00
02178             -25.00    11200.00
02179              25.00    12800.00
02180             -13.80    12800.00
02181             -25.00    13600.00
02182              25.00    14400.00
02183             -25.00    14400.00
02184              25.00    16000.00
02185              25.00    16000.00
02186             -25.00    16000.00
02187              25.00    16000.00
02188               7.60    17600.00
02189             -25.00    18400.00
02190               8.40    18400.00
02191              21.40    18400.00
02192             -25.00    19200.00
02193              13.00    20000.00
02194              18.60    20800.00
02195             -25.00    21600.00
02196              25.00    21600.00
02197             -15.00    21600.00
02198             -17.00    22400.00
02199              13.00    22400.00
02200             -10.00    24000.00
02201             -10.00    24000.00
02202              11.60    24000.00
02203             -10.20    24800.00
02204             -14.80    24800.00
02205              11.80    24800.00
02206             -18.00    25600.00
02207              -2.80    26400.00
02208               3.00    25600.00
02209             -12.60    27200.00
02210              -1.60    27200.00
02211              -4.00    27200.00
02212              -8.60    28000.00
02213              -5.20    28000.00
02214              -2.20    28800.00
02215              -9.40    28800.00
02216              -5.40    28800.00
02217              -4.40    29600.00
02218             -10.20    29600.00
02219              -3.80    29600.00
02220              -5.00    30400.00
02221             -10.40    30400.00
02222              -3.80    30400.00
02223              -7.80    31200.00
02224              -9.80    31200.00
02225              -6.20    31200.00
02226              -9.80    31200.00
02227              -6.00    32000.00
02228              -7.40    32000.00
02229              -9.40    32800.00
02230              -8.20    32000.00
02231             -10.60    32000.00
02232              -9.40    32000.00
02233              -8.20    32800.00
02234              -9.40    32800.00
02235             -10.00    32800.00
02236              -9.40    32000.00
02237              -8.60    32800.00
02238             -11.60    32000.00
02239              -9.40    32800.00
02240             -10.60    32800.00
02241             -11.20    32000.00
02242              -7.40    32800.00
02243             -12.60    32800.00
02244             -11.80    32800.00
02245              -8.60    32800.00
02246             -11.60    32800.00
02247              -9.60    32800.00
02248              -9.20    32000.00
02249             -10.80    32000.00
02250             -10.20    32800.00
02251              -8.60    32000.00
02252              -9.20    32000.00
02253              -9.20    32800.00
02254              -7.80    32000.00
02255              -8.40    31200.00
02256              -8.40    31200.00
02257              -8.20    32000.00
02258              -9.00    31200.00
02259              -7.20    31200.00
02260              -7.00    31200.00
02261              -8.20    30400.00
02262              -6.80    29600.00
02263              -7.60    30400.00
02264              -7.20    28800.00
02265              -6.00    29600.00
02266              -6.80    28800.00
02267              -6.20    28800.00
02268              -6.00    28800.00
02269              -5.80    28800.00
02270              -6.00    28000.00
02271              -5.40    27200.00
02272              -5.20    28000.00
02273              -5.60    27200.00
02274              -4.60    26400.00
02275              -5.20    25600.00
02276              -5.40    25600.00
02277              -4.20    25600.00
02278              -5.00    24800.00
02279              -4.40    24800.00
02280              -3.80    24000.00
02281              -4.40    24000.00
02282              -3.80    24000.00
02283              -3.80    23200.00
02284              -3.80    22400.00
02285              -3.40    22400.00
02286              -3.80    21600.00
02287              -3.60    21600.00
02288              -3.40    20800.00
02289              -3.00    20800.00
02290              -3.80    19200.00
02291              -3.00    19200.00
02292              -2.20    18400.00
02293              -3.00    18400.00
02294              -2.60    17600.00
02295              -2.80    17600.00
02296              -3.00    16000.00
02297              -2.20    16000.00
02298              -2.00    15200.00
02299              -2.80    14400.00
02300              -2.20    15200.00
02301              -2.00    14400.00
02302              -2.00    12800.00
02303              -2.20    12800.00
02304              -2.20    12000.00
02305              -1.20    12800.00
02306              -1.60    11200.00
02307              -2.00    11200.00
02308              -2.00    10400.00
02309              -1.20     9600.00
02310              -2.00     8800.00
02311              -1.40     8000.00
02312              -0.60     8000.00
02313              -1.80     7200.00
02314              -1.20     6400.00
02315              -0.60     6400.00
02316              -1.80     5600.00
02317              -0.80     4800.00
02318              -1.00     4800.00
02319              -0.60     3200.00
02320              -0.80     3200.00
02321              -1.20     2400.00
02322              -0.40     1600.00
02323              -0.60     1600.00
02324              -0.80     1600.00
02325               0.60        0.00
02326               0.40     -800.00
02327               2.80     -800.00
02328               0.80    -1600.00
02329              -1.40    -1600.00
02330               1.40    -3200.00
02331               1.80    -3200.00
02332               0.20    -4000.00
02333               2.00    -4000.00
02334              13.00    -4800.00
02335              25.00    -6400.00
02336             -25.00    -6400.00
02337             -25.00    -7200.00
02338              22.80    -8000.00
02339               6.60    -8000.00
02340             -25.00    -8000.00
02341              25.00    -9600.00
02342              25.00   -10400.00
02343             -25.00    -9600.00
02344              25.00   -11200.00
02345              25.00   -11200.00
02346             -25.00   -12000.00
02347              25.00   -12800.00
02348             -13.20   -12800.00
02349               2.00   -13600.00
02350              21.80   -14400.00
02351             -25.00   -14400.00
02352              25.00   -15200.00
02353              -0.20   -15200.00
02354             -25.00   -16000.00
02355              25.00   -16800.00
02356               3.80   -16800.00
02357             -25.00   -17600.00
02358              21.20   -18400.00
02359              13.00   -18400.00
02360             -25.00   -19200.00
02361              25.00   -19200.00
02362               5.40   -20000.00
02363             -15.60   -20800.00
02364              24.20   -20800.00
02365              -7.60   -21600.00
02366              -4.60   -22400.00
02367              16.40   -22400.00
02368              -1.20   -22400.00
02369              -1.80   -23200.00
02370              17.60   -24000.00
02371              -5.20   -24000.00
02372               0.60   -24800.00
02373              14.60   -24800.00
02374              -6.80   -25600.00
02375               8.20   -25600.00
02376               9.00   -26400.00
02377              -0.60   -26400.00
02378               6.80   -26400.00
02379               7.40   -27200.00
02380               1.60   -27200.00
02381               6.80   -27200.00
02382               8.20   -27200.00
02383               1.20   -28800.00
02384               7.40   -28800.00
02385               7.00   -28800.00
02386               2.60   -28800.00
02387               9.00   -29600.00
02388               7.80   -29600.00
02389               4.00   -29600.00
02390               9.00   -29600.00
02391               6.40   -29600.00
02392               5.40   -29600.00
02393               8.60   -31200.00
02394               7.20   -30400.00
02395               8.40   -31200.00
02396               8.40   -31200.00
02397               7.80   -30400.00
02398               8.20   -31200.00
02399               8.40   -32000.00
02400               8.80   -32000.00
02401               8.80   -32000.00
02402               9.40   -32000.00
02403               8.40   -32000.00
02404              10.00   -32000.00
02405              10.20   -32000.00
02406               7.80   -32000.00
02407              10.60   -32000.00
02408              10.20   -32000.00
02409               9.00   -32000.00
02410              10.60   -32000.00
02411               9.80   -32000.00
02412              10.60   -32000.00
02413               9.80   -31200.00
02414               8.60   -32000.00
02415               9.20   -32000.00
02416               8.40   -30400.00
02417               9.60   -31200.00
02418               9.60   -31200.00
02419               7.40   -31200.00
02420               7.60   -30400.00
02421               9.00   -30400.00
02422               7.80   -30400.00
02423               7.00   -30400.00
02424               8.60   -30400.00
02425               7.40   -30400.00
02426               6.20   -29600.00
02427               7.60   -29600.00
02428               6.20   -28800.00
02429               5.20   -28800.00
02430               7.00   -28800.00
02431               6.80   -28800.00
02432               6.20   -28800.00
02433               5.80   -28000.00
02434               4.60   -28000.00
02435               5.20   -27200.00
02436               5.80   -27200.00
02437               5.20   -26400.00
02438               4.80   -26400.00
02439               4.40   -26400.00
02440               3.80   -26400.00
02441               4.60   -25600.00
02442               4.60   -25600.00
02443               3.60   -24800.00
02444               4.00   -24000.00
02445               4.20   -24000.00
02446               2.80   -24000.00
02447               3.60   -24000.00
02448               3.40   -23200.00
02449               3.00   -22400.00
02450               3.40   -22400.00
02451               3.00   -20800.00
02452               3.00   -20800.00
02453               2.80   -20800.00
02454               2.60   -20800.00
02455               2.60   -20000.00
02456               2.60   -19200.00
02457               2.20   -18400.00
02458               2.60   -18400.00
02459               2.00   -17600.00
02460               1.80   -17600.00
02461               1.80   -16800.00
02462               2.00   -16000.00
02463               1.40   -16000.00
02464               1.80   -15200.00
02465               1.60   -15200.00
02466               1.40   -14400.00
02467               1.40   -14400.00
02468               1.40   -13600.00
02469               1.40   -12800.00
02470               1.40   -12800.00
02471               1.00   -11200.00
02472               1.40   -11200.00
02473               0.60   -11200.00
02474               0.40    -9600.00
02475               1.00    -9600.00
02476               0.20    -8800.00
02477               0.60    -8000.00
02478               0.60    -7200.00
02479               0.40    -7200.00
02480               0.60    -6400.00
02481               0.40    -6400.00
02482               0.20    -5600.00
02483               0.20    -4800.00
02484               0.00    -4000.00
02485              -0.20    -3200.00
02486               0.40    -3200.00
02487              -0.40    -2400.00
02488              -0.20    -1600.00
02489              -0.20     -800.00
02490              -0.40     -800.00
02491               0.20        0.00
02492              -0.20      800.00
02493               0.20     1600.00
02494               3.60     1600.00
02495              -0.60     2400.00
02496              -2.20     3200.00
02497               1.00     3200.00
02498               0.00     4000.00
02499              -1.80     4800.00
02500               8.60     4800.00
02501              25.00     7200.00
02502             -20.40     7200.00
02503             -25.00     8800.00
02504              18.60     8000.00
02505               7.00     8000.00
02506             -25.00     8800.00
02507              25.00     9600.00
02508               6.80    10400.00
02509             -25.00    11200.00
02510              25.00    11200.00
02511             -25.00    11200.00
02512             -15.00    12800.00
02513              25.00    12800.00
02514             -25.00    12800.00
02515              25.00    14400.00
02516             -23.20    14400.00
02517             -25.00    15200.00
02518              25.00    16000.00
02519             -25.00    16000.00
02520               2.40    16800.00
02521              25.00    17600.00
02522             -25.00    17600.00
02523             -15.00    18400.00
02524              25.00    18400.00
02525             -18.80    19200.00
02526             -23.00    20800.00
02527              25.00    20800.00
02528             -25.00    20800.00
02529               2.00    21600.00
02530              13.20    21600.00
02531             -25.00    22400.00
02532               9.80    23200.00
02533               0.40    22400.00
02534             -15.40    24000.00
02535               3.80    24000.00
02536               4.40    24000.00
02537             -22.00    24800.00
02538               7.60    24800.00
02539              -4.40    25600.00
02540             -15.60    25600.00
02541               7.80    26400.00
02542             -10.00    26400.00
02543              -6.20    27200.00
02544              -1.20    28000.00
02545              -7.00    28000.00
02546              -8.20    28000.00
02547              -1.80    28800.00
02548              -6.80    28800.00
02549              -8.60    28800.00
02550              -2.80    28800.00
02551              -9.20    29600.00
02552              -7.60    29600.00
02553              -2.20    30400.00
02554              -9.80    30400.00
02555              -7.00    30400.00
02556              -5.00    30400.00
02557             -11.00    31200.00
02558              -6.00    31200.00
02559              -7.60    31200.00
02560              -9.40    31200.00
02561              -6.20    32000.00
02562              -8.40    32800.00
02563              -8.60    32000.00
02564              -9.00    32800.00
02565              -9.80    32000.00
02566              -8.60    32800.00
02567              -9.40    32000.00
02568              -9.40    32800.00
02569             -10.60    32800.00
02570              -8.60    32800.00
02571             -10.20    32800.00
02572             -11.40    32800.00
02573              -8.60    32800.00
02574             -11.80    32800.00
02575              -9.60    33600.00
02576              -9.20    32000.00
02577             -12.40    32800.00
02578              -9.80    32800.00
02579             -10.20    32800.00
02580             -10.60    32800.00
02581              -9.80    32800.00
02582             -10.20    32000.00
02583             -10.00    32800.00
02584              -9.20    32000.00
02585              -8.80    32800.00
02586              -9.40    32000.00
02587              -8.40    32000.00
02588              -8.60    32000.00
02589              -9.00    31200.00
02590              -7.40    31200.00
02591              -8.80    31200.00
02592              -8.40    31200.00
02593              -6.20    31200.00
02594              -8.20    30400.00
02595              -7.60    30400.00
02596              -6.20    30400.00
02597              -7.60    29600.00
02598              -6.60    29600.00
02599              -6.20    28800.00
02600              -6.80    28800.00
02601              -6.60    28800.00
02602              -5.40    28800.00
02603              -5.80    28000.00
02604              -6.00    27200.00
02605              -5.20    27200.00
02606              -5.80    27200.00
02607              -5.20    26400.00
02608              -4.60    26400.00
02609              -5.80    26400.00
02610              -4.40    25600.00
02611              -4.20    24800.00
02612              -5.00    24800.00
02613              -3.80    24800.00
02614              -4.40    24800.00
02615              -4.80    24000.00
02616              -3.60    23200.00
02617              -3.60    22400.00
02618              -4.20    22400.00
02619              -3.60    22400.00
02620              -3.00    21600.00
02621              -3.40    20800.00
02622              -3.40    20800.00
02623              -3.00    20000.00
02624              -3.20    19200.00
02625              -2.60    18400.00
02626              -2.80    18400.00
02627              -2.80    18400.00
02628              -2.60    17600.00
02629              -3.00    16800.00
02630              -2.20    16000.00
02631              -2.20    16000.00
02632              -3.20    15200.00
02633              -2.20    14400.00
02634              -2.40    14400.00
02635              -2.00    13600.00
02636              -1.80    12800.00
02637              -2.60    12800.00
02638              -1.40    12000.00
02639              -1.80    11200.00
02640              -2.00    11200.00
02641              -1.40    11200.00
02642              -1.40     9600.00
02643              -2.00     9600.00
02644              -1.20     8000.00
02645              -1.40     8000.00
02646              -1.00     8000.00
02647              -1.20     6400.00
02648              -1.20     7200.00
02649              -0.60     6400.00
02650              -1.20     4800.00
02651              -1.20     4800.00
02652              -0.20     3200.00
02653              -0.60     3200.00
02654              -1.20     2400.00
02655              -0.40     1600.00
02656              -0.80     1600.00
02657              -1.00      800.00
02658               0.80        0.00
02659              -0.40        0.00
02660               1.40    -1600.00
02661               3.60    -1600.00
02662              -2.00    -1600.00
02663               0.20    -2400.00
02664               2.00    -3200.00
02665               0.20    -3200.00
02666               0.40    -4000.00
02667               7.60    -4000.00
02668              24.80    -5600.00
02669               2.80    -7200.00
02670             -25.00    -8000.00
02671               2.60    -8000.00
02672              24.60    -8000.00
02673             -25.00    -8000.00
02674             -12.40    -8000.00
02675              25.00    -9600.00
02676             -25.00   -10400.00
02677             -25.00   -10400.00
02678              25.00   -11200.00
02679             -25.00   -12000.00
02680               3.80   -12000.00
02681              25.00   -12800.00
02682             -25.00   -13600.00
02683              25.00   -13600.00
02684             -25.00   -14400.00
02685               6.20   -15200.00
02686              25.00   -15200.00
02687             -25.00   -16000.00
02688              13.20   -16800.00
02689              25.00   -16800.00
02690             -25.00   -17600.00
02691              -1.80   -18400.00
02692              25.00   -19200.00
02693             -25.00   -18400.00
02694               4.60   -19200.00
02695              25.00   -20000.00
02696             -22.00   -20800.00
02697              13.00   -20800.00
02698               9.80   -20800.00
02699             -14.40   -21600.00
02700              12.40   -22400.00
02701               9.20   -22400.00
02702              -7.40   -23200.00
02703              13.00   -24000.00
02704               7.20   -24000.00
02705              -9.20   -24000.00
02706              14.60   -24800.00
02707               1.80   -25600.00
02708              -1.00   -25600.00
02709              12.60   -26400.00
02710               1.40   -26400.00
02711               2.80   -27200.00
02712               7.60   -27200.00
02713               3.80   -27200.00
02714               3.60   -28000.00
02715               8.60   -27200.00
02716               4.00   -28000.00
02717               4.40   -28800.00
02718               8.60   -28800.00
02719               3.40   -28800.00
02720               6.80   -28800.00
02721               9.40   -28800.00
02722               2.80   -29600.00
02723               8.20   -29600.00
02724               9.00   -29600.00
02725               3.40   -30400.00
02726               8.80   -30400.00
02727               9.00   -30400.00
02728               6.60   -31200.00
02729               9.00   -31200.00
02730               8.60   -31200.00
02731               6.80   -32000.00
02732               8.40   -32000.00
02733               9.40   -31200.00
02734               8.20   -32000.00
02735               9.00   -32000.00
02736              10.60   -32000.00
02737               9.00   -32000.00
02738               9.40   -32000.00
02739               9.40   -32800.00
02740               9.20   -32000.00
02741              10.00   -32000.00
02742               9.60   -32000.00
02743              11.60   -32000.00
02744               9.20   -32000.00
02745               9.80   -32000.00
02746              11.00   -32000.00
02747               8.00   -32000.00
02748               9.40   -32000.00
02749              10.80   -32000.00
02750               8.00   -31200.00
02751               7.40   -32000.00
02752              10.20   -32000.00
02753               7.80   -30400.00
02754               6.80   -32000.00
02755               9.80   -30400.00
02756               7.80   -31200.00
02757               5.80   -30400.00
02758               7.80   -29600.00
02759               7.00   -30400.00
02760               6.60   -29600.00
02761               7.80   -29600.00
02762               6.80   -29600.00
02763               6.60   -29600.00
02764               5.00   -28800.00
02765               5.40   -28800.00
02766               5.80   -28800.00
02767               5.00   -28000.00
02768               5.20   -28000.00
02769               6.20   -27200.00
02770               5.00   -27200.00
02771               4.20   -26400.00
02772               4.60   -26400.00
02773               5.00   -26400.00
02774               4.20   -25600.00
02775               4.40   -25600.00
02776               3.60   -25600.00
02777               3.60   -24800.00
02778               4.40   -24800.00
02779               3.80   -24000.00
02780               3.60   -24000.00
02781               3.80   -23200.00
02782               2.80   -22400.00
02783               3.00   -22400.00
02784               2.60   -22400.00
02785               2.80   -21600.00
02786               3.40   -20800.00
02787               2.60   -20000.00
02788               3.00   -20000.00
02789               2.40   -20000.00
02790               2.00   -18400.00
02791               2.60   -18400.00
02792               2.20   -17600.00
02793               2.00   -17600.00
02794               2.00   -17600.00
02795               1.80   -16800.00
02796               1.80   -16000.00
02797               1.80   -16000.00
02798               1.80   -14400.00
02799               2.00   -14400.00
02800               1.40   -14400.00
02801               1.20   -12800.00
02802               1.20   -12800.00
02803               1.20   -12800.00
02804               0.60   -11200.00
02805               1.40   -11200.00
02806               1.20   -10400.00
02807               1.00   -10400.00
02808               1.00    -9600.00
02809               0.60    -8800.00
02810               0.20    -8000.00
02811               1.00    -8000.00
02812               0.40    -7200.00
02813               0.60    -7200.00
02814               0.60    -5600.00
02815              -0.20    -6400.00
02816               0.40    -4800.00
02817               0.20    -4000.00
02818              -0.20    -4000.00
02819               0.20    -3200.00
02820               0.20    -1600.00
02821              -0.40    -1600.00
02822              -0.20     -800.00
02823              -0.20     -800.00
02824              -0.20        0.00
02825               0.40      800.00
02826               0.20      800.00
02827               1.60     1600.00
02828               2.00     2400.00
02829              -3.00     2400.00
02830              -0.60     3200.00
02831               1.00     3200.00
02832              -1.60     4000.00
02833               2.60     4800.00
02834              23.60     6400.00
02835              14.60     7200.00
02836             -25.00     8000.00
02837              -6.80     8000.00
02838              25.00     8000.00
02839             -25.00     8000.00
02840               9.20     8800.00
02841              25.00     9600.00
02842             -25.00     9600.00
02843              25.00    11200.00
02844              25.00    11200.00
02845             -25.00    12000.00
02846              25.00    12800.00
02847             -25.00    12800.00
02848               7.60    14400.00
02849              25.00    14400.00
02850             -25.00    14400.00
02851              25.00    16000.00
02852               1.00    16000.00
02853             -25.00    16000.00
02854              25.00    16800.00
02855              -8.20    17600.00
02856             -25.00    17600.00
02857              18.60    19200.00
02858              11.60    19200.00
02859             -25.00    19200.00
02860              25.00    20800.00
02861               3.40    20800.00
02862             -25.00    21600.00
02863              25.00    21600.00
02864             -24.20    22400.00
02865              -7.80    23200.00
02866              10.80    22400.00
02867             -12.60    23200.00
02868              -5.80    24000.00
02869              11.80    24000.00
02870             -15.60    24800.00
02871              -6.80    24800.00
02872               9.00    25600.00
02873             -21.00    25600.00
02874               3.00    25600.00
02875              -1.40    27200.00
02876             -11.80    27200.00
02877              -0.60    27200.00
02878              -4.60    28000.00
02879              -9.00    27200.00
02880              -4.40    28000.00
02881              -3.00    28000.00
02882             -10.00    28800.00
02883              -4.40    29600.00
02884              -5.00    28800.00
02885             -10.20    30400.00
02886              -2.80    29600.00
02887              -6.20    30400.00
02888             -10.00    30400.00
02889              -3.40    30400.00
02890              -9.40    31200.00
02891              -8.60    30400.00
02892              -5.80    31200.00
02893             -10.60    31200.00
02894              -6.20    32000.00
02895              -7.60    31200.00
02896              -9.80    32000.00
02897              -8.40    32800.00
02898              -9.60    32800.00
02899              -9.20    32000.00
02900              -9.20    32800.00
02901              -9.00    32800.00
02902             -10.00    32800.00
02903             -10.00    32800.00
02904              -9.20    32000.00
02905             -11.80    32800.00
02906              -9.60    32800.00
02907             -10.60    32800.00
02908             -11.00    32000.00
02909              -8.80    32800.00
02910             -12.20    33600.00
02911             -10.20    32800.00
02912              -8.20    32800.00
02913             -15.00    32800.00
02914              -8.40    32800.00
02915              -8.20    32000.00
02916             -16.20    32800.00
02917              -6.00    32000.00
02918              -7.00    32800.00
02919              -5.60    32000.00
02920             -11.80    32000.00
02921              -8.60    32000.00
02922              -5.40    32000.00
02923             -14.20    31200.00
02924              -6.60    31200.00
02925             -11.00    30400.00
02926              -4.20    31200.00
02927              -4.40    30400.00
02928             -10.20    30400.00
02929              -3.40    30400.00
02930             -10.20    29600.00
02931              -4.20    29600.00
02932              -6.20    28800.00
02933             -11.60    28800.00
02934              -4.20    28800.00
02935              -5.20    28800.00
02936              -7.60    28000.00
02937              -4.60    28000.00
02938              -3.40    27200.00
02939              -6.00    27200.00
02940              -4.20    26400.00
02941              -6.00    27200.00
02942              -8.40    25600.00
02943              -3.60    25600.00
02944              -6.00    24800.00
02945              -4.00    25600.00
02946              -2.00    24800.00
02947              -4.00    24800.00
02948              -4.20    24000.00
02949              -3.40    24000.00
02950              -5.20    22400.00
02951              -5.20    22400.00
02952              -3.00    22400.00
02953              -4.60    21600.00
02954              -2.40    21600.00
02955              -3.20    20800.00
02956              -3.40    20000.00
02957              -2.00    19200.00
02958              -3.80    19200.00
02959              -3.80    18400.00
02960              -2.60    18400.00
02961              -3.40    17600.00
02962              -3.80    17600.00
02963              -2.00    16800.00
02964              -2.00    16000.00
02965              -2.20    16000.00
02966              -1.40    14400.00
02967              -2.60    14400.00
02968              -3.40    14400.00
02969              -2.20    13600.00
02970              -3.00    12800.00
02971              -2.20    12000.00
02972              -1.00    11200.00
02973              -1.80    11200.00
02974              -1.40    11200.00
02975              -1.20     9600.00
02976              -2.20     9600.00
02977              -1.60     8800.00
02978              -1.40     8800.00
02979              -2.20     8000.00
02980              -1.80     7200.00
02981              -1.00     6400.00
02982              -1.00     5600.00
02983              -1.00     5600.00
02984              -0.60     4800.00
02985              -1.00     4000.00
02986              -0.60     2400.00
02987              -0.60     2400.00
02988              -1.20     2400.00
02989              -0.60     1600.00
02990              -0.60     1600.00
02991              -0.20        0.00
02992               0.40        0.00
02993               0.60        0.00
02994               3.40     -800.00
02995               0.20    -1600.00
02996              -0.60    -1600.00
02997               1.20    -3200.00
02998               2.00    -2400.00
02999              -0.20    -4000.00
03000               3.60    -4000.00
03001              17.20    -4800.00
03002              23.00    -6400.00
03003             -25.00    -7200.00
03004             -23.60    -8000.00
03005              25.00    -8000.00
03006              -4.40    -8800.00
03007             -25.00    -8000.00
03008              25.00    -9600.00
03009              25.00   -10400.00
03010             -25.00   -10400.00
03011              25.00   -11200.00
03012              11.80   -11200.00
03013             -25.00   -11200.00
03014              25.00   -12800.00
03015             -25.00   -12800.00
03016              15.80   -12800.00
03017               7.40   -14400.00
03018             -25.00   -14400.00
03019              25.00   -16000.00
03020             -15.80   -16000.00
03021             -17.40   -16800.00
03022              25.00   -16800.00
03023              -7.40   -17600.00
03024             -21.20   -17600.00
03025              25.00   -18400.00
03026               0.40   -19200.00
03027             -22.40   -19200.00
03028              25.00   -20000.00
03029              -6.80   -20000.00
03030              -7.40   -20800.00
03031              22.20   -21600.00
03032             -12.60   -22400.00
03033               2.20   -23200.00
03034              15.00   -22400.00
03035              -5.00   -23200.00
03036               2.60   -24000.00
03037              16.60   -24000.00
03038              -9.20   -24000.00
03039               5.80   -24800.00
03040              11.80   -25600.00
03041              -6.80   -25600.00
03042              10.60   -25600.00
03043               6.80   -26400.00
03044               0.20   -27200.00
03045               7.00   -27200.00
03046               6.00   -27200.00
03047               1.80   -27200.00
03048               7.00   -27200.00
03049               7.00   -28000.00
03050               2.00   -28800.00
03051               8.60   -28800.00
03052               6.20   -28800.00
03053               4.00   -28800.00
03054               9.80   -29600.00
03055               5.80   -28800.00
03056               4.60   -29600.00
03057               9.40   -29600.00
03058               5.40   -30400.00
03059               6.60   -30400.00
03060               9.20   -30400.00
03061               7.00   -30400.00
03062               9.00   -31200.00
03063               8.40   -32000.00
03064               7.60   -31200.00
03065               8.20   -31200.00
03066               8.80   -32000.00
03067               8.80   -32000.00
03068               9.20   -32000.00
03069               9.80   -32000.00
03070               9.00   -32000.00
03071              10.00   -32000.00
03072               9.40   -32000.00
03073               9.00   -32000.00
03074              10.60   -32800.00
03075               9.40   -32000.00
03076               9.80   -32000.00
03077              10.80   -32000.00
03078               9.00   -32000.00
03079              10.20   -32000.00
03080              10.20   -32000.00
03081               9.20   -32000.00
03082               9.20   -32000.00
03083               8.60   -31200.00
03084               9.00   -32000.00
03085               8.60   -32000.00
03086               8.40   -30400.00
03087               8.20   -31200.00
03088               8.00   -30400.00
03089               7.60   -31200.00
03090               7.40   -30400.00
03091               7.60   -30400.00
03092               6.80   -29600.00
03093               6.60   -29600.00
03094               7.40   -30400.00
03095               6.20   -29600.00
03096               6.00   -29600.00
03097               6.60   -28800.00
03098               6.00   -28800.00
03099               5.80   -28800.00
03100               5.80   -28000.00
03101               5.00   -28800.00
03102               4.80   -27200.00
03103               5.80   -27200.00
03104               5.20   -27200.00
03105               5.20   -26400.00
03106               5.20   -27200.00
03107               4.00   -26400.00
03108               4.20   -26400.00
03109               4.20   -25600.00
03110               3.60   -25600.00
03111               3.80   -24000.00
03112               3.80   -24000.00
03113               3.00   -24000.00
03114               3.60   -23200.00
03115               3.40   -23200.00
03116               3.40   -22400.00
03117               3.60   -21600.00
03118               3.00   -22400.00
03119               2.60   -20800.00
03120               2.80   -20800.00
03121               2.60   -20800.00
03122               2.60   -20000.00
03123               2.60   -19200.00
03124               2.20   -18400.00
03125               2.20   -18400.00
03126               2.60   -17600.00
03127               2.00   -17600.00
03128               1.60   -16800.00
03129               2.00   -16800.00
03130               1.80   -16000.00
03131               1.80   -16000.00
03132               2.00   -14400.00
03133               1.40   -14400.00
03134               1.40   -13600.00
03135               1.20   -13600.00
03136               1.20   -12000.00
03137               1.00   -12000.00
03138               1.00   -11200.00
03139               1.20   -11200.00
03140               0.60   -10400.00
03141               0.80    -9600.00
03142               1.00    -8800.00
03143               0.60    -8800.00
03144               1.00    -8000.00
03145               0.40    -7200.00
03146               0.20    -7200.00
03147               0.60    -6400.00
03148               0.20    -5600.00
03149               0.20    -4800.00
03150               0.40    -4000.00
03151              -0.40    -3200.00
03152               0.20    -3200.00
03153               0.20    -3200.00
03154              -0.60    -1600.00
03155              -0.40    -1600.00
03156              -0.40     -800.00
03157              -0.60        0.00
03158              -0.40        0.00
03159               0.00      800.00
03160               0.40     1600.00
03161               3.40     1600.00
03162              -2.20     2400.00
03163              -1.40     3200.00
03164               0.80     3200.00
03165              -0.60     4800.00
03166              -1.20     4800.00
03167              12.00     5600.00
03168              25.00     7200.00
03169             -25.00     8000.00
03170             -25.00     8000.00
03171              24.60     8800.00
03172              -6.40     8000.00
03173             -25.00     8800.00
03174              25.00     9600.00
03175             -25.00     9600.00
03176             -25.00    11200.00
03177              25.00    11200.00
03178             -25.00    12000.00
03179              19.00    12800.00
03180              25.00    12800.00
03181             -25.00    13600.00
03182              25.00    14400.00
03183             -25.00    14400.00
03184              -4.20    15200.00
03185              25.00    16000.00
03186             -25.00    16000.00
03187              24.40    16800.00
03188              25.00    16800.00
03189             -25.00    17600.00
03190              -5.00    18400.00
03191              25.00    19200.00
03192             -25.00    19200.00
03193              -7.00    20800.00
03194              25.00    20000.00
03195             -25.00    21600.00
03196              13.80    20800.00
03197               1.60    22400.00
03198             -25.00    22400.00
03199              11.80    23200.00
03200              -3.00    24000.00
03201             -13.20    24000.00
03202               6.60    24000.00
03203              -0.60    24000.00
03204             -19.80    24800.00
03205               9.80    25600.00
03206             -10.20    25600.00
03207              -9.20    25600.00
03208               5.40    26400.00
03209             -11.00    27200.00
03210              -3.80    27200.00
03211              -3.60    27200.00
03212              -7.00    28000.00
03213              -6.80    28000.00
03214              -2.60    28000.00
03215              -7.60    28800.00
03216              -7.60    28800.00
03217              -3.40    28800.00
03218              -9.60    28800.00
03219              -6.60    30400.00
03220              -3.00    29600.00
03221             -10.60    30400.00
03222              -6.20    30400.00
03223              -6.00    31200.00
03224             -10.00    31200.00
03225              -5.80    30400.00
03226              -8.60    31200.00
03227              -8.00    31200.00
03228              -6.80    32000.00
03229              -9.80    32000.00
03230              -8.60    32800.00
03231              -9.00    32000.00
03232              -9.80    32800.00
03233              -8.60    32800.00
03234              -9.00    32800.00
03235              -9.40    32800.00
03236             -10.80    32800.00
03237              -8.40    32000.00
03238             -10.80    32800.00
03239             -11.00    33600.00
03240              -8.60    32000.00
03241             -11.80    32800.00
03242              -9.20    32800.00
03243             -10.20    33600.00
03244             -12.40    32000.00
03245             -10.00    32800.00
03246             -10.60    32800.00
03247             -10.00    32800.00
03248              -9.80    32800.00
03249              -9.80    32000.00
03250              -9.80    32800.00
03251              -9.60    32000.00
03252              -8.60    32800.00
03253              -9.20    32000.00
03254              -8.60    32800.00
03255              -8.40    32000.00
03256              -7.80    31200.00
03257              -7.60    31200.00
03258              -9.20    31200.00
03259              -7.40    31200.00
03260              -7.00    30400.00
03261              -7.80    30400.00
03262              -6.60    30400.00
03263              -7.00    30400.00
03264              -7.40    29600.00
03265              -6.20    29600.00
03266              -6.60    28800.00
03267              -6.60    28800.00
03268              -6.00    28800.00
03269              -5.40    28000.00
03270              -5.80    28000.00
03271              -6.00    28000.00
03272              -5.60    27200.00
03273              -5.40    27200.00
03274              -5.00    27200.00
03275              -4.60    26400.00
03276              -5.40    25600.00
03277              -4.40    25600.00
03278              -4.40    24800.00
03279              -4.60    24800.00
03280              -4.40    24800.00
03281              -4.80    24000.00
03282              -4.00    24000.00
03283              -3.80    24000.00
03284              -3.80    22400.00
03285              -3.80    22400.00
03286              -3.80    21600.00
03287              -3.60    21600.00
03288              -3.60    20800.00
03289              -3.40    20800.00
03290              -3.40    19200.00
03291              -3.60    18400.00
03292              -2.20    19200.00
03293              -3.00    18400.00
03294              -3.40    17600.00
03295              -2.80    17600.00
03296              -3.00    16800.00
03297              -2.20    16000.00
03298              -3.00    15200.00
03299              -2.60    15200.00
03300              -2.20    15200.00
03301              -2.60    14400.00
03302              -2.00    13600.00
03303              -2.00    12800.00
03304              -2.60    12800.00
03305              -1.80    12000.00
03306              -1.60    11200.00
03307              -1.80    11200.00
03308              -2.20    10400.00
03309              -1.40     9600.00
03310              -1.80     9600.00
03311              -1.60     8800.00
03312              -1.20     8000.00
03313              -1.20     7200.00
03314              -1.40     7200.00
03315              -1.00     6400.00
03316              -1.20     5600.00
03317              -0.80     4800.00
03318              -1.00     4800.00
03319              -0.60     3200.00
03320              -0.40     3200.00
03321              -0.80     2400.00
03322              -1.00     1600.00
03323              -0.40     1600.00
03324              -0.40     1600.00
03325               0.00        0.00
03326               0.40     -800.00
03327               2.20     -800.00
03328               2.20     -800.00
03329              -1.40    -1600.00
03330               1.20    -2400.00
03331               1.80    -3200.00
03332               0.60    -4000.00
03333               1.00    -3200.00
03334               9.40    -4800.00
03335              25.00    -5600.00
03336             -10.20    -7200.00
03337             -25.00    -7200.00
03338              12.80    -8000.00
03339              18.60    -8000.00
03340             -25.00    -8000.00
03341               5.40    -8000.00
03342              25.00    -9600.00
03343             -25.00   -10400.00
03344               5.80   -10400.00
03345              25.00   -11200.00
03346             -25.00   -11200.00
03347              25.00   -12800.00
03348              11.60   -12800.00
03349             -17.20   -12800.00
03350              25.00   -14400.00
03351             -25.00   -14400.00
03352              22.00   -15200.00
03353              21.60   -14400.00
03354             -25.00   -16000.00
03355              25.00   -16800.00
03356              18.20   -16800.00
03357             -25.00   -17600.00
03358               8.40   -17600.00
03359              25.00   -18400.00
03360             -25.00   -19200.00
03361              16.80   -19200.00
03362              20.20   -20000.00
03363             -21.60   -20800.00
03364              19.40   -20800.00
03365               1.40   -22400.00
03366             -10.60   -22400.00
03367              14.80   -22400.00
03368               4.20   -23200.00
03369              -5.80   -24000.00
03370              16.40   -24000.00
03371               0.60   -24000.00
03372              -5.60   -24000.00
03373              16.40   -24800.00
03374              -3.20   -24800.00
03375               3.00   -25600.00
03376              12.40   -26400.00
03377              -0.20   -27200.00
03378               3.80   -26400.00
03379               8.80   -27200.00
03380               3.20   -27200.00
03381               4.20   -27200.00
03382               9.00   -28800.00
03383               3.40   -28800.00
03384               5.00   -28800.00
03385               9.00   -28800.00
03386               3.20   -28800.00
03387               6.60   -28800.00
03388               9.80   -29600.00
03389               3.60   -29600.00
03390               7.80   -29600.00
03391               8.40   -30400.00
03392               5.00   -30400.00
03393               8.40   -30400.00
03394               8.20   -31200.00
03395               7.80   -31200.00
03396               8.60   -31200.00
03397               7.80   -31200.00
03398               8.20   -32000.00
03399               8.60   -32000.00
03400               8.20   -32000.00
03401               9.80   -32000.00
03402              10.60   -32000.00
03403               7.20   -32000.00
03404              10.00   -32000.00
03405              10.80   -32000.00
03406               6.80   -32000.00
03407              11.80   -32000.00
03408              11.40   -32000.00
03409               8.20   -32000.00
03410              11.80   -32000.00
03411               9.40   -32000.00
03412               8.60   -32000.00
03413              11.00   -32000.00
03414               9.00   -32000.00
03415               8.80   -32000.00
03416              10.00   -31200.00
03417               8.20   -32000.00
03418               8.40   -31200.00
03419               9.80   -32000.00
03420               7.20   -32000.00
03421               7.20   -31200.00
03422               9.20   -31200.00
03423               6.00   -30400.00
03424               7.00   -30400.00
03425               8.40   -29600.00
03426               6.00   -29600.00
03427               8.20   -30400.00
03428               6.80   -29600.00
03429               5.20   -29600.00
03430               7.00   -28800.00
03431               6.20   -28800.00
03432               5.00   -28800.00
03433               7.00   -28000.00
03434               4.60   -28000.00
03435               4.20   -28000.00
03436               6.60   -27200.00
03437               5.20   -27200.00
03438               4.20   -27200.00
03439               5.80   -26400.00
03440               4.20   -26400.00
03441               3.60   -26400.00
03442               4.60   -25600.00
03443               4.00   -24800.00
03444               3.60   -24800.00
03445               5.00   -24000.00
03446               3.60   -24000.00
03447               3.40   -24000.00
03448               3.60   -23200.00
03449               2.40   -22400.00
03450               3.40   -22400.00
03451               3.40   -22400.00
03452               2.60   -20800.00
03453               3.60   -20800.00
03454               3.00   -20000.00
03455               2.60   -20000.00
03456               3.00   -20000.00
03457               2.20   -18400.00
03458               1.80   -18400.00
03459               2.60   -18400.00
03460               2.00   -17600.00
03461               1.60   -17600.00
03462               2.20   -16800.00
03463               1.80   -16000.00
03464               2.00   -16000.00
03465               2.60   -14400.00
03466               1.20   -14400.00
03467               1.40   -13600.00
03468               1.40   -13600.00
03469               1.00   -12800.00
03470               1.20   -12800.00
03471               1.20   -11200.00
03472               1.00   -11200.00
03473               1.20   -10400.00
03474               0.60    -9600.00
03475               0.60    -9600.00
03476               1.00    -8800.00
03477               0.60    -8000.00
03478               0.40    -8000.00
03479               0.40    -7200.00
03480               0.40    -7200.00
03481               0.20    -6400.00
03482               0.60    -4800.00
03483               0.40    -4800.00
03484              -0.20    -4000.00
03485              -0.20    -3200.00
03486              -0.20    -3200.00
03487              -0.40    -2400.00
03488              -0.20    -1600.00
03489              -0.20     -800.00
03490              -0.40     -800.00
03491              -0.40        0.00
03492              -0.40      800.00
03493              -0.20     1600.00
03494               2.20     1600.00
03495               0.40     1600.00
03496              -2.80     2400.00
03497               0.40     3200.00
03498               0.00     3200.00
03499              -1.80     4800.00
03500               5.20     4800.00
03501              25.00     6400.00
03502              -0.20     8000.00
03503             -25.00     8000.00
03504               6.00     8000.00
03505              19.60     8000.00
03506             -25.00     8000.00
03507              25.00     9600.00
03508              25.00     9600.00
03509             -25.00    10400.00
03510              25.00    11200.00
03511               1.40    11200.00
03512             -25.00    12800.00
03513              25.00    12800.00
03514             -25.00    12800.00
03515              25.00    14400.00
03516              23.60    14400.00
03517             -25.00    15200.00
03518              25.00    15200.00
03519             -25.00    16000.00
03520             -25.00    16000.00
03521              25.00    17600.00
03522             -22.20    17600.00
03523             -25.00    18400.00
03524              25.00    18400.00
03525              -0.20    19200.00
03526             -25.00    19200.00
03527              25.00    20000.00
03528             -13.80    20800.00
03529             -15.60    21600.00
03530              25.00    22400.00
03531             -25.00    21600.00
03532               1.00    22400.00
03533               6.60    23200.00
03534             -15.40    24000.00
03535              -1.20    24000.00
03536              10.20    24800.00
03537             -20.00    24800.00
03538              -0.20    24800.00
03539               3.60    25600.00
03540             -19.80    25600.00
03541               6.60    25600.00
03542              -5.60    27200.00
03543              -9.60    27200.00
03544              -0.40    27200.00
03545              -6.00    28000.00
03546              -8.60    27200.00
03547              -3.00    28000.00
03548              -4.60    28000.00
03549              -9.80    28800.00
03550              -3.60    28800.00
03551              -7.00    28800.00
03552              -9.40    29600.00
03553              -2.60    30400.00
03554              -8.60    30400.00
03555              -8.80    30400.00
03556              -3.60    31200.00
03557             -10.80    30400.00
03558              -7.40    31200.00
03559              -6.20    31200.00
03560             -10.60    31200.00
03561              -6.00    32000.00
03562              -7.80    32000.00
03563              -9.60    32800.00
03564              -8.60    32800.00
03565              -9.40    32000.00
03566              -9.00    32800.00
03567              -9.40    32800.00
03568              -8.60    32800.00
03569             -10.80    32800.00
03570              -9.20    32800.00
03571              -9.20    32800.00
03572             -11.80    33600.00
03573              -8.20    32000.00
03574             -11.40    32800.00
03575             -10.80    32000.00
03576              -8.20    32800.00
03577             -12.60    32800.00
03578             -10.20    32000.00
03579              -9.40    32800.00
03580             -10.80    32800.00
03581              -9.60    32800.00
03582              -9.80    32800.00
03583              -9.80    32800.00
03584              -9.20    32800.00
03585              -8.60    32000.00
03586              -9.40    32800.00
03587              -8.60    32000.00
03588              -8.00    32000.00
03589              -9.00    31200.00
03590              -7.60    31200.00
03591              -8.20    30400.00
03592              -8.60    31200.00
03593              -6.60    30400.00
03594              -7.20    30400.00
03595              -7.60    30400.00
03596              -6.20    30400.00
03597              -7.00    30400.00
03598              -6.60    29600.00
03599              -6.00    29600.00
03600              -6.60    28800.00
03601              -6.60    28800.00
03602              -5.80    28000.00
03603              -5.80    28800.00
03604              -6.00    28000.00
03605              -5.40    27200.00
03606              -5.40    27200.00
03607              -5.40    27200.00
03608              -4.60    26400.00
03609              -5.80    25600.00
03610              -5.00    25600.00
03611              -4.20    24800.00
03612              -5.00    24800.00
03613              -4.20    24000.00
03614              -4.40    24000.00
03615              -5.00    24000.00
03616              -4.00    24000.00
03617              -3.80    22400.00
03618              -4.20    22400.00
03619              -3.80    22400.00
03620              -3.60    21600.00
03621              -3.60    20800.00
03622              -3.80    20800.00
03623              -3.40    20800.00
03624              -3.60    19200.00
03625              -2.80    19200.00
03626              -2.60    18400.00
03627              -3.40    17600.00
03628              -2.80    17600.00
03629              -2.80    17600.00
03630              -2.80    16800.00
03631              -2.60    15200.00
03632              -2.60    15200.00
03633              -2.60    14400.00
03634              -2.60    14400.00
03635              -2.20    13600.00
03636              -2.20    13600.00
03637              -2.60    12800.00
03638              -1.40    12800.00
03639              -1.40    12000.00
03640              -2.00    11200.00
03641              -1.40    11200.00
03642              -2.00     9600.00
03643              -1.40     9600.00
03644              -1.80     8800.00
03645              -1.20     8800.00
03646              -1.40     8000.00
03647              -1.20     7200.00
03648              -1.20     7200.00
03649              -0.60     5600.00
03650              -1.00     5600.00
03651              -1.00     4800.00
03652              -0.60     4000.00
03653              -0.60     3200.00
03654              -0.60     3200.00
03655              -1.00     1600.00
03656              -0.40     1600.00
03657              -0.40      800.00
03658               0.00        0.00
03659               0.20        0.00
03660               1.00    -1600.00
03661               3.60     -800.00
03662              -1.00    -1600.00
03663              -0.40    -1600.00
03664               1.80    -3200.00
03665               0.80    -3200.00
03666              -0.20    -4000.00
03667               5.60    -4000.00
03668              20.20    -5600.00
03669              17.00    -6400.00
03670             -25.00    -7200.00
03671             -12.60    -8000.00
03672              25.00    -8000.00
03673             -18.20    -8800.00
03674             -25.00    -8000.00
03675              25.00    -9600.00
03676               3.00    -9600.00
03677             -25.00   -10400.00
03678              25.00   -11200.00
03679             -20.20   -11200.00
03680             -25.00   -12000.00
03681              25.00   -12800.00
03682             -25.00   -12800.00
03683              25.00   -13600.00
03684             -10.20   -14400.00
03685             -15.00   -14400.00
03686              25.00   -14400.00
03687             -25.00   -16000.00
03688              -4.20   -16800.00
03689              25.00   -16800.00
03690             -16.60   -17600.00
03691             -14.00   -17600.00
03692              25.00   -18400.00
03693             -11.80   -19200.00
03694             -12.60   -19200.00
03695              25.00   -20000.00
03696             -15.40   -20000.00
03697               1.20   -20800.00
03698              18.20   -20800.00
03699             -14.80   -22400.00
03700               6.80   -22400.00
03701              13.20   -23200.00
03702              -6.80   -23200.00
03703               7.00   -24000.00
03704              13.60   -24000.00
03705             -10.20   -24000.00
03706              10.80   -24000.00
03707               7.60   -24800.00
03708              -5.80   -25600.00
03709              12.20   -25600.00
03710               4.40   -26400.00
03711               0.80   -27200.00
03712               8.40   -27200.00
03713               5.80   -27200.00
03714               2.20   -27200.00
03715               9.00   -27200.00
03716               5.20   -28800.00
03717               3.00   -28800.00
03718              10.20   -28800.00
03719               3.60   -28800.00
03720               5.20   -29600.00
03721              10.80   -29600.00
03722               3.60   -29600.00
03723               6.00   -30400.00
03724              10.00   -29600.00
03725               4.40   -30400.00
03726               7.60   -30400.00
03727               9.20   -30400.00
03728               6.40   -30400.00
03729               9.40   -31200.00
03730               8.20   -31200.00
03731               6.80   -31200.00
03732               9.40   -32000.00
03733               8.40   -31200.00
03734               8.40   -32000.00
03735              10.00   -32000.00
03736               8.40   -32000.00
03737               9.00   -32000.00
03738              11.00   -32000.00
03739               8.40   -32000.00
03740               8.80   -32000.00
03741              11.00   -32000.00
03742               8.20   -32000.00
03743              10.60   -32000.00
03744              11.00   -32000.00
03745               8.40   -32000.00
03746              10.60   -32000.00
03747              10.00   -32000.00
03748               8.60   -32000.00
03749               9.20   -32000.00
03750               8.80   -32000.00
03751               8.40   -32000.00
03752               8.40   -32000.00
03753               8.40   -32000.00
03754               8.00   -30400.00
03755               8.20   -30400.00
03756               7.40   -30400.00
03757               7.00   -30400.00
03758               7.60   -30400.00
03759               6.60   -29600.00
03760               6.80   -29600.00
03761               7.40   -29600.00
03762               5.80   -29600.00
03763               6.60   -29600.00
03764               6.20   -28800.00
03765               5.20   -28800.00
03766               6.00   -28800.00
03767               5.80   -28000.00
03768               4.80   -28000.00
03769               5.40   -27200.00
03770               5.20   -27200.00
03771               5.40   -27200.00
03772               4.60   -26400.00
03773               5.00   -26400.00
03774               4.60   -25600.00
03775               4.20   -25600.00
03776               3.80   -25600.00
03777               4.40   -24000.00
03778               4.20   -24800.00
03779               3.80   -24000.00
03780               4.00   -24000.00
03781               3.80   -23200.00
03782               3.00   -22400.00
03783               3.60   -22400.00
03784               2.80   -22400.00
03785               2.20   -21600.00
03786               3.80   -21600.00
03787               3.00   -20800.00
03788               2.20   -20000.00
03789               2.60   -20000.00
03790               2.20   -18400.00
03791               2.60   -18400.00
03792               2.60   -17600.00
03793               2.00   -17600.00
03794               2.60   -17600.00
03795               1.80   -16800.00
03796               1.40   -16000.00
03797               2.40   -15200.00
03798               1.80   -15200.00
03799               1.00   -14400.00
03800               1.80   -14400.00
03801               1.40   -13600.00
03802               1.00   -13600.00
03803               1.60   -12800.00
03804               1.00   -12000.00
03805               1.00   -11200.00
03806               1.60   -11200.00
03807               0.40   -10400.00
03808               0.40    -9600.00
03809               0.80    -9600.00
03810               0.20    -8000.00
03811               0.60    -8000.00
03812               0.60    -7200.00
03813               0.40    -6400.00
03814               0.60    -6400.00
03815              -0.20    -6400.00
03816               0.20    -4800.00
03817               0.40    -4000.00
03818              -0.60    -4000.00
03819              -0.40    -3200.00
03820               0.20    -1600.00
03821              -0.60    -2400.00
03822              -0.20    -1600.00
03823              -0.40     -800.00
03824              -0.40     -800.00
03825              -0.20        0.00
03826               0.00     1600.00
03827               0.60     1600.00
03828               3.00     2400.00
03829              -2.80     2400.00
03830              -1.20     3200.00
03831               1.00     3200.00
03832              -1.20     4000.00
03833               0.20     4800.00
03834              16.60     6400.00
03835              25.00     7200.00
03836             -25.00     8000.00
03837             -24.60     8000.00
03838              25.00     8000.00
03839             -20.40     8000.00
03840             -18.60     9600.00
03841              25.00     9600.00
03842             -25.00     9600.00
03843               2.20    11200.00
03844              25.00    12000.00
03845             -25.00    12000.00
03846              25.00    12800.00
03847              -4.20    12800.00
03848             -25.00    13600.00
03849              25.00    14400.00
03850             -25.00    14400.00
03851              25.00    15200.00
03852              25.00    16000.00
03853             -25.00    16000.00
03854              25.00    16800.00
03855              12.40    17600.00
03856             -25.00    17600.00
03857               5.40    18400.00
03858              23.60    19200.00
03859             -25.00    19200.00
03860               9.00    20000.00
03861              23.00    21600.00
03862             -25.00    21600.00
03863              23.60    21600.00
03864             -11.40    22400.00
03865             -19.20    22400.00
03866              13.60    22400.00
03867              -8.60    24000.00
03868             -10.60    24000.00
03869              11.00    24000.00
03870              -8.60    24000.00
03871             -15.80    25600.00
03872              12.00    24800.00
03873             -17.20    25600.00
03874              -4.00    25600.00
03875               3.80    26400.00
03876             -13.00    27200.00
03877              -2.20    27200.00
03878              -3.60    27200.00
03879              -8.60    28000.00
03880              -5.80    28000.00
03881              -2.00    28000.00
03882              -9.40    28800.00
03883              -6.00    29600.00
03884              -3.60    28800.00
03885             -10.80    29600.00
03886              -4.40    29600.00
03887              -3.80    29600.00
03888             -11.40    30400.00
03889              -3.80    30400.00
03890              -7.60    30400.00
03891             -10.60    31200.00
03892              -5.00    31200.00
03893             -10.00    32000.00
03894              -7.80    32800.00
03895              -6.60    32000.00
03896              -9.60    32800.00
03897              -8.60    32000.00
03898              -9.40    32800.00
03899              -9.20    32000.00
03900              -9.00    32800.00
03901              -8.60    33600.00
03902              -9.40    32800.00
03903             -10.20    32800.00
03904              -8.20    33600.00
03905             -11.40    32800.00
03906             -10.00    32800.00
03907              -9.40    32800.00
03908             -11.80    32800.00
03909              -8.40    32800.00
03910             -11.00    33600.00
03911             -11.40    32800.00
03912              -9.20    32800.00
03913             -10.80    32800.00
03914              -9.40    32800.00
03915             -10.20    32800.00
03916              -9.80    32800.00
03917              -9.20    32800.00
03918              -9.00    32000.00
03919              -8.80    32000.00
03920              -9.20    32800.00
03921              -8.40    32000.00
03922              -8.40    32000.00
03923              -8.20    31200.00
03924              -7.60    31200.00
03925              -8.60    31200.00
03926              -7.20    31200.00
03927              -7.00    31200.00
03928              -7.60    30400.00
03929              -6.80    30400.00
03930              -6.80    30400.00
03931              -6.80    30400.00
03932              -6.00    29600.00
03933              -6.60    28800.00
03934              -6.40    28800.00
03935              -6.20    28800.00
03936              -5.80    28800.00
03937              -5.80    28800.00
03938              -6.00    28000.00
03939              -5.20    27200.00
03940              -5.80    26400.00
03941              -4.80    27200.00
03942              -5.20    25600.00
03943              -5.40    25600.00
03944              -4.40    25600.00
03945              -4.60    25600.00
03946              -4.40    24800.00
03947              -4.20    24800.00
03948              -4.60    24000.00
03949              -3.80    24000.00
03950              -4.40    23200.00
03951              -3.80    23200.00
03952              -3.60    22400.00
03953              -4.40    22400.00
03954              -3.00    21600.00
03955              -3.80    21600.00
03956              -4.20    20000.00
03957              -2.80    20000.00
03958              -3.80    19200.00
03959              -2.80    19200.00
03960              -2.20    18400.00
03961              -3.60    17600.00
03962              -2.00    16800.00
03963              -2.80    16800.00
03964              -3.00    16000.00
03965              -1.60    16000.00
03966              -2.60    15200.00
03967              -3.00    15200.00
03968              -1.40    14400.00
03969              -2.80    13600.00
03970              -2.20    12800.00
03971              -1.80    12800.00
03972              -2.00    12000.00
03973              -1.40    12000.00
03974              -1.20    11200.00
03975              -2.20     9600.00
03976              -0.80     9600.00
03977              -2.00     9600.00
03978              -1.20     8800.00
03979              -1.20     8000.00
03980              -1.40     8000.00
03981              -1.00     6400.00
03982              -0.60     6400.00
03983              -1.00     5600.00
03984              -0.60     5600.00
03985              -1.00     4000.00
03986              -0.40     4000.00
03987              -0.60     2400.00
03988              -1.00     2400.00
03989              -0.60     1600.00
03990              -0.40     1600.00
03991              -1.00      800.00
03992               1.00        0.00
03993               0.40        0.00
03994               2.60     -800.00
03995               1.80    -1600.00
03996              -1.20    -1600.00
03997               1.00    -3200.00
03998               2.00    -3200.00
03999               0.40    -3200.00
04000               1.60    -3200.00
04001              12.60    -4800.00
04002              25.00    -6400.00
04003             -24.60    -7200.00
04004             -25.00    -8000.00
04005              21.00    -8000.00
04006               9.20    -8000.00
04007             -25.00    -8000.00
04008              25.00    -8800.00
04009              25.00   -10400.00
04010             -25.00    -9600.00
04011              25.00   -10400.00
04012              25.00   -11200.00
04013             -25.00   -12000.00
04014              25.00   -12800.00
04015              -8.40   -12800.00
04016              -2.00   -13600.00
04017              24.40   -13600.00
04018             -25.00   -14400.00
04019              25.00   -15200.00
04020               4.20   -16000.00
04021             -25.00   -16000.00
04022              25.00   -16800.00
04023               6.60   -16800.00
04024             -25.00   -17600.00
04025              18.60   -17600.00
04026              15.80   -19200.00
04027             -25.00   -19200.00
04028              25.00   -20000.00
04029               9.00   -20000.00
04030             -17.40   -20800.00
04031              23.00   -20800.00
04032              -5.80   -21600.00
04033              -6.00   -22400.00
04034              15.40   -22400.00
04035               0.60   -22400.00
04036              -2.60   -23200.00
04037              17.40   -24000.00
04038              -3.40   -24000.00
04039              -1.20   -24800.00
04040              15.40   -24800.00
04041              -6.00   -24800.00
04042               7.40   -25600.00
04043              10.00   -25600.00
04044              -0.60   -26400.00
04045               6.20   -27200.00
04046               7.40   -27200.00
04047               1.00   -27200.00
04048               7.40   -27200.00
04049               9.00   -27200.00
04050               0.60   -28800.00
04051               8.60   -28800.00
04052               8.40   -28800.00
04053               1.20   -28800.00
04054               8.60   -28800.00
04055               9.80   -29600.00
04056               2.00   -29600.00
04057              10.00   -29600.00
04058               9.20   -29600.00
04059               3.60   -30400.00
04060               9.00   -30400.00
04061               8.20   -30400.00
04062               7.00   -30400.00
04063               9.00   -31200.00
04064               9.00   -31200.00
04065               6.80   -30400.00
04066               8.60   -31200.00
04067               9.40   -32000.00
04068               7.60   -32000.00
04069              11.00   -32000.00
04070               9.00   -32000.00
04071               8.20   -32000.00
04072              10.80   -32000.00
04073               7.60   -32000.00
04074               9.80   -32000.00
04075              11.60   -32000.00
04076               9.00   -32000.00
04077              10.60   -32000.00
04078              10.00   -32000.00
04079               8.60   -32000.00
04080               9.40   -32000.00
04081               9.40   -31200.00
04082               9.60   -32000.00
04083               8.40   -32000.00
04084               9.60   -32000.00
04085               8.60   -32000.00
04086               7.80   -30400.00
04087               8.20   -31200.00
04088               8.00   -30400.00
04089               7.80   -30400.00
04090               7.40   -30400.00
04091               7.40   -30400.00
04092               7.20   -30400.00
04093               6.60   -29600.00
04094               7.60   -29600.00
04095               6.80   -29600.00
04096               6.20   -29600.00
04097               6.80   -28800.00
04098               5.80   -28800.00
04099               5.80   -28800.00
04100               6.20   -28000.00
04101               5.40   -27200.00
04102               5.40   -27200.00
04103               6.20   -27200.00
04104               5.00   -27200.00
04105               4.60   -26400.00
04106               5.00   -25600.00
04107               4.20   -26400.00
04108               4.40   -25600.00
04109               4.80   -25600.00
04110               4.20   -25600.00
04111               4.20   -24000.00
04112               4.20   -24000.00
04113               3.40   -24000.00
04114               4.20   -24000.00
04115               3.60   -22400.00
04116               3.60   -22400.00
04117               3.60   -22400.00
04118               2.80   -21600.00
04119               3.00   -20800.00
04120               3.20   -20800.00
04121               2.60   -20000.00
04122               2.80   -20000.00
04123               2.60   -18400.00
04124               2.20   -18400.00
04125               2.00   -18400.00
04126               2.20   -17600.00
04127               2.20   -17600.00
04128               1.80   -16800.00
04129               2.40   -16000.00
04130               2.00   -16000.00
04131               1.80   -14400.00
04132               1.80   -14400.00
04133               1.20   -14400.00
04134               1.20   -13600.00
04135               1.40   -13600.00
04136               1.40   -12800.00
04137               1.20   -12000.00
04138               0.60   -11200.00
04139               1.00   -11200.00
04140               0.60   -10400.00
04141               0.40    -9600.00
04142               0.60    -9600.00
04143               0.60    -8800.00
04144               1.00    -8000.00
04145               0.40    -7200.00
04146               0.20    -7200.00
04147               0.40    -6400.00
04148               0.20    -6400.00
04149               0.20    -4800.00
04150               0.20    -4000.00
04151              -0.40    -4000.00
04152              -0.40    -3200.00
04153              -0.20    -3200.00
04154              -0.60    -1600.00
04155              -0.20    -1600.00
04156              -0.20     -800.00
04157              -0.60        0.00
04158              -0.20        0.00
04159              -0.20      800.00
04160               0.00     1600.00
04161               3.40     1600.00
04162              -0.20     2400.00
04163              -1.80     2400.00
04164               0.60     3200.00
04165               0.00     4000.00
04166              -2.00     4000.00
04167               7.60     5600.00
04168              25.00     6400.00
04169             -16.20     7200.00
04170             -25.00     8000.00
04171              16.60     8800.00
04172              10.20     8000.00
04173             -25.00     8800.00
04174              25.00     9600.00
04175              15.60     9600.00
04176             -25.00    11200.00
04177              25.00    11200.00
04178             -25.00    11200.00
04179             -24.60    12800.00
04180              25.00    12800.00
04181             -25.00    12800.00
04182              25.00    14400.00
04183             -13.00    14400.00
04184             -25.00    15200.00
04185              25.00    16000.00
04186             -25.00    16000.00
04187              -4.40    16000.00
04188              25.00    17600.00
04189             -25.00    17600.00
04190             -17.20    18400.00
04191              25.00    18400.00
04192             -14.80    19200.00
04193             -25.00    20000.00
04194              25.00    20800.00
04195             -25.00    20800.00
04196              -2.00    21600.00
04197              16.40    22400.00
04198             -25.00    22400.00
04199               8.20    22400.00
04200               1.60    23200.00
04201             -15.60    24000.00
04202               2.60    24000.00
04203               5.60    24800.00
04204             -21.80    24800.00
04205               6.20    24800.00
04206              -2.80    25600.00
04207             -17.00    25600.00
04208               7.60    26400.00
04209              -9.20    27200.00
04210              -7.00    27200.00
04211              -1.20    28000.00
04212              -6.80    27200.00
04213              -8.20    28000.00
04214              -2.20    28000.00
04215              -6.60    28800.00
04216              -9.40    28800.00
04217              -3.00    28800.00
04218              -8.40    29600.00
04219              -8.40    29600.00
04220              -2.20    30400.00
04221              -9.40    30400.00
04222              -7.00    30400.00
04223              -4.60    30400.00
04224             -11.00    31200.00
04225              -6.00    31200.00
04226              -7.60    31200.00
04227             -10.00    31200.00
04228              -5.80    32000.00
04229              -8.80    32800.00
04230              -9.20    32000.00
04231              -8.60    32800.00
04232              -9.40    32800.00
04233              -8.60    32000.00
04234              -9.20    32000.00
04235              -8.60    32000.00
04236             -10.20    32800.00
04237              -9.20    32800.00
04238              -9.80    33600.00
04239             -10.80    32800.00
04240              -9.00    33600.00
04241             -11.60    32000.00
04242              -9.20    32800.00
04243              -9.40    33600.00
04244             -12.40    32800.00
04245              -9.40    32800.00
04246             -10.20    32800.00
04247             -10.20    32800.00
04248              -9.60    32000.00
04249             -10.00    32800.00
04250              -9.40    32800.00
04251              -9.40    32000.00
04252              -7.80    32000.00
04253              -9.20    32000.00
04254              -9.20    32800.00
04255              -7.60    32000.00
04256              -8.40    31200.00
04257              -8.20    31200.00
04258              -8.20    31200.00
04259              -7.80    31200.00
04260              -7.00    31200.00
04261              -7.60    30400.00
04262              -7.40    30400.00
04263              -6.60    30400.00
04264              -7.40    30400.00
04265              -6.20    29600.00
04266              -6.60    28800.00
04267              -7.00    28800.00
04268              -6.20    28800.00
04269              -5.20    28800.00
04270              -5.80    28800.00
04271              -6.00    27200.00
04272              -5.20    27200.00
04273              -5.80    27200.00
04274              -5.20    27200.00
04275              -4.60    26400.00
04276              -5.40    25600.00
04277              -4.60    25600.00
04278              -4.60    25600.00
04279              -4.60    24800.00
04280              -4.20    24800.00
04281              -4.60    24000.00
04282              -4.20    24000.00
04283              -4.20    24000.00
04284              -3.80    23200.00
04285              -3.60    22400.00
04286              -4.40    22400.00
04287              -3.00    21600.00
04288              -3.00    21600.00
04289              -4.40    20800.00
04290              -2.80    20800.00
04291              -2.80    19200.00
04292              -3.40    19200.00
04293              -3.00    18400.00
04294              -2.80    18400.00
04295              -2.60    17600.00
04296              -3.20    16800.00
04297              -2.20    16000.00
04298              -2.00    16000.00
04299              -2.80    16000.00
04300              -2.80    15200.00
04301              -1.00    14400.00
04302              -2.20    14400.00
04303              -2.80    13600.00
04304              -1.40    12000.00
04305              -1.80    12800.00
04306              -2.60    12000.00
04307              -1.00    11200.00
04308              -1.40    10400.00
04309              -2.20     9600.00
04310              -1.20     8800.00
04311              -0.60     8800.00
04312              -2.00     8000.00
04313              -0.60     7200.00
04314              -1.40     6400.00
04315              -1.20     6400.00
04316              -1.00     5600.00
04317              -0.20     4800.00
04318              -1.20     4800.00
04319              -0.60     4000.00
04320               0.00     3200.00
04321              -1.20     2400.00
04322              -0.60     1600.00
04323              -0.60     1600.00
04324              -0.60      800.00
04325              -0.40        0.00
04326              -0.20        0.00
04327               1.80     -800.00
04328               3.60     -800.00
04329              -1.40    -1600.00
04330               0.40    -2400.00
04331               1.80    -2400.00
04332               0.40    -3200.00
04333              -0.20    -4000.00
04334               7.00    -4000.00
04335              23.80    -4800.00
04336               6.00    -6400.00
04337             -25.00    -7200.00
04338              -1.00    -8000.00
04339              25.00    -8000.00
04340             -25.00    -8000.00
04341             -16.80    -8000.00
04342              25.00    -9600.00
04343             -25.00    -9600.00
04344             -25.00   -10400.00
04345              25.00   -11200.00
04346             -25.00   -11200.00
04347              -2.80   -11200.00
04348              25.00   -12800.00
04349             -25.00   -12800.00
04350              25.00   -13600.00
04351             -25.00   -14400.00
04352               2.00   -14400.00
04353              25.00   -15200.00
04354             -25.00   -16000.00
04355              10.00   -16000.00
04356              25.00   -16800.00
04357             -23.60   -17600.00
04358              -4.60   -17600.00
04359              25.00   -19200.00
04360             -22.80   -18400.00
04361               1.00   -19200.00
04362              25.00   -20000.00
04363             -21.20   -20800.00
04364              10.60   -20800.00
04365              11.60   -21600.00
04366             -14.80   -21600.00
04367              12.00   -22400.00
04368              10.00   -23200.00
04369              -8.20   -22400.00
04370              12.40   -24000.00
04371               8.20   -24000.00
04372             -10.00   -24000.00
04373              14.80   -24800.00
04374               2.60   -24800.00
04375              -2.20   -25600.00
04376              13.60   -25600.00
04377               1.40   -25600.00
04378               2.00   -26400.00
04379               9.00   -27200.00
04380               3.80   -27200.00
04381               3.20   -27200.00
04382              10.00   -27200.00
04383               3.80   -28800.00
04384               3.40   -28800.00
04385               9.60   -28000.00
04386               3.60   -28800.00
04387               6.00   -29600.00
04388              10.20   -29600.00
04389               3.80   -29600.00
04390               7.40   -29600.00
04391               9.00   -29600.00
04392               4.40   -30400.00
04393               8.20   -30400.00
04394               8.20   -31200.00
04395               6.80   -30400.00
04396               9.20   -32000.00
04397               7.80   -31200.00
04398               7.40   -32000.00
04399               8.40   -32000.00
04400               8.40   -32000.00
04401               9.00   -31200.00
04402               9.20   -32000.00
04403               9.00   -32000.00
04404               9.00   -32000.00
04405              10.20   -32000.00
04406               8.40   -32000.00
04407               9.20   -32000.00
04408              10.60   -32000.00
04409               9.00   -32000.00
04410              10.80   -32000.00
04411               9.40   -32000.00
04412               9.00   -32000.00
04413              10.60   -32000.00
04414               9.00   -32000.00
04415               9.20   -32000.00
04416               9.40   -31200.00
04417               8.00   -32000.00
04418               8.20   -31200.00
04419               9.00   -32000.00
04420               8.00   -31200.00
04421               7.80   -30400.00
04422               8.40   -31200.00
04423               7.60   -30400.00
04424               7.00   -30400.00
04425               7.40   -29600.00
04426               7.00   -30400.00
04427               7.40   -30400.00
04428               7.00   -29600.00
04429               6.00   -29600.00
04430               6.80   -28800.00
04431               5.80   -28800.00
04432               5.20   -28800.00
04433               6.20   -28800.00
04434               6.00   -28000.00
04435               5.20   -27200.00
04436               5.20   -27200.00
04437               5.20   -27200.00
04438               5.20   -27200.00
04439               4.40   -26400.00
04440               5.20   -26400.00
04441               5.00   -25600.00
04442               4.20   -25600.00
04443               4.20   -25600.00
04444               4.20   -25600.00
04445               3.60   -24000.00
04446               3.80   -24000.00
04447               4.00   -24000.00
04448               3.40   -23200.00
04449               3.00   -23200.00
04450               3.60   -22400.00
04451               3.60   -22400.00
04452               3.00   -21600.00
04453               2.60   -20800.00
04454               2.80   -20000.00
04455               2.60   -20000.00
04456               2.00   -20000.00
04457               2.60   -18400.00
04458               2.20   -18400.00
04459               2.00   -18400.00
04460               2.60   -17600.00
04461               2.00   -16800.00
04462               1.20   -16000.00
04463               2.20   -16000.00
04464               1.80   -16000.00
04465               1.40   -15200.00
04466               2.00   -14400.00
04467               1.60   -14400.00
04468               1.40   -13600.00
04469               1.20   -12800.00
04470               1.20   -12800.00
04471               1.00   -11200.00
04472               1.00   -11200.00
04473               1.20   -11200.00
04474               0.40    -9600.00
04475               0.60    -9600.00
04476               1.00    -9600.00
04477               0.20    -8000.00
04478               0.40    -8000.00
04479               0.60    -7200.00
04480               0.20    -6400.00
04481               0.40    -6400.00
04482               0.40    -6400.00
04483               0.20    -4000.00
04484               0.20    -4000.00
04485               0.20    -4000.00
04486               0.20    -3200.00
04487              -0.20    -2400.00
04488              -0.40    -1600.00
04489              -0.20     -800.00
04490              -0.60     -800.00
04491              -0.60        0.00
04492               0.20        0.00
04493               0.60     1600.00
04494               1.40     1600.00
04495               2.00     2400.00
04496              -2.20     2400.00
04497              -0.60     3200.00
04498               0.40     3200.00
04499              -0.60     4000.00
04500               2.00     5600.00
04501              21.80     6400.00
04502              18.60     7200.00
04503             -25.00     7200.00
04504             -10.60     8000.00
04505              25.00     8000.00
04506             -25.00     8800.00
04507               3.40     9600.00
04508              25.00    10400.00
04509             -25.00     9600.00
04510              25.00    11200.00
04511              25.00    12000.00
04512             -25.00    12000.00
04513              25.00    12800.00
04514             -25.00    12800.00
04515              -0.60    14400.00
04516              25.00    14400.00
04517             -25.00    14400.00
04518              25.00    16000.00
04519               9.40    16000.00
04520             -25.00    16000.00
04521              25.00    16000.00
04522              -4.40    17600.00
04523             -25.00    17600.00
04524              15.60    19200.00
04525              14.20    18400.00
04526             -25.00    19200.00
04527              23.00    20800.00
04528               6.60    20800.00
04529             -25.00    21600.00
04530              25.00    21600.00
04531             -23.00    21600.00
04532              -9.40    22400.00
04533              10.80    23200.00
04534             -13.40    24000.00
04535              -6.00    24000.00
04536              11.40    24000.00
04537             -15.60    24800.00
04538              -8.60    25600.00
04539               9.80    24800.00
04540             -20.40    25600.00
04541               1.20    26400.00
04542              -1.00    26400.00
04543             -10.80    27200.00
04544              -0.60    27200.00
04545              -5.40    27200.00
04546              -8.60    28000.00
04547              -4.60    28000.00
04548              -4.20    28000.00
04549              -9.20    28800.00
04550              -4.40    28800.00
04551              -6.20    29600.00
04552             -10.00    29600.00
04553              -3.00    30400.00
04554              -6.60    30400.00
04555             -10.20    30400.00
04556              -3.80    31200.00
04557              -9.40    31200.00
04558              -8.40    31200.00
04559              -5.00    31200.00
04560             -11.60    32000.00
04561              -7.00    32000.00
04562              -6.60    32000.00
04563              -9.80    32800.00
04564              -8.40    32000.00
04565              -8.60    32800.00
04566              -9.40    32000.00
04567              -9.80    32800.00
04568              -8.40    32800.00
04569             -10.20    32000.00
04570             -10.40    32800.00
04571              -7.80    32800.00
04572             -11.60    32000.00
04573             -10.20    32800.00
04574              -9.40    33600.00
04575             -11.60    32800.00
04576              -8.60    33600.00
04577             -11.40    32800.00
04578             -10.80    32800.00
04579              -9.80    32800.00
04580             -10.20    32800.00
04581             -10.00    32800.00
04582             -10.00    32000.00
04583              -9.40    32800.00
04584             -10.00    32000.00
04585              -9.20    32800.00
04586              -8.60    32000.00
04587              -9.80    32800.00
04588              -8.40    32000.00
04589              -8.60    32000.00
04590              -8.20    32000.00
04591              -7.80    30400.00
04592              -9.20    31200.00
04593              -6.20    31200.00
04594              -7.60    30400.00
04595              -8.60    30400.00
04596              -5.20    30400.00
04597              -7.60    30400.00
04598              -8.40    28800.00
04599              -5.00    28800.00
04600              -6.60    29600.00
04601              -8.20    28800.00
04602              -5.00    28800.00
04603              -5.40    28800.00
04604              -7.40    28000.00
04605              -5.20    27200.00
04606              -4.60    27200.00
04607              -5.80    27200.00
04608              -4.60    27200.00
04609              -4.60    25600.00
04610              -6.20    25600.00
04611              -5.40    25600.00
04612              -4.40    25600.00
04613              -3.40    24800.00
04614              -4.60    24000.00
04615              -4.60    24000.00
04616              -2.80    24000.00
04617              -4.60    23200.00
04618              -4.60    22400.00
04619              -2.80    22400.00
04620              -4.40    22400.00
04621              -3.60    20800.00
04622              -2.60    20800.00
04623              -3.40    20800.00
04624              -3.80    20000.00
04625              -3.00    18400.00
04626              -2.20    19200.00
04627              -3.00    18400.00
04628              -2.80    17600.00
04629              -3.40    16800.00
04630              -1.80    16000.00
04631              -3.00    16000.00
04632              -2.40    16000.00
04633              -1.80    15200.00
04634              -2.20    14400.00
04635              -2.80    14400.00
04636              -1.80    13600.00
04637              -1.40    12800.00
04638              -2.80    12800.00
04639              -1.40    12000.00
04640              -1.00    12000.00
04641              -1.40    11200.00
04642              -3.40     9600.00
04643               0.00     9600.00
04644              -1.20     8800.00
04645              -2.80     8000.00
04646               0.40     8000.00
04647              -0.60     7200.00
04648              -3.00     6400.00
04649              -0.40     6400.00
04650              -0.40     5600.00
04651              -1.40     4800.00
04652              -0.60     4000.00
04653               0.60     4000.00
04654              -0.60     3200.00
04655              -1.80     2400.00
04656              -0.60     2400.00
04657              -0.60     1600.00
04658              -1.40      800.00
04659               0.40        0.00
04660               1.40     -800.00
04661               3.20    -1600.00
04662               0.20    -1600.00
04663              -0.60    -1600.00
04664               1.40    -3200.00
04665               1.00    -3200.00
04666               0.20    -4000.00
04667               3.40    -4000.00
04668              15.40    -4800.00
04669              24.60    -6400.00
04670             -25.00    -7200.00
04671             -25.00    -8000.00
04672              25.00    -8000.00
04673              -2.40    -8000.00
04674             -25.00    -8000.00
04675              25.00    -8800.00
04676              25.00   -10400.00
04677             -25.00    -9600.00
04678              25.00   -11200.00
04679              18.00   -11200.00
04680             -25.00   -11200.00
04681              25.00   -12800.00
04682             -24.80   -12800.00
04683              13.40   -14400.00
04684              10.20   -14400.00
04685             -25.00   -15200.00
04686              25.00   -15200.00
04687             -12.60   -15200.00
04688             -19.80   -16000.00
04689              25.00   -16800.00
04690              -5.20   -17600.00
04691             -22.80   -17600.00
04692              25.00   -17600.00
04693               3.00   -19200.00
04694             -24.80   -20000.00
04695              25.00   -20000.00
04696              -3.00   -20000.00
04697             -10.00   -20800.00
04698              23.60   -20800.00
04699             -10.80   -21600.00
04700               0.40   -22400.00
04701              15.40   -22400.00
04702              -4.20   -23200.00
04703               2.00   -23200.00
04704              17.00   -24000.00
04705              -7.80   -24000.00
04706               5.00   -24000.00
04707              12.40   -24800.00
04708              -7.00   -25600.00
04709              10.20   -26400.00
04710               7.40   -26400.00
04711               0.40   -26400.00
04712               7.40   -27200.00
04713               5.40   -27200.00
04714               2.20   -27200.00
04715               7.80   -28000.00
04716               7.40   -28000.00
04717               2.00   -28800.00
04718               8.20   -28800.00
04719               6.00   -28800.00
04720               3.60   -28800.00
04721               9.00   -29600.00
04722               6.20   -29600.00
04723               5.00   -29600.00
04724               9.20   -30400.00
04725               5.80   -29600.00
04726               6.40   -30400.00
04727               8.40   -30400.00
04728               7.00   -30400.00
04729               8.60   -30400.00
04730               8.20   -31200.00
04731               7.60   -30400.00
04732               8.20   -32000.00
04733               8.40   -30400.00
04734               9.00   -32000.00
04735               8.60   -32000.00
04736               9.20   -32000.00
04737               8.60   -32000.00
04738               9.80   -32000.00
04739               9.00   -32000.00
04740               8.40   -32000.00
04741              10.80   -32000.00
04742               9.60   -32000.00
04743               9.80   -32000.00
04744              10.80   -32000.00
04745               9.00   -32000.00
04746              10.20   -32000.00
04747              10.00   -32000.00
04748               8.40   -32000.00
04749               9.20   -32000.00
04750               9.20   -32000.00
04751               8.20   -31200.00
04752               8.40   -32000.00
04753               9.00   -30400.00
04754               8.00   -32000.00
04755               8.20   -30400.00
04756               8.20   -30400.00
04757               7.40   -30400.00
04758               7.80   -30400.00
04759               7.00   -29600.00
04760               6.80   -29600.00
04761               7.40   -29600.00
04762               6.60   -29600.00
04763               6.80   -28800.00
04764               6.60   -28800.00
04765               5.80   -28800.00
04766               6.00   -28800.00
04767               6.00   -28000.00
04768               5.00   -28000.00
04769               5.40   -28000.00
04770               5.80   -27200.00
04771               5.00   -27200.00
04772               4.60   -26400.00
04773               4.60   -26400.00
04774               4.60   -25600.00
04775               4.40   -25600.00
04776               4.20   -25600.00
04777               4.40   -25600.00
04778               3.80   -24800.00
04779               3.80   -24000.00
04780               3.80   -24000.00
04781               3.20   -24000.00
04782               3.60   -23200.00
04783               3.40   -22400.00
04784               2.60   -22400.00
04785               3.20   -22400.00
04786               3.00   -20800.00
04787               2.80   -20800.00
04788               3.00   -20000.00
04789               2.60   -19200.00
04790               2.00   -19200.00
04791               2.00   -18400.00
04792               2.20   -18400.00
04793               2.60   -17600.00
04794               2.00   -17600.00
04795               1.80   -16800.00
04796               2.00   -16000.00
04797               1.00   -16000.00
04798               1.40   -16000.00
04799               1.80   -14400.00
04800               1.00   -14400.00
04801               1.40   -14400.00
04802               1.20   -12800.00
04803               1.00   -12800.00
04804               1.20   -12000.00
04805               1.20   -11200.00
04806               1.20   -11200.00
04807               1.20   -10400.00
04808               0.60    -9600.00
04809               0.40    -9600.00
04810               0.60    -8800.00
04811               1.00    -8000.00
04812               0.20    -7200.00
04813               0.40    -7200.00
04814               0.80    -6400.00
04815               0.20    -4800.00
04816               0.20    -4800.00
04817               0.40    -4000.00
04818              -0.20    -4000.00
04819               0.00    -4000.00
04820               0.40    -3200.00
04821              -0.20    -1600.00
04822              -0.20    -1600.00
04823               0.20     -800.00
04824              -0.20     -800.00
04825              -0.20        0.00
04826               0.20     1600.00
04827               0.40     1600.00
04828               3.00     1600.00
04829              -1.80     2400.00
04830              -1.20     3200.00
04831               1.00     3200.00
04832              -0.60     4000.00
04833              -1.00     4800.00
04834              11.00     5600.00
04835              25.00     7200.00
04836             -25.00     8000.00
04837             -25.00     8000.00
04838              23.80     8800.00
04839              -2.80     8800.00
04840             -25.00     8800.00
04841              25.00     9600.00
04842             -19.60    10400.00
04843             -25.00    11200.00
04844              25.00    11200.00
04845             -25.00    11200.00
04846              11.40    12800.00
04847              25.00    12800.00
04848             -25.00    12800.00
04849              25.00    13600.00
04850             -25.00    14400.00
04851             -13.40    15200.00
04852              25.00    16000.00
04853             -25.00    16000.00
04854              19.40    16800.00
04855              25.00    17600.00
04856             -25.00    17600.00
04857              -7.60    18400.00
04858              25.00    18400.00
04859             -25.00    19200.00
04860             -11.00    20800.00
04861              25.00    20800.00
04862             -25.00    21600.00
04863              12.20    21600.00
04864               3.80    21600.00
04865             -25.00    22400.00
04866              13.20    22400.00
04867              -3.60    23200.00
04868             -14.80    24000.00
04869               7.40    24000.00
04870              -0.60    24800.00
04871             -21.20    24800.00
04872              10.80    24800.00
04873             -10.00    25600.00
04874             -11.40    26400.00
04875               7.40    26400.00
04876             -12.40    27200.00
04877              -4.60    27200.00
04878              -2.00    28000.00
04879              -7.60    28000.00
04880              -7.00    28000.00
04881              -1.60    28800.00
04882              -7.80    28800.00
04883              -7.60    28800.00
04884              -3.00    29600.00
04885              -9.80    28800.00
04886              -6.20    28800.00
04887              -2.80    30400.00
04888             -10.20    30400.00
04889              -5.20    31200.00
04890              -5.40    31200.00
04891             -11.00    30400.00
04892              -5.40    32000.00
04893              -9.20    31200.00
04894              -9.00    32000.00
04895              -5.80    32800.00
04896              -9.40    32000.00
04897              -8.60    32800.00
04898              -9.00    32800.00
04899              -9.20    32000.00
04900              -8.60    32800.00
04901              -9.20    32800.00
04902              -9.40    32800.00
04903             -10.80    32800.00
04904              -8.60    32800.00
04905             -10.60    32800.00
04906             -10.60    32800.00
04907              -8.60    32000.00
04908             -11.80    32800.00
04909              -8.60    33600.00
04910             -10.60    32800.00
04911             -12.60    32800.00
04912              -9.00    32800.00
04913             -11.60    32800.00
04914              -9.80    32800.00
04915              -9.20    32800.00
04916             -10.60    32000.00
04917              -8.60    32800.00
04918              -9.80    32800.00
04919              -9.40    32800.00
04920              -9.00    32000.00
04921             -10.00    31200.00
04922              -7.80    31200.00
04923              -7.60    31200.00
04924              -8.80    32000.00
04925              -8.20    31200.00
04926              -7.40    31200.00
04927              -7.60    31200.00
04928              -7.40    30400.00
04929              -7.60    30400.00
04930              -7.40    30400.00
04931              -6.80    29600.00
04932              -6.20    30400.00
04933              -6.60    28800.00
04934              -6.40    28800.00
04935              -6.20    28800.00
04936              -5.80    28000.00
04937              -6.00    28000.00
04938              -6.00    28000.00
04939              -5.40    27200.00
04940              -5.40    26400.00
04941              -4.60    27200.00
04942              -4.80    26400.00
04943              -5.20    25600.00
04944              -4.40    25600.00
04945              -4.60    24800.00
04946              -4.60    24800.00
04947              -4.40    24000.00
04948              -5.20    24000.00
04949              -3.80    24000.00
04950              -3.80    23200.00
04951              -4.20    23200.00
04952              -3.80    22400.00
04953              -3.80    22400.00
04954              -3.00    21600.00
04955              -3.40    20800.00
04956              -3.60    20800.00
04957              -3.40    20000.00
04958              -3.00    19200.00
04959              -2.60    18400.00
04960              -2.60    18400.00
04961              -2.80    17600.00
04962              -3.00    16800.00
04963              -2.80    16800.00
04964              -1.80    16000.00
04965              -3.00    16000.00
04966              -2.20    14400.00
04967              -1.60    14400.00
04968              -2.60    13600.00
04969              -2.00    13600.00
04970              -1.80    12800.00
04971              -2.80    12800.00
04972              -1.20    12000.00
04973              -1.40    12000.00
04974              -2.00    11200.00
04975              -1.60    11200.00
04976              -1.80     9600.00
04977              -1.40     9600.00
04978              -1.60     8800.00
04979              -1.80     8000.00
04980              -1.20     8000.00
04981              -1.80     6400.00
04982              -1.00     6400.00
04983              -1.00     6400.00
04984              -1.00     4800.00
04985              -1.20     4800.00
04986              -0.60     3200.00
04987              -0.40     3200.00
04988              -0.80     2400.00
04989              -1.20     1600.00
04990              -0.20     1600.00
04991              -0.40      800.00
04992              -0.20        0.00
04993               0.40        0.00
04994               1.80     -800.00
04995               2.60     -800.00
04996              -1.40    -1600.00
04997               0.60    -2400.00
04998               1.40    -3200.00
04999               0.40    -3200.00
05000               0.60    -4000.00
