Unit:(mV)
                     CH1         CH2
Frequency              ? 233.230 kHz
00001              42.00     9200.00
00002              36.00     9200.00
00003              44.00     9200.00
00004              50.00     9200.00
00005              26.00     9400.00
00006              26.00     9400.00
00007              46.00     9400.00
00008              52.00     9600.00
00009              38.00     9400.00
00010              44.00     9600.00
00011              50.00     9600.00
00012              44.00     9600.00
00013              44.00     9600.00
00014              52.00     9800.00
00015              48.00     9800.00
00016              38.00     9800.00
00017              52.00    10000.00
00018              66.00     9800.00
00019              50.00    10000.00
00020              36.00    10000.00
00021              50.00    10000.00
00022              56.00    10000.00
00023              56.00    10000.00
00024              58.00    10000.00
00025              58.00    10000.00
00026              50.00    10000.00
00027              44.00    10200.00
00028              58.00    10000.00
00029              60.00    10000.00
00030              60.00    10000.00
00031              60.00    10000.00
00032              54.00    10000.00
00033              50.00    10000.00
00034              54.00    10200.00
00035              66.00    10000.00
00036              64.00    10200.00
00037              60.00    10000.00
00038              58.00    10000.00
00039              60.00    10200.00
00040              58.00    10000.00
00041              58.00    10000.00
00042              60.00    10000.00
00043              58.00    10000.00
00044              58.00    10000.00
00045              58.00    10000.00
00046              60.00    10000.00
00047              52.00     9800.00
00048              56.00    10000.00
00049              70.00     9800.00
00050              82.00     9600.00
00051              74.00     9600.00
00052              54.00     9600.00
00053              36.00     9600.00
00054              38.00     9600.00
00055              52.00     9400.00
00056              58.00     9400.00
00057              52.00     9400.00
00058              36.00     9400.00
00059              40.00     9400.00
00060              44.00     9200.00
00061              38.00     9200.00
00062              38.00     9200.00
00063              42.00     9200.00
00064              42.00     8800.00
00065              40.00     8800.00
00066              34.00     8800.00
00067              34.00     8800.00
00068              34.00     8800.00
00069              36.00     8600.00
00070              38.00     8400.00
00071              34.00     8400.00
00072              30.00     8400.00
00073              30.00     8400.00
00074              32.00     8400.00
00075              28.00     8200.00
00076              26.00     8000.00
00077              30.00     8000.00
00078              30.00     8000.00
00079              30.00     7800.00
00080              28.00     7800.00
00081              26.00     7600.00
00082              26.00     7600.00
00083              26.00     7400.00
00084              30.00     7200.00
00085              26.00     7200.00
00086              20.00     7200.00
00087              22.00     7000.00
00088              22.00     7000.00
00089              26.00     6800.00
00090              24.00     6800.00
00091              26.00     6600.00
00092              22.00     6400.00
00093              18.00     6400.00
00094              18.00     6400.00
00095              22.00     6200.00
00096              22.00     6000.00
00097              20.00     6000.00
00098              18.00     5800.00
00099              16.00     5600.00
00100              16.00     5600.00
00101              18.00     5600.00
00102              18.00     5400.00
00103              18.00     5200.00
00104              18.00     5000.00
00105              18.00     4800.00
00106              14.00     4800.00
00107              10.00     4600.00
00108              10.00     4400.00
00109              12.00     4400.00
00110              14.00     4200.00
00111              12.00     4000.00
00112              10.00     4000.00
00113              10.00     3800.00
00114              10.00     3600.00
00115              10.00     3600.00
00116              10.00     3200.00
00117              10.00     3200.00
00118              10.00     3200.00
00119               4.00     2800.00
00120              -2.00     2800.00
00121               6.00     2800.00
00122              14.00     2400.00
00123              14.00     2200.00
00124              -4.00     2200.00
00125             -10.00     2200.00
00126               2.00     2000.00
00127              14.00     1800.00
00128              14.00     1800.00
00129              -2.00     1600.00
00130             -14.00     1400.00
00131              -2.00     1200.00
00132              12.00     1200.00
00133              14.00     1000.00
00134              -2.00      800.00
00135             -14.00      600.00
00136             -10.00      600.00
00137               8.00      400.00
00138              10.00      400.00
00139              -6.00        0.00
00140             -10.00        0.00
00141               4.00     -200.00
00142              26.00     -200.00
00143              46.00     -400.00
00144               2.00     -600.00
00145             -38.00     -800.00
00146             -20.00     -800.00
00147              26.00    -1000.00
00148              30.00    -1000.00
00149              58.00    -1200.00
00150             250.00    -1400.00
00151             228.00    -2000.00
00152            -250.00    -2000.00
00153            -250.00    -2400.00
00154            -108.00    -2400.00
00155             250.00    -2000.00
00156             250.00    -2000.00
00157             250.00    -2800.00
00158            -250.00    -2600.00
00159            -250.00    -2800.00
00160             250.00    -3600.00
00161             148.00    -2600.00
00162            -250.00    -3200.00
00163            -204.00    -3600.00
00164            -166.00    -3200.00
00165             250.00    -3800.00
00166              24.00    -4000.00
00167            -250.00    -3400.00
00168             220.00    -4200.00
00169             182.00    -4200.00
00170             -98.00    -4200.00
00171             -72.00    -4800.00
00172            -204.00    -4200.00
00173             150.00    -4800.00
00174             196.00    -5000.00
00175             -92.00    -4800.00
00176            -202.00    -5400.00
00177            -156.00    -4800.00
00178             234.00    -5400.00
00179             142.00    -5600.00
00180            -172.00    -5400.00
00181            -142.00    -6000.00
00182             -82.00    -5600.00
00183             174.00    -6000.00
00184              64.00    -6400.00
00185            -166.00    -6000.00
00186             -60.00    -6600.00
00187             -34.00    -6400.00
00188              54.00    -6600.00
00189              14.00    -6800.00
00190             -92.00    -6600.00
00191             -60.00    -7200.00
00192             -10.00    -7000.00
00193              34.00    -7200.00
00194             -52.00    -7400.00
00195             -68.00    -7200.00
00196             -12.00    -7600.00
00197             -22.00    -7400.00
00198             -22.00    -7800.00
00199             -34.00    -7800.00
00200             -28.00    -7800.00
00201             -46.00    -8000.00
00202             -54.00    -8000.00
00203             -18.00    -8200.00
00204             -12.00    -8200.00
00205             -36.00    -8200.00
00206             -46.00    -8400.00
00207             -42.00    -8600.00
00208             -48.00    -8600.00
00209             -44.00    -8800.00
00210             -18.00    -8800.00
00211             -26.00    -8800.00
00212             -52.00    -8800.00
00213             -54.00    -9000.00
00214             -44.00    -8800.00
00215             -38.00    -9000.00
00216             -36.00    -9200.00
00217             -34.00    -9200.00
00218             -42.00    -9200.00
00219             -62.00    -9200.00
00220             -52.00    -9200.00
00221             -36.00    -9600.00
00222             -44.00    -9400.00
00223             -48.00    -9600.00
00224             -46.00    -9600.00
00225             -46.00    -9600.00
00226             -52.00    -9800.00
00227             -48.00    -9800.00
00228             -50.00    -9800.00
00229             -58.00    -9800.00
00230             -54.00    -9800.00
00231             -44.00    -9800.00
00232             -46.00    -9800.00
00233             -60.00   -10000.00
00234             -62.00   -10000.00
00235             -60.00   -10000.00
00236             -60.00   -10000.00
00237             -52.00   -10000.00
00238             -46.00   -10000.00
00239             -56.00   -10000.00
00240             -70.00   -10000.00
00241             -70.00   -10000.00
00242             -58.00   -10200.00
00243             -54.00   -10200.00
00244             -52.00   -10000.00
00245             -58.00   -10200.00
00246             -70.00   -10000.00
00247             -70.00   -10200.00
00248             -66.00   -10200.00
00249             -58.00   -10000.00
00250             -60.00   -10000.00
00251             -66.00   -10000.00
00252             -62.00   -10200.00
00253             -68.00   -10000.00
00254             -68.00   -10000.00
00255             -68.00   -10000.00
00256             -60.00   -10000.00
00257             -60.00   -10000.00
00258             -60.00   -10000.00
00259             -66.00   -10000.00
00260             -68.00   -10000.00
00261             -68.00    -9800.00
00262             -66.00   -10000.00
00263             -68.00    -9800.00
00264             -76.00    -9800.00
00265             -86.00    -9800.00
00266             -74.00    -9600.00
00267             -54.00    -9600.00
00268             -44.00    -9800.00
00269             -52.00    -9600.00
00270             -60.00    -9600.00
00271             -54.00    -9600.00
00272             -46.00    -9600.00
00273             -44.00    -9400.00
00274             -54.00    -9200.00
00275             -58.00    -9400.00
00276             -46.00    -9200.00
00277             -36.00    -9200.00
00278             -42.00    -9200.00
00279             -50.00    -8800.00
00280             -52.00    -9000.00
00281             -44.00    -8800.00
00282             -38.00    -8800.00
00283             -38.00    -8800.00
00284             -38.00    -8800.00
00285             -38.00    -8600.00
00286             -42.00    -8400.00
00287             -38.00    -8400.00
00288             -42.00    -8400.00
00289             -38.00    -8200.00
00290             -36.00    -8200.00
00291             -28.00    -8000.00
00292             -30.00    -8000.00
00293             -38.00    -8000.00
00294             -38.00    -8000.00
00295             -30.00    -7600.00
00296             -30.00    -7800.00
00297             -28.00    -7400.00
00298             -34.00    -7400.00
00299             -34.00    -7400.00
00300             -30.00    -7200.00
00301             -30.00    -7000.00
00302             -30.00    -6800.00
00303             -26.00    -6800.00
00304             -22.00    -6600.00
00305             -22.00    -6600.00
00306             -30.00    -6600.00
00307             -32.00    -6400.00
00308             -28.00    -6400.00
00309             -22.00    -6200.00
00310             -24.00    -6000.00
00311             -22.00    -6000.00
00312             -26.00    -5800.00
00313             -28.00    -5600.00
00314             -24.00    -5600.00
00315             -22.00    -5600.00
00316             -20.00    -5400.00
00317             -20.00    -5200.00
00318             -22.00    -5000.00
00319             -20.00    -5000.00
00320             -22.00    -5000.00
00321             -22.00    -4600.00
00322             -22.00    -4600.00
00323             -20.00    -4400.00
00324             -14.00    -4400.00
00325             -12.00    -4200.00
00326             -16.00    -4000.00
00327             -26.00    -4000.00
00328             -28.00    -3800.00
00329             -20.00    -3600.00
00330              -6.00    -3600.00
00331              -8.00    -3400.00
00332             -14.00    -3200.00
00333             -26.00    -3000.00
00334             -22.00    -3000.00
00335             -10.00    -2800.00
00336              -6.00    -2800.00
00337             -12.00    -2600.00
00338             -16.00    -2400.00
00339             -10.00    -2400.00
00340             -10.00    -2000.00
00341             -12.00    -2000.00
00342             -14.00    -1800.00
00343             -12.00    -1600.00
00344              -6.00    -1600.00
00345              -2.00    -1400.00
00346              -6.00    -1400.00
00347             -18.00    -1000.00
00348             -14.00    -1000.00
00349              -6.00     -800.00
00350               4.00     -600.00
00351              -4.00     -400.00
00352             -10.00     -400.00
00353             -10.00     -200.00
00354              -4.00     -200.00
00355               4.00        0.00
00356              12.00      400.00
00357              34.00      400.00
00358              14.00      600.00
00359             -22.00      600.00
00360             -24.00      800.00
00361              12.00      800.00
00362              26.00     1000.00
00363              16.00     1200.00
00364              60.00     1400.00
00365             250.00     1600.00
00366             186.00     1800.00
00367            -250.00     2000.00
00368            -250.00     2000.00
00369              28.00     2000.00
00370             250.00     2200.00
00371             250.00     2400.00
00372             250.00     2800.00
00373            -250.00     2400.00
00374            -250.00     2800.00
00375             250.00     3200.00
00376             250.00     3000.00
00377            -250.00     3600.00
00378            -184.00     3200.00
00379             -54.00     3200.00
00380             194.00     3800.00
00381             202.00     3600.00
00382            -250.00     3800.00
00383            -100.00     4400.00
00384             250.00     4000.00
00385              82.00     4200.00
00386            -110.00     4400.00
00387            -124.00     4800.00
00388              30.00     4600.00
00389             196.00     4800.00
00390             106.00     5000.00
00391            -186.00     5200.00
00392            -182.00     5200.00
00393             180.00     5600.00
00394             222.00     5600.00
00395             -66.00     5600.00
00396            -156.00     5800.00
00397             -30.00     5800.00
00398             148.00     6000.00
00399             112.00     6000.00
00400             -58.00     6200.00
00401             -60.00     6400.00
00402              20.00     6400.00
00403              76.00     6600.00
00404              58.00     6800.00
00405             -12.00     6800.00
00406             -36.00     7000.00
00407              38.00     7000.00
00408              82.00     7200.00
00409               2.00     7200.00
00410             -22.00     7200.00
00411              44.00     7600.00
00412              56.00     7600.00
00413              12.00     7600.00
00414              10.00     7800.00
00415              42.00     8200.00
00416              30.00     8000.00
00417              14.00     8200.00
00418              28.00     8200.00
00419              44.00     8200.00
00420              34.00     8400.00
00421              34.00     8400.00
00422              34.00     8400.00
00423              14.00     8600.00
00424              18.00     8600.00
00425              56.00     8800.00
00426              58.00     8800.00
00427              22.00     8800.00
00428              20.00     8800.00
00429              42.00     9000.00
00430              42.00     9000.00
00431              34.00     9200.00
00432              50.00     9200.00
00433              50.00     9200.00
00434              28.00     9400.00
00435              34.00     9400.00
00436              46.00     9200.00
00437              46.00     9400.00
00438              38.00     9400.00
00439              50.00     9600.00
00440              52.00     9600.00
00441              42.00     9600.00
00442              44.00     9600.00
00443              52.00     9800.00
00444              42.00     9800.00
00445              38.00     9800.00
00446              58.00     9800.00
00447              68.00    10000.00
00448              44.00    10000.00
00449              26.00    10000.00
00450              42.00    10000.00
00451              68.00    10000.00
00452              68.00    10000.00
00453              52.00    10000.00
00454              36.00    10000.00
00455              42.00    10000.00
00456              70.00    10000.00
00457              74.00    10000.00
00458              44.00    10200.00
00459              26.00    10000.00
00460              52.00    10000.00
00461              78.00    10200.00
00462              66.00    10000.00
00463              50.00    10000.00
00464              46.00    10000.00
00465              54.00    10000.00
00466              62.00    10000.00
00467              68.00    10000.00
00468              68.00    10000.00
00469              46.00    10000.00
00470              38.00    10000.00
00471              58.00    10000.00
00472              74.00    10000.00
00473              70.00    10000.00
00474              58.00    10000.00
00475              54.00    10000.00
00476              46.00     9600.00
00477              52.00     9800.00
00478              76.00    10000.00
00479              94.00     9600.00
00480              76.00     9600.00
00481              38.00     9600.00
00482              26.00     9600.00
00483              44.00     9600.00
00484              62.00     9600.00
00485              66.00     9400.00
00486              40.00     9400.00
00487              28.00     9400.00
00488              38.00     9400.00
00489              58.00     9200.00
00490              46.00     9200.00
00491              30.00     9200.00
00492              28.00     9200.00
00493              46.00     8800.00
00494              48.00     8800.00
00495              36.00     8800.00
00496              30.00     8800.00
00497              34.00     8800.00
00498              36.00     8600.00
00499              42.00     8600.00
00500              36.00     8600.00
00501              28.00     8400.00
00502              28.00     8200.00
00503              30.00     8400.00
00504              34.00     8200.00
00505              26.00     8000.00
00506              26.00     8200.00
00507              30.00     7800.00
00508              32.00     7800.00
00509              26.00     7800.00
00510              22.00     7600.00
00511              26.00     7600.00
00512              26.00     7400.00
00513              26.00     7200.00
00514              28.00     7200.00
00515              26.00     7200.00
00516              18.00     6800.00
00517              18.00     7000.00
00518              20.00     6800.00
00519              22.00     6800.00
00520              26.00     6600.00
00521              20.00     6400.00
00522              18.00     6400.00
00523              14.00     6200.00
00524              18.00     6200.00
00525              18.00     6000.00
00526              20.00     6000.00
00527              20.00     5800.00
00528              14.00     5600.00
00529              12.00     5600.00
00530              12.00     5400.00
00531              20.00     5200.00
00532              18.00     5200.00
00533              16.00     5000.00
00534              10.00     5000.00
00535              10.00     4800.00
00536              12.00     4600.00
00537              14.00     4600.00
00538              12.00     4200.00
00539              12.00     4000.00
00540               6.00     4000.00
00541               6.00     4000.00
00542               8.00     3800.00
00543              12.00     3600.00
00544              12.00     3600.00
00545              10.00     3400.00
00546               8.00     3200.00
00547               6.00     3000.00
00548               8.00     3000.00
00549               6.00     3000.00
00550               6.00     2800.00
00551               4.00     2400.00
00552               6.00     2400.00
00553               6.00     2200.00
00554               6.00     2200.00
00555               4.00     2000.00
00556               2.00     2000.00
00557               4.00     1600.00
00558               2.00     1600.00
00559               4.00     1400.00
00560               4.00     1200.00
00561               0.00     1000.00
00562               0.00      800.00
00563               2.00      800.00
00564               2.00      400.00
00565               0.00      400.00
00566               4.00      400.00
00567               2.00        0.00
00568               2.00        0.00
00569               2.00        0.00
00570               4.00     -200.00
00571              20.00     -400.00
00572              36.00     -400.00
00573              -2.00     -600.00
00574             -30.00     -800.00
00575             -10.00     -800.00
00576              22.00    -1000.00
00577              26.00    -1200.00
00578             114.00    -1200.00
00579             250.00    -1600.00
00580              50.00    -2000.00
00581            -250.00    -2000.00
00582            -250.00    -2200.00
00583              36.00    -2400.00
00584             250.00    -1800.00
00585             250.00    -2000.00
00586            -152.00    -2800.00
00587            -250.00    -2400.00
00588             206.00    -3000.00
00589             250.00    -3200.00
00590            -162.00    -2400.00
00591            -250.00    -3400.00
00592            -246.00    -3600.00
00593              -6.00    -3200.00
00594             250.00    -4000.00
00595            -246.00    -3600.00
00596            -250.00    -3600.00
00597             250.00    -4200.00
00598              58.00    -4200.00
00599             -74.00    -4400.00
00600            -114.00    -4400.00
00601            -156.00    -4200.00
00602             230.00    -4800.00
00603             114.00    -4800.00
00604            -134.00    -5000.00
00605            -220.00    -5200.00
00606             -66.00    -5000.00
00607             250.00    -5600.00
00608              30.00    -5400.00
00609            -184.00    -5600.00
00610            -134.00    -6000.00
00611             -26.00    -5600.00
00612             204.00    -6200.00
00613             -22.00    -6200.00
00614            -150.00    -6000.00
00615             -44.00    -6600.00
00616             -18.00    -6400.00
00617              70.00    -6600.00
00618             -22.00    -6600.00
00619             -94.00    -6800.00
00620             -44.00    -7200.00
00621              10.00    -7200.00
00622              26.00    -7200.00
00623             -68.00    -7200.00
00624             -46.00    -7400.00
00625              -8.00    -7600.00
00626             -26.00    -7600.00
00627             -26.00    -7800.00
00628             -30.00    -7600.00
00629             -20.00    -8000.00
00630             -50.00    -8000.00
00631             -44.00    -8000.00
00632             -10.00    -8400.00
00633             -20.00    -8200.00
00634             -44.00    -8400.00
00635             -44.00    -8400.00
00636             -42.00    -8400.00
00637             -52.00    -8800.00
00638             -34.00    -8600.00
00639             -12.00    -8800.00
00640             -34.00    -8800.00
00641             -58.00    -9000.00
00642             -54.00    -9000.00
00643             -40.00    -9200.00
00644             -38.00    -9000.00
00645             -38.00    -9200.00
00646             -38.00    -9200.00
00647             -52.00    -9400.00
00648             -62.00    -9200.00
00649             -50.00    -9600.00
00650             -36.00    -9600.00
00651             -46.00    -9600.00
00652             -46.00    -9600.00
00653             -46.00    -9600.00
00654             -50.00    -9800.00
00655             -58.00    -9600.00
00656             -52.00    -9800.00
00657             -54.00   -10000.00
00658             -58.00    -9800.00
00659             -52.00    -9800.00
00660             -46.00    -9800.00
00661             -50.00   -10000.00
00662             -62.00    -9800.00
00663             -62.00   -10000.00
00664             -58.00   -10000.00
00665             -60.00   -10000.00
00666             -54.00   -10000.00
00667             -50.00   -10000.00
00668             -60.00   -10000.00
00669             -74.00   -10000.00
00670             -66.00   -10200.00
00671             -58.00   -10000.00
00672             -54.00   -10000.00
00673             -52.00   -10400.00
00674             -60.00   -10000.00
00675             -70.00   -10200.00
00676             -70.00   -10200.00
00677             -62.00   -10400.00
00678             -54.00   -10000.00
00679             -60.00   -10000.00
00680             -60.00   -10000.00
00681             -68.00   -10000.00
00682             -70.00   -10000.00
00683             -66.00   -10000.00
00684             -60.00   -10000.00
00685             -58.00   -10000.00
00686             -62.00   -10000.00
00687             -64.00   -10000.00
00688             -60.00   -10000.00
00689             -62.00   -10000.00
00690             -66.00    -9800.00
00691             -62.00    -9600.00
00692             -70.00   -10000.00
00693             -80.00    -9800.00
00694             -84.00    -9800.00
00695             -64.00    -9600.00
00696             -50.00    -9800.00
00697             -48.00    -9600.00
00698             -56.00    -9600.00
00699             -54.00    -9600.00
00700             -50.00    -9600.00
00701             -44.00    -9600.00
00702             -50.00    -9400.00
00703             -54.00    -9200.00
00704             -58.00    -9200.00
00705             -44.00    -9200.00
00706             -38.00    -9200.00
00707             -44.00    -9000.00
00708             -52.00    -9000.00
00709             -50.00    -8800.00
00710             -44.00    -9000.00
00711             -42.00    -8800.00
00712             -38.00    -8800.00
00713             -38.00    -8600.00
00714             -44.00    -8600.00
00715             -42.00    -8400.00
00716             -40.00    -8400.00
00717             -42.00    -8400.00
00718             -38.00    -8200.00
00719             -34.00    -8200.00
00720             -32.00    -8000.00
00721             -36.00    -8000.00
00722             -42.00    -8000.00
00723             -36.00    -7800.00
00724             -34.00    -8000.00
00725             -32.00    -7600.00
00726             -30.00    -7600.00
00727             -34.00    -7400.00
00728             -36.00    -7200.00
00729             -36.00    -7200.00
00730             -30.00    -7200.00
00731             -28.00    -6800.00
00732             -26.00    -6800.00
00733             -26.00    -6800.00
00734             -28.00    -6600.00
00735             -34.00    -6400.00
00736             -30.00    -6400.00
00737             -26.00    -6400.00
00738             -26.00    -6000.00
00739             -22.00    -6000.00
00740             -22.00    -6000.00
00741             -26.00    -5800.00
00742             -26.00    -5800.00
00743             -22.00    -5600.00
00744             -20.00    -5400.00
00745             -20.00    -5400.00
00746             -18.00    -5000.00
00747             -20.00    -5000.00
00748             -20.00    -5000.00
00749             -22.00    -4800.00
00750             -20.00    -4600.00
00751             -20.00    -4400.00
00752             -14.00    -4400.00
00753             -14.00    -4200.00
00754             -18.00    -4200.00
00755             -18.00    -4000.00
00756             -20.00    -3800.00
00757             -18.00    -3600.00
00758             -14.00    -3600.00
00759             -12.00    -3600.00
00760             -12.00    -3400.00
00761             -16.00    -3200.00
00762             -14.00    -3200.00
00763             -14.00    -2800.00
00764             -12.00    -2800.00
00765             -10.00    -2800.00
00766             -12.00    -2600.00
00767             -12.00    -2400.00
00768             -14.00    -2400.00
00769             -14.00    -2000.00
00770             -12.00    -2000.00
00771             -10.00    -1800.00
00772              -6.00    -1600.00
00773              -6.00    -1600.00
00774             -10.00    -1400.00
00775             -10.00    -1200.00
00776             -12.00    -1000.00
00777             -10.00     -800.00
00778             -10.00     -800.00
00779              -6.00     -600.00
00780              -4.00     -400.00
00781              -6.00     -400.00
00782              -6.00     -200.00
00783              -4.00        0.00
00784              -2.00        0.00
00785              18.00        0.00
00786              36.00      400.00
00787               4.00      400.00
00788             -30.00      600.00
00789             -22.00      800.00
00790              18.00      800.00
00791              26.00     1000.00
00792              14.00     1400.00
00793             106.00     1400.00
00794             250.00     1600.00
00795              44.00     1800.00
00796            -250.00     2000.00
00797            -250.00     2200.00
00798             180.00     2000.00
00799             250.00     2400.00
00800             250.00     2400.00
00801             218.00     2800.00
00802            -250.00     2400.00
00803            -250.00     2800.00
00804             250.00     3000.00
00805             212.00     3200.00
00806            -250.00     3600.00
00807            -134.00     3200.00
00808             -14.00     3400.00
00809             250.00     3800.00
00810              82.00     3800.00
00811            -250.00     4000.00
00812              30.00     4200.00
00813             250.00     4000.00
00814               4.00     4400.00
00815            -120.00     4600.00
00816             -98.00     4800.00
00817              84.00     4800.00
00818             204.00     4800.00
00819              38.00     5000.00
00820            -230.00     5200.00
00821            -100.00     5200.00
00822             244.00     5400.00
00823             156.00     5600.00
00824            -116.00     5800.00
00825            -134.00     5800.00
00826              22.00     6000.00
00827             170.00     6200.00
00828              66.00     6000.00
00829             -78.00     6400.00
00830             -42.00     6400.00
00831              36.00     6600.00
00832              76.00     6600.00
00833              42.00     6800.00
00834             -28.00     6800.00
00835             -24.00     6800.00
00836              60.00     7200.00
00837              68.00     7200.00
00838             -18.00     7200.00
00839              -6.00     7400.00
00840              52.00     7600.00
00841              42.00     7600.00
00842               4.00     7800.00
00843              22.00     7800.00
00844              42.00     8000.00
00845              22.00     8200.00
00846              10.00     8000.00
00847              30.00     8200.00
00848              42.00     8200.00
00849              34.00     8400.00
00850              34.00     8400.00
00851              26.00     8400.00
00852               8.00     8600.00
00853              26.00     8600.00
00854              60.00     8800.00
00855              46.00     8800.00
00856              14.00     8800.00
00857              24.00     9000.00
00858              42.00     9000.00
00859              36.00     9200.00
00860              42.00     9200.00
00861              52.00     9200.00
00862              42.00     9200.00
00863              22.00     9400.00
00864              36.00     9400.00
00865              52.00     9400.00
00866              42.00     9400.00
00867              38.00     9600.00
00868              50.00     9600.00
00869              50.00     9600.00
00870              42.00     9600.00
00871              44.00     9800.00
00872              46.00     9800.00
00873              42.00     9800.00
00874              50.00    10000.00
00875              64.00    10000.00
00876              54.00    10000.00
00877              36.00    10000.00
00878              42.00    10000.00
00879              58.00    10000.00
00880              58.00    10000.00
00881              54.00    10000.00
00882              56.00    10200.00
00883              52.00    10200.00
00884              50.00    10000.00
00885              54.00    10000.00
00886              58.00    10200.00
00887              52.00    10000.00
00888              54.00    10000.00
00889              62.00    10200.00
00890              54.00    10200.00
00891              52.00    10400.00
00892              56.00    10000.00
00893              62.00    10200.00
00894              60.00    10200.00
00895              56.00    10000.00
00896              58.00    10200.00
00897              58.00    10200.00
00898              54.00    10200.00
00899              54.00    10000.00
00900              58.00    10000.00
00901              54.00    10000.00
00902              56.00    10000.00
00903              56.00    10000.00
00904              54.00    10000.00
00905              52.00    10000.00
00906              70.00     9800.00
00907              84.00     9800.00
00908              84.00     9600.00
00909              66.00     9600.00
00910              42.00     9600.00
00911              20.00     9600.00
00912              38.00     9600.00
00913              50.00     9600.00
00914              52.00     9400.00
00915              44.00     9200.00
00916              44.00     9400.00
00917              58.00     9200.00
00918              52.00     9200.00
00919              36.00     9200.00
00920              34.00     9200.00
00921              30.00     9200.00
00922              34.00     9200.00
00923              34.00     8800.00
00924              32.00     9000.00
00925              34.00     8800.00
00926              42.00     8600.00
00927              50.00     8600.00
00928              42.00     8600.00
00929              34.00     8400.00
00930              28.00     8400.00
00931              28.00     8400.00
00932              26.00     8400.00
00933              26.00     8200.00
00934              28.00     8000.00
00935              34.00     8000.00
00936              28.00     8000.00
00937              30.00     7800.00
00938              34.00     7800.00
00939              30.00     7600.00
00940              26.00     7600.00
00941              28.00     7400.00
00942              26.00     7200.00
00943              22.00     7200.00
00944              16.00     7000.00
00945              14.00     7000.00
00946              24.00     6800.00
00947              28.00     6800.00
00948              34.00     6600.00
00949              26.00     6400.00
00950              20.00     6400.00
00951              20.00     6200.00
00952              20.00     6200.00
00953              14.00     6000.00
00954              18.00     6000.00
00955              14.00     6000.00
00956              20.00     5600.00
00957              20.00     5600.00
00958              20.00     5600.00
00959              14.00     5400.00
00960              14.00     5200.00
00961              20.00     5000.00
00962              22.00     5000.00
00963              10.00     4800.00
00964               2.00     4800.00
00965               6.00     4600.00
00966              20.00     4400.00
00967              18.00     4200.00
00968              12.00     4000.00
00969               6.00     4000.00
00970               4.00     3800.00
00971              10.00     3800.00
00972              12.00     3600.00
00973              10.00     3600.00
00974               4.00     3200.00
00975               6.00     3200.00
00976              12.00     3200.00
00977              10.00     3000.00
00978              -2.00     2800.00
00979               2.00     2800.00
00980               6.00     2400.00
00981               6.00     2200.00
00982               4.00     2200.00
00983               4.00     2200.00
00984               0.00     2000.00
00985               2.00     2000.00
00986               4.00     1600.00
00987               6.00     1400.00
00988               4.00     1400.00
00989               2.00     1200.00
00990               2.00     1000.00
00991               0.00      800.00
00992              -4.00      800.00
00993               2.00      600.00
00994               4.00      400.00
00995               2.00      400.00
00996              -2.00      200.00
00997              -2.00        0.00
00998               4.00        0.00
00999               8.00     -200.00
01000              34.00     -400.00
01001              26.00     -400.00
01002             -14.00     -600.00
01003             -32.00     -800.00
01004               4.00     -800.00
01005              30.00    -1000.00
01006              28.00    -1200.00
01007             180.00    -1200.00
01008             250.00    -1600.00
01009            -154.00    -2000.00
01010            -250.00    -2000.00
01011            -250.00    -2400.00
01012             148.00    -2000.00
01013             250.00    -1800.00
01014             250.00    -2400.00
01015            -250.00    -2800.00
01016            -250.00    -2400.00
01017             250.00    -3200.00
01018             250.00    -2800.00
01019            -250.00    -2600.00
01020            -222.00    -3600.00
01021            -250.00    -3400.00
01022             186.00    -3400.00
01023             250.00    -4200.00
01024            -250.00    -3600.00
01025            -154.00    -4000.00
01026             250.00    -4400.00
01027             -44.00    -4000.00
01028             -52.00    -4400.00
01029            -172.00    -4400.00
01030             -62.00    -4400.00
01031             250.00    -5200.00
01032              26.00    -4600.00
01033            -162.00    -5200.00
01034            -224.00    -5200.00
01035              50.00    -5000.00
01036             250.00    -5800.00
01037             -70.00    -5400.00
01038            -178.00    -5800.00
01039            -130.00    -6000.00
01040              52.00    -5600.00
01041             188.00    -6400.00
01042            -102.00    -6000.00
01043            -126.00    -6400.00
01044             -36.00    -6600.00
01045               4.00    -6400.00
01046              68.00    -6800.00
01047             -58.00    -6600.00
01048             -90.00    -6800.00
01049             -36.00    -7200.00
01050              24.00    -7000.00
01051               4.00    -7400.00
01052             -84.00    -7200.00
01053             -36.00    -7600.00
01054             -14.00    -7400.00
01055             -20.00    -7400.00
01056             -26.00    -8000.00
01057             -30.00    -8000.00
01058             -30.00    -8000.00
01059             -60.00    -8000.00
01060             -32.00    -8000.00
01061             -10.00    -8200.00
01062             -26.00    -8200.00
01063             -44.00    -8400.00
01064             -38.00    -8400.00
01065             -42.00    -8400.00
01066             -52.00    -8800.00
01067             -28.00    -8800.00
01068             -18.00    -8800.00
01069             -40.00    -8800.00
01070             -58.00    -9000.00
01071             -46.00    -9000.00
01072             -42.00    -9000.00
01073             -38.00    -9200.00
01074             -34.00    -9200.00
01075             -36.00    -9200.00
01076             -52.00    -9200.00
01077             -62.00    -9200.00
01078             -44.00    -9400.00
01079             -38.00    -9400.00
01080             -46.00    -9600.00
01081             -50.00    -9400.00
01082             -50.00    -9600.00
01083             -52.00    -9600.00
01084             -46.00    -9600.00
01085             -44.00    -9600.00
01086             -54.00    -9800.00
01087             -58.00    -9800.00
01088             -52.00    -9800.00
01089             -46.00    -9800.00
01090             -54.00    -9800.00
01091             -60.00   -10000.00
01092             -58.00    -9800.00
01093             -62.00   -10000.00
01094             -60.00   -10000.00
01095             -52.00   -10000.00
01096             -52.00   -10000.00
01097             -60.00   -10000.00
01098             -70.00   -10000.00
01099             -66.00   -10000.00
01100             -60.00   -10000.00
01101             -54.00   -10200.00
01102             -46.00   -10000.00
01103             -58.00   -10400.00
01104             -76.00   -10000.00
01105             -76.00   -10000.00
01106             -60.00   -10200.00
01107             -54.00   -10000.00
01108             -60.00   -10000.00
01109             -62.00   -10200.00
01110             -68.00   -10000.00
01111             -74.00   -10000.00
01112             -68.00   -10000.00
01113             -58.00   -10000.00
01114             -58.00   -10000.00
01115             -66.00   -10000.00
01116             -62.00   -10000.00
01117             -64.00   -10000.00
01118             -62.00    -9800.00
01119             -64.00   -10000.00
01120             -62.00   -10000.00
01121             -72.00    -9800.00
01122             -82.00    -9800.00
01123             -78.00    -9800.00
01124             -60.00    -9800.00
01125             -46.00    -9800.00
01126             -52.00    -9600.00
01127             -60.00    -9600.00
01128             -60.00    -9600.00
01129             -46.00    -9400.00
01130             -40.00    -9600.00
01131             -46.00    -9200.00
01132             -60.00    -9200.00
01133             -52.00    -9200.00
01134             -42.00    -9200.00
01135             -38.00    -9200.00
01136             -44.00    -9200.00
01137             -50.00    -9000.00
01138             -50.00    -9000.00
01139             -44.00    -8800.00
01140             -38.00    -8800.00
01141             -40.00    -8800.00
01142             -38.00    -8600.00
01143             -42.00    -8400.00
01144             -42.00    -8400.00
01145             -42.00    -8400.00
01146             -38.00    -8400.00
01147             -36.00    -8200.00
01148             -30.00    -8200.00
01149             -34.00    -8000.00
01150             -36.00    -8000.00
01151             -38.00    -8000.00
01152             -34.00    -7800.00
01153             -30.00    -7600.00
01154             -30.00    -7600.00
01155             -34.00    -7400.00
01156             -36.00    -7400.00
01157             -34.00    -7200.00
01158             -28.00    -7200.00
01159             -30.00    -7200.00
01160             -32.00    -6800.00
01161             -28.00    -6800.00
01162             -22.00    -6800.00
01163             -26.00    -6600.00
01164             -30.00    -6600.00
01165             -32.00    -6400.00
01166             -28.00    -6400.00
01167             -26.00    -6200.00
01168             -20.00    -6000.00
01169             -22.00    -6000.00
01170             -28.00    -6000.00
01171             -30.00    -5600.00
01172             -26.00    -5600.00
01173             -20.00    -5400.00
01174             -20.00    -5400.00
01175             -22.00    -5200.00
01176             -22.00    -5200.00
01177             -22.00    -5000.00
01178             -22.00    -4600.00
01179             -20.00    -4800.00
01180             -18.00    -4600.00
01181             -16.00    -4200.00
01182             -18.00    -4200.00
01183             -18.00    -4000.00
01184             -22.00    -4000.00
01185             -20.00    -3800.00
01186             -14.00    -3600.00
01187             -12.00    -3600.00
01188             -14.00    -3400.00
01189             -14.00    -3200.00
01190             -18.00    -3200.00
01191             -18.00    -3000.00
01192             -14.00    -2800.00
01193             -12.00    -2800.00
01194             -10.00    -2400.00
01195             -10.00    -2400.00
01196             -12.00    -2200.00
01197             -12.00    -2200.00
01198             -12.00    -2000.00
01199             -12.00    -2000.00
01200              -8.00    -1800.00
01201              -6.00    -1600.00
01202              -6.00    -1600.00
01203             -10.00    -1200.00
01204             -12.00    -1200.00
01205             -12.00    -1000.00
01206              -8.00     -800.00
01207              -4.00     -600.00
01208              -4.00     -400.00
01209              -6.00     -400.00
01210              -6.00     -200.00
01211              -6.00     -200.00
01212              -2.00        0.00
01213               2.00        0.00
01214              26.00      400.00
01215              34.00      400.00
01216             -10.00      600.00
01217             -36.00      600.00
01218             -10.00      800.00
01219              26.00     1000.00
01220              22.00     1000.00
01221              20.00     1200.00
01222             162.00     1600.00
01223             250.00     1800.00
01224            -124.00     1800.00
01225            -250.00     2000.00
01226            -250.00     2000.00
01227             250.00     2200.00
01228             250.00     2400.00
01229             250.00     2600.00
01230              12.00     2800.00
01231            -250.00     2600.00
01232              26.00     3000.00
01233             250.00     3000.00
01234             -20.00     3200.00
01235            -250.00     3400.00
01236            -102.00     3000.00
01237              44.00     3600.00
01238             250.00     3800.00
01239             -70.00     3600.00
01240            -250.00     4000.00
01241             144.00     4400.00
01242             218.00     4000.00
01243             -50.00     4400.00
01244            -132.00     4600.00
01245             -62.00     4800.00
01246             134.00     4800.00
01247             188.00     4800.00
01248             -44.00     5200.00
01249            -248.00     5200.00
01250              -4.00     5400.00
01251             250.00     5600.00
01252              76.00     5600.00
01253            -148.00     5800.00
01254            -106.00     5800.00
01255              74.00     6000.00
01256             164.00     6200.00
01257              14.00     6200.00
01258             -82.00     6400.00
01259             -14.00     6400.00
01260              54.00     6600.00
01261              74.00     6800.00
01262              26.00     6800.00
01263             -38.00     6800.00
01264              -4.00     7000.00
01265              76.00     7200.00
01266              50.00     7200.00
01267             -26.00     7200.00
01268              10.00     7600.00
01269              60.00     7600.00
01270              28.00     7800.00
01271               4.00     7800.00
01272              34.00     8000.00
01273              44.00     8000.00
01274              14.00     8000.00
01275              14.00     8200.00
01276              38.00     8400.00
01277              42.00     8200.00
01278              30.00     8400.00
01279              36.00     8400.00
01280              24.00     8600.00
01281              10.00     8600.00
01282              36.00     8600.00
01283              66.00     8800.00
01284              42.00     8800.00
01285              14.00     8800.00
01286              30.00     8800.00
01287              44.00     9200.00
01288              34.00     9200.00
01289              42.00     9200.00
01290              52.00     9200.00
01291              34.00     9200.00
01292              22.00     9400.00
01293              42.00     9400.00
01294              52.00     9600.00
01295              38.00     9600.00
01296              40.00     9600.00
01297              50.00     9600.00
01298              44.00     9600.00
01299              42.00     9600.00
01300              50.00     9800.00
01301              50.00     9600.00
01302              38.00     9600.00
01303              46.00     9800.00
01304              62.00    10000.00
01305              52.00    10000.00
01306              38.00     9800.00
01307              44.00    10000.00
01308              58.00    10000.00
01309              52.00    10000.00
01310              52.00    10000.00
01311              58.00    10000.00
01312              52.00    10000.00
01313              52.00    10200.00
01314              54.00    10000.00
01315              52.00    10200.00
01316              52.00    10200.00
01317              62.00    10200.00
01318              70.00    10200.00
01319              46.00    10000.00
01320              40.00    10200.00
01321              58.00    10000.00
01322              74.00    10200.00
01323              60.00    10000.00
01324              54.00    10200.00
01325              56.00    10000.00
01326              58.00    10200.00
01327              58.00    10000.00
01328              62.00    10000.00
01329              64.00    10000.00
01330              52.00    10000.00
01331              48.00    10000.00
01332              68.00    10000.00
01333              70.00    10000.00
01334              50.00    10000.00
01335              52.00     9600.00
01336              76.00     9800.00
01337              90.00     9600.00
01338              66.00     9800.00
01339              42.00     9600.00
01340              32.00     9600.00
01341              40.00     9600.00
01342              60.00     9400.00
01343              68.00     9400.00
01344              42.00     9400.00
01345              28.00     9400.00
01346              36.00     9400.00
01347              52.00     9400.00
01348              46.00     9200.00
01349              42.00     9200.00
01350              46.00     9200.00
01351              42.00     9000.00
01352              34.00     9200.00
01353              34.00     9000.00
01354              36.00     8800.00
01355              36.00     8800.00
01356              36.00     8600.00
01357              36.00     8400.00
01358              36.00     8400.00
01359              28.00     8400.00
01360              26.00     8200.00
01361              30.00     8400.00
01362              30.00     8000.00
01363              32.00     8200.00
01364              34.00     8000.00
01365              34.00     8000.00
01366              20.00     7800.00
01367              14.00     7800.00
01368              24.00     7600.00
01369              36.00     7600.00
01370              34.00     7600.00
01371              26.00     7200.00
01372              14.00     7200.00
01373              14.00     7000.00
01374              22.00     7000.00
01375              26.00     6800.00
01376              30.00     6600.00
01377              26.00     6600.00
01378              14.00     6400.00
01379              12.00     6400.00
01380              18.00     6200.00
01381              26.00     6200.00
01382              20.00     6200.00
01383              14.00     6000.00
01384              18.00     6000.00
01385              18.00     6000.00
01386              14.00     5600.00
01387              14.00     5400.00
01388              14.00     5400.00
01389              20.00     5200.00
01390              16.00     5200.00
01391              12.00     5000.00
01392              10.00     4800.00
01393              14.00     4600.00
01394              14.00     4400.00
01395              12.00     4400.00
01396              12.00     4200.00
01397              14.00     4200.00
01398              12.00     4000.00
01399               6.00     4000.00
01400               8.00     3600.00
01401              10.00     3600.00
01402              12.00     3600.00
01403              12.00     3200.00
01404               8.00     3200.00
01405               6.00     3000.00
01406               6.00     2800.00
01407               4.00     2800.00
01408               6.00     2600.00
01409               8.00     2400.00
01410               6.00     2400.00
01411               4.00     2200.00
01412               4.00     2200.00
01413               4.00     2000.00
01414               2.00     1800.00
01415               4.00     1600.00
01416               4.00     1400.00
01417               4.00     1400.00
01418               2.00     1200.00
01419               0.00      800.00
01420              -2.00      800.00
01421               2.00      800.00
01422               2.00      600.00
01423              -2.00      400.00
01424              -2.00      400.00
01425              -2.00      200.00
01426              -2.00        0.00
01427               2.00        0.00
01428              10.00     -400.00
01429              36.00     -400.00
01430              16.00     -600.00
01431             -20.00     -600.00
01432             -28.00     -800.00
01433              10.00    -1000.00
01434              26.00    -1000.00
01435              42.00    -1200.00
01436             250.00    -1400.00
01437             250.00    -1800.00
01438            -250.00    -2000.00
01439            -250.00    -2200.00
01440            -244.00    -2400.00
01441             250.00    -2000.00
01442             250.00    -2000.00
01443             250.00    -2600.00
01444            -250.00    -2800.00
01445            -250.00    -2600.00
01446             250.00    -3400.00
01447             250.00    -2600.00
01448            -250.00    -2600.00
01449            -194.00    -3800.00
01450            -244.00    -3200.00
01451             250.00    -3600.00
01452             242.00    -4000.00
01453            -250.00    -3400.00
01454              66.00    -4200.00
01455             250.00    -4200.00
01456             -92.00    -4000.00
01457             -46.00    -4600.00
01458            -204.00    -4200.00
01459              56.00    -4400.00
01460             242.00    -5000.00
01461             -46.00    -4600.00
01462            -182.00    -5200.00
01463            -200.00    -5000.00
01464             164.00    -5200.00
01465             222.00    -5600.00
01466            -142.00    -5200.00
01467            -156.00    -5800.00
01468            -106.00    -5800.00
01469             130.00    -5800.00
01470             134.00    -6200.00
01471            -150.00    -6000.00
01472             -88.00    -6400.00
01473             -34.00    -6400.00
01474              34.00    -6400.00
01475              50.00    -6800.00
01476             -84.00    -6600.00
01477             -74.00    -7200.00
01478             -20.00    -6800.00
01479              38.00    -7000.00
01480             -22.00    -7400.00
01481             -78.00    -7400.00
01482             -20.00    -7600.00
01483             -14.00    -7400.00
01484             -22.00    -7600.00
01485             -28.00    -7600.00
01486             -28.00    -7800.00
01487             -40.00    -8200.00
01488             -58.00    -8000.00
01489             -20.00    -8200.00
01490             -12.00    -8200.00
01491             -34.00    -8400.00
01492             -46.00    -8400.00
01493             -36.00    -8400.00
01494             -46.00    -8400.00
01495             -50.00    -8600.00
01496             -24.00    -8800.00
01497             -20.00    -8800.00
01498             -44.00    -8800.00
01499             -54.00    -9000.00
01500             -50.00    -9000.00
01501             -42.00    -9000.00
01502             -38.00    -9200.00
01503             -30.00    -9200.00
01504             -34.00    -9200.00
01505             -66.00    -9200.00
01506             -66.00    -9400.00
01507             -44.00    -9400.00
01508             -34.00    -9600.00
01509             -44.00    -9600.00
01510             -52.00    -9600.00
01511             -52.00    -9600.00
01512             -54.00    -9800.00
01513             -46.00    -9600.00
01514             -46.00    -9800.00
01515             -60.00    -9800.00
01516             -60.00    -9800.00
01517             -44.00    -9800.00
01518             -42.00   -10000.00
01519             -60.00   -10000.00
01520             -68.00   -10000.00
01521             -58.00   -10000.00
01522             -56.00   -10000.00
01523             -60.00   -10000.00
01524             -52.00   -10000.00
01525             -48.00   -10000.00
01526             -62.00   -10000.00
01527             -68.00   -10000.00
01528             -62.00   -10000.00
01529             -60.00   -10000.00
01530             -60.00   -10000.00
01531             -52.00   -10000.00
01532             -54.00   -10000.00
01533             -68.00   -10000.00
01534             -76.00   -10000.00
01535             -66.00   -10000.00
01536             -54.00   -10000.00
01537             -54.00   -10000.00
01538             -62.00   -10000.00
01539             -72.00   -10000.00
01540             -70.00   -10000.00
01541             -62.00   -10000.00
01542             -58.00   -10000.00
01543             -58.00    -9800.00
01544             -66.00   -10000.00
01545             -66.00   -10000.00
01546             -66.00    -9800.00
01547             -62.00   -10000.00
01548             -66.00    -9800.00
01549             -66.00    -9800.00
01550             -76.00    -9800.00
01551             -86.00    -9800.00
01552             -78.00    -9600.00
01553             -54.00    -9800.00
01554             -44.00    -9600.00
01555             -56.00    -9600.00
01556             -60.00    -9600.00
01557             -54.00    -9600.00
01558             -44.00    -9400.00
01559             -46.00    -9600.00
01560             -54.00    -9200.00
01561             -60.00    -9200.00
01562             -50.00    -9200.00
01563             -38.00    -9200.00
01564             -36.00    -9000.00
01565             -52.00    -9000.00
01566             -52.00    -9000.00
01567             -48.00    -9000.00
01568             -44.00    -8800.00
01569             -36.00    -8800.00
01570             -38.00    -8800.00
01571             -42.00    -8600.00
01572             -46.00    -8600.00
01573             -42.00    -8400.00
01574             -38.00    -8400.00
01575             -38.00    -8200.00
01576             -38.00    -8200.00
01577             -34.00    -8000.00
01578             -34.00    -8200.00
01579             -38.00    -8000.00
01580             -42.00    -8000.00
01581             -34.00    -7600.00
01582             -32.00    -7600.00
01583             -34.00    -7600.00
01584             -34.00    -7400.00
01585             -32.00    -7200.00
01586             -30.00    -7200.00
01587             -32.00    -7200.00
01588             -34.00    -6800.00
01589             -26.00    -6800.00
01590             -22.00    -6600.00
01591             -22.00    -6600.00
01592             -28.00    -6800.00
01593             -30.00    -6400.00
01594             -30.00    -6400.00
01595             -26.00    -6400.00
01596             -22.00    -6000.00
01597             -20.00    -6000.00
01598             -24.00    -5800.00
01599             -28.00    -5600.00
01600             -26.00    -5800.00
01601             -22.00    -5600.00
01602             -22.00    -5600.00
01603             -20.00    -5200.00
01604             -20.00    -5000.00
01605             -20.00    -5000.00
01606             -22.00    -5000.00
01607             -26.00    -4600.00
01608             -20.00    -4600.00
01609             -14.00    -4400.00
01610             -14.00    -4200.00
01611             -14.00    -4000.00
01612             -20.00    -4000.00
01613             -20.00    -4000.00
01614             -20.00    -3800.00
01615             -12.00    -3600.00
01616             -12.00    -3600.00
01617             -12.00    -3400.00
01618             -16.00    -3200.00
01619             -16.00    -3200.00
01620             -14.00    -3200.00
01621             -14.00    -2800.00
01622             -14.00    -2600.00
01623             -12.00    -2600.00
01624             -10.00    -2200.00
01625             -12.00    -2400.00
01626             -12.00    -2000.00
01627             -14.00    -2000.00
01628             -12.00    -1800.00
01629             -10.00    -1600.00
01630              -8.00    -1600.00
01631             -10.00    -1600.00
01632             -10.00    -1200.00
01633             -10.00    -1000.00
01634             -10.00    -1000.00
01635             -10.00     -800.00
01636              -6.00     -600.00
01637              -6.00     -400.00
01638              -4.00     -400.00
01639              -4.00     -200.00
01640              -6.00        0.00
01641              -2.00        0.00
01642               4.00        0.00
01643              30.00      400.00
01644              26.00      600.00
01645             -18.00      400.00
01646             -30.00      800.00
01647              -2.00      800.00
01648              30.00     1200.00
01649              18.00     1000.00
01650              34.00     1400.00
01651             228.00     1800.00
01652             250.00     2000.00
01653            -250.00     2000.00
01654            -250.00     2000.00
01655            -124.00     2000.00
01656             250.00     2200.00
01657             250.00     2400.00
01658             250.00     2600.00
01659            -238.00     2600.00
01660            -250.00     2800.00
01661             250.00     3000.00
01662             250.00     3000.00
01663            -198.00     3600.00
01664            -238.00     3200.00
01665             -76.00     3000.00
01666             122.00     3800.00
01667             250.00     3800.00
01668            -212.00     3800.00
01669            -206.00     4000.00
01670             228.00     4200.00
01671             150.00     4400.00
01672             -88.00     4400.00
01673            -130.00     4400.00
01674             -14.00     4800.00
01675             178.00     4800.00
01676             160.00     4800.00
01677            -126.00     5200.00
01678            -230.00     5200.00
01679             100.00     5400.00
01680             250.00     5600.00
01681              -2.00     5600.00
01682            -158.00     5800.00
01683             -66.00     5800.00
01684             118.00     6000.00
01685             140.00     6200.00
01686             -26.00     6200.00
01687             -70.00     6600.00
01688               2.00     6400.00
01689              66.00     6400.00
01690              68.00     6800.00
01691               4.00     7000.00
01692             -44.00     7000.00
01693              20.00     7000.00
01694              86.00     7200.00
01695              20.00     7200.00
01696             -28.00     7200.00
01697              30.00     7600.00
01698              58.00     7600.00
01699              18.00     7600.00
01700               8.00     7800.00
01701              40.00     7800.00
01702              34.00     8200.00
01703              10.00     8200.00
01704              22.00     8000.00
01705              42.00     8200.00
01706              36.00     8400.00
01707              32.00     8400.00
01708              36.00     8400.00
01709              18.00     8600.00
01710               4.00     8600.00
01711              46.00     8600.00
01712              68.00     8800.00
01713              34.00     8800.00
01714              10.00     8800.00
01715              26.00     9000.00
01716              36.00     9200.00
01717              42.00     9200.00
01718              58.00     9200.00
01719              58.00     9400.00
01720              24.00     9200.00
01721              12.00     9400.00
01722              46.00     9400.00
01723              60.00     9400.00
01724              50.00     9400.00
01725              38.00     9600.00
01726              42.00     9600.00
01727              42.00     9600.00
01728              52.00     9600.00
01729              58.00    10000.00
01730              46.00     9800.00
01731              34.00     9800.00
01732              44.00    10000.00
01733              66.00    10000.00
01734              60.00    10000.00
01735              44.00    10000.00
01736              42.00    10000.00
01737              50.00    10000.00
01738              52.00    10000.00
01739              66.00    10200.00
01740              66.00    10000.00
01741              50.00    10200.00
01742              38.00    10000.00
01743              52.00    10000.00
01744              60.00    10000.00
01745              60.00    10000.00
01746              62.00    10200.00
01747              54.00    10000.00
01748              44.00    10200.00
01749              50.00    10000.00
01750              66.00    10000.00
01751              66.00    10000.00
01752              58.00    10000.00
01753              52.00    10000.00
01754              54.00    10000.00
01755              58.00    10000.00
01756              58.00    10000.00
01757              62.00    10000.00
01758              54.00    10200.00
01759              52.00    10000.00
01760              54.00    10000.00
01761              60.00    10000.00
01762              58.00    10000.00
01763              62.00     9800.00
01764              62.00     9800.00
01765              76.00     9800.00
01766              76.00     9600.00
01767              58.00     9800.00
01768              36.00     9600.00
01769              36.00     9600.00
01770              46.00     9400.00
01771              58.00     9400.00
01772              50.00     9600.00
01773              36.00     9200.00
01774              38.00     9400.00
01775              44.00     9200.00
01776              42.00     9400.00
01777              38.00     9200.00
01778              42.00     9200.00
01779              44.00     9200.00
01780              38.00     8800.00
01781              34.00     8800.00
01782              30.00     8800.00
01783              36.00     8800.00
01784              42.00     8800.00
01785              42.00     8600.00
01786              36.00     8600.00
01787              28.00     8400.00
01788              30.00     8400.00
01789              36.00     8200.00
01790              36.00     8200.00
01791              34.00     8000.00
01792              28.00     8000.00
01793              28.00     8000.00
01794              28.00     7800.00
01795              30.00     7800.00
01796              30.00     7600.00
01797              22.00     7600.00
01798              24.00     7600.00
01799              28.00     7400.00
01800              30.00     7200.00
01801              26.00     7200.00
01802              20.00     7000.00
01803              20.00     6800.00
01804              22.00     6800.00
01805              26.00     6800.00
01806              26.00     6600.00
01807              20.00     6400.00
01808              14.00     6400.00
01809              16.00     6200.00
01810              20.00     6000.00
01811              20.00     6000.00
01812              20.00     5800.00
01813              18.00     5600.00
01814              14.00     5600.00
01815              14.00     5600.00
01816              14.00     5400.00
01817              12.00     5200.00
01818              18.00     5200.00
01819              18.00     4800.00
01820              12.00     5000.00
01821              10.00     4600.00
01822               8.00     4600.00
01823              12.00     4400.00
01824              14.00     4200.00
01825              14.00     4200.00
01826              10.00     4000.00
01827               8.00     4000.00
01828               6.00     3800.00
01829              12.00     3600.00
01830              10.00     3600.00
01831               6.00     3200.00
01832               6.00     3200.00
01833              10.00     3200.00
01834               6.00     3000.00
01835               4.00     2800.00
01836               4.00     2800.00
01837               4.00     2400.00
01838               6.00     2600.00
01839              10.00     2200.00
01840               4.00     2200.00
01841               2.00     2000.00
01842               2.00     1800.00
01843               4.00     1800.00
01844               4.00     1600.00
01845               2.00     1400.00
01846               4.00     1200.00
01847               2.00     1200.00
01848               2.00     1000.00
01849               2.00      800.00
01850               2.00      600.00
01851              -2.00      600.00
01852               0.00      400.00
01853               4.00      400.00
01854               2.00        0.00
01855               4.00        0.00
01856               4.00     -200.00
01857              14.00     -400.00
01858              38.00     -400.00
01859              10.00     -800.00
01860             -24.00     -800.00
01861             -20.00     -800.00
01862              18.00    -1000.00
01863              28.00    -1000.00
01864              72.00    -1200.00
01865             250.00    -1400.00
01866             204.00    -1800.00
01867            -250.00    -2000.00
01868            -250.00    -2000.00
01869             -82.00    -2200.00
01870             250.00    -1800.00
01871             250.00    -2000.00
01872             250.00    -2800.00
01873            -250.00    -2400.00
01874            -250.00    -2800.00
01875             250.00    -3400.00
01876             100.00    -2400.00
01877            -250.00    -3200.00
01878            -214.00    -3800.00
01879            -150.00    -3200.00
01880             250.00    -3800.00
01881             -16.00    -3800.00
01882            -250.00    -3400.00
01883             238.00    -4200.00
01884             162.00    -4200.00
01885            -100.00    -4200.00
01886             -78.00    -4800.00
01887            -196.00    -4200.00
01888             166.00    -4600.00
01889             180.00    -4800.00
01890            -102.00    -4600.00
01891            -206.00    -5400.00
01892            -146.00    -5000.00
01893             244.00    -5400.00
01894             122.00    -5800.00
01895            -180.00    -5600.00
01896            -142.00    -6000.00
01897             -68.00    -5800.00
01898             184.00    -5800.00
01899              52.00    -6200.00
01900            -168.00    -6000.00
01901             -60.00    -6400.00
01902             -30.00    -6400.00
01903              58.00    -6800.00
01904              14.00    -6800.00
01905             -96.00    -6600.00
01906             -62.00    -7200.00
01907              -6.00    -6800.00
01908              38.00    -7200.00
01909             -54.00    -7200.00
01910             -68.00    -7200.00
01911             -18.00    -7600.00
01912             -22.00    -7200.00
01913             -20.00    -7600.00
01914             -30.00    -7600.00
01915             -26.00    -8000.00
01916             -48.00    -8000.00
01917             -54.00    -8000.00
01918             -12.00    -8000.00
01919             -12.00    -8200.00
01920             -36.00    -8200.00
01921             -44.00    -8400.00
01922             -38.00    -8400.00
01923             -50.00    -8400.00
01924             -42.00    -8400.00
01925             -14.00    -8800.00
01926             -26.00    -8800.00
01927             -52.00    -8800.00
01928             -52.00    -9000.00
01929             -44.00    -8800.00
01930             -38.00    -9000.00
01931             -38.00    -9200.00
01932             -36.00    -9200.00
01933             -38.00    -9200.00
01934             -62.00    -9200.00
01935             -50.00    -9200.00
01936             -38.00    -9400.00
01937             -46.00    -9400.00
01938             -46.00    -9600.00
01939             -50.00    -9600.00
01940             -46.00    -9600.00
01941             -56.00    -9800.00
01942             -52.00    -9800.00
01943             -50.00    -9800.00
01944             -58.00    -9800.00
01945             -58.00   -10000.00
01946             -46.00    -9800.00
01947             -52.00    -9800.00
01948             -60.00   -10000.00
01949             -60.00   -10000.00
01950             -58.00   -10000.00
01951             -62.00   -10000.00
01952             -58.00   -10000.00
01953             -46.00   -10000.00
01954             -52.00   -10000.00
01955             -70.00   -10000.00
01956             -74.00   -10000.00
01957             -60.00   -10200.00
01958             -54.00   -10000.00
01959             -52.00   -10000.00
01960             -58.00   -10200.00
01961             -70.00   -10000.00
01962             -76.00   -10000.00
01963             -62.00   -10200.00
01964             -54.00   -10000.00
01965             -58.00   -10000.00
01966             -66.00   -10200.00
01967             -66.00   -10000.00
01968             -68.00   -10000.00
01969             -68.00   -10000.00
01970             -62.00   -10000.00
01971             -58.00   -10000.00
01972             -62.00   -10000.00
01973             -66.00    -9800.00
01974             -64.00   -10000.00
01975             -66.00   -10000.00
01976             -62.00   -10000.00
01977             -60.00   -10000.00
01978             -66.00    -9800.00
01979             -78.00    -9800.00
01980             -84.00    -9800.00
01981             -70.00    -9800.00
01982             -52.00    -9600.00
01983             -46.00    -9800.00
01984             -60.00    -9600.00
01985             -60.00    -9400.00
01986             -50.00    -9600.00
01987             -42.00    -9400.00
01988             -46.00    -9400.00
01989             -60.00    -9400.00
01990             -60.00    -9200.00
01991             -44.00    -9200.00
01992             -34.00    -9000.00
01993             -42.00    -9000.00
01994             -52.00    -9000.00
01995             -52.00    -8800.00
01996             -44.00    -9000.00
01997             -38.00    -8800.00
01998             -38.00    -8800.00
01999             -42.00    -8800.00
02000             -44.00    -8800.00
02001             -42.00    -8600.00
02002             -36.00    -8400.00
02003             -42.00    -8400.00
02004             -38.00    -8200.00
02005             -36.00    -8000.00
02006             -28.00    -8200.00
02007             -32.00    -8000.00
02008             -38.00    -8000.00
02009             -40.00    -8000.00
02010             -36.00    -7800.00
02011             -32.00    -7600.00
02012             -28.00    -7600.00
02013             -36.00    -7400.00
02014             -38.00    -7400.00
02015             -38.00    -7400.00
02016             -28.00    -7000.00
02017             -22.00    -7000.00
02018             -22.00    -6800.00
02019             -28.00    -6800.00
02020             -34.00    -6800.00
02021             -30.00    -6600.00
02022             -22.00    -6400.00
02023             -22.00    -6400.00
02024             -28.00    -6400.00
02025             -32.00    -6000.00
02026             -22.00    -6000.00
02027             -20.00    -5800.00
02028             -22.00    -5800.00
02029             -26.00    -5800.00
02030             -28.00    -5600.00
02031             -20.00    -5400.00
02032             -18.00    -5200.00
02033             -22.00    -5000.00
02034             -26.00    -5000.00
02035             -26.00    -4800.00
02036             -18.00    -4600.00
02037             -12.00    -4400.00
02038             -14.00    -4400.00
02039             -22.00    -4400.00
02040             -20.00    -4200.00
02041             -12.00    -4000.00
02042             -12.00    -4000.00
02043             -18.00    -3800.00
02044             -20.00    -3600.00
02045             -16.00    -3600.00
02046             -14.00    -3200.00
02047             -12.00    -3200.00
02048             -12.00    -3000.00
02049             -14.00    -2800.00
02050             -16.00    -2600.00
02051             -12.00    -2600.00
02052              -4.00    -2600.00
02053              -2.00    -2400.00
02054             -12.00    -2400.00
02055             -14.00    -2000.00
02056             -18.00    -2000.00
02057             -12.00    -1800.00
02058              -6.00    -1600.00
02059              -4.00    -1600.00
02060              -6.00    -1400.00
02061             -10.00    -1200.00
02062             -12.00    -1000.00
02063              -4.00     -800.00
02064              -2.00     -800.00
02065              -6.00     -600.00
02066              -8.00     -400.00
02067              -6.00     -200.00
02068              -4.00     -200.00
02069              -6.00        0.00
02070              -4.00        0.00
02071              10.00      400.00
02072              38.00      400.00
02073              14.00      600.00
02074             -28.00      600.00
02075             -30.00      800.00
02076              10.00      800.00
02077              30.00     1200.00
02078              16.00     1200.00
02079              62.00     1400.00
02080             250.00     1800.00
02081             170.00     1600.00
02082            -250.00     1800.00
02083            -250.00     2000.00
02084              50.00     2200.00
02085             250.00     2200.00
02086             250.00     2600.00
02087             250.00     2400.00
02088            -250.00     2400.00
02089            -250.00     2800.00
02090             250.00     3000.00
02091             250.00     3000.00
02092            -250.00     3600.00
02093            -180.00     3200.00
02094             -54.00     3200.00
02095             202.00     3800.00
02096             194.00     3600.00
02097            -250.00     4000.00
02098             -84.00     4400.00
02099             250.00     4000.00
02100              70.00     4400.00
02101            -108.00     4400.00
02102            -118.00     4600.00
02103              36.00     4800.00
02104             194.00     4800.00
02105              98.00     5200.00
02106            -188.00     5200.00
02107            -172.00     5400.00
02108             188.00     5400.00
02109             214.00     5600.00
02110             -70.00     5800.00
02111            -150.00     5600.00
02112             -20.00     6000.00
02113             150.00     6200.00
02114             106.00     6200.00
02115             -60.00     6200.00
02116             -54.00     6400.00
02117              22.00     6600.00
02118              74.00     6600.00
02119              60.00     6800.00
02120             -12.00     7000.00
02121             -38.00     6800.00
02122              44.00     7000.00
02123              84.00     7200.00
02124               2.00     7200.00
02125             -20.00     7600.00
02126              44.00     7400.00
02127              52.00     7800.00
02128              12.00     7800.00
02129              18.00     8000.00
02130              42.00     8200.00
02131              28.00     8000.00
02132              12.00     8000.00
02133              30.00     8200.00
02134              44.00     8400.00
02135              36.00     8400.00
02136              30.00     8400.00
02137              30.00     8600.00
02138              12.00     8600.00
02139              20.00     8600.00
02140              54.00     8600.00
02141              52.00     8800.00
02142              20.00     8800.00
02143              20.00     8800.00
02144              42.00     9000.00
02145              42.00     9200.00
02146              36.00     9200.00
02147              46.00     9200.00
02148              44.00     9200.00
02149              28.00     9400.00
02150              34.00     9400.00
02151              54.00     9400.00
02152              44.00     9400.00
02153              34.00     9400.00
02154              44.00     9600.00
02155              52.00     9600.00
02156              42.00     9600.00
02157              44.00     9600.00
02158              52.00     9800.00
02159              42.00     9800.00
02160              42.00     9800.00
02161              58.00     9600.00
02162              60.00    10000.00
02163              42.00    10000.00
02164              38.00    10000.00
02165              52.00    10000.00
02166              56.00    10000.00
02167              52.00    10000.00
02168              60.00    10000.00
02169              58.00    10000.00
02170              48.00    10200.00
02171              50.00    10000.00
02172              60.00    10200.00
02173              56.00    10000.00
02174              56.00    10000.00
02175              64.00    10000.00
02176              56.00    10200.00
02177              50.00    10200.00
02178              54.00    10000.00
02179              64.00    10200.00
02180              66.00    10000.00
02181              60.00    10000.00
02182              60.00    10000.00
02183              58.00    10200.00
02184              54.00    10000.00
02185              58.00    10000.00
02186              66.00    10000.00
02187              58.00    10000.00
02188              58.00    10000.00
02189              60.00    10000.00
02190              58.00     9800.00
02191              56.00    10000.00
02192              60.00    10000.00
02193              76.00    10000.00
02194              82.00     9800.00
02195              70.00     9600.00
02196              48.00     9800.00
02197              38.00     9600.00
02198              50.00     9800.00
02199              56.00     9600.00
02200              52.00     9600.00
02201              34.00     9400.00
02202              34.00     9400.00
02203              50.00     9200.00
02204              54.00     9200.00
02205              38.00     9200.00
02206              26.00     9200.00
02207              34.00     9000.00
02208              46.00     9200.00
02209              54.00     8800.00
02210              38.00     9000.00
02211              20.00     8800.00
02212              26.00     8800.00
02213              44.00     8600.00
02214              50.00     8400.00
02215              28.00     8600.00
02216              18.00     8400.00
02217              26.00     8400.00
02218              42.00     8200.00
02219              36.00     8200.00
02220              26.00     8000.00
02221              20.00     8000.00
02222              26.00     8200.00
02223              42.00     7800.00
02224              36.00     7800.00
02225              20.00     7600.00
02226              14.00     7600.00
02227              26.00     7400.00
02228              42.00     7200.00
02229              32.00     7200.00
02230              18.00     7200.00
02231              12.00     7200.00
02232              20.00     6800.00
02233              30.00     6800.00
02234              30.00     6600.00
02235              20.00     6400.00
02236              14.00     6400.00
02237              18.00     6400.00
02238              20.00     6200.00
02239              24.00     6200.00
02240              22.00     6000.00
02241              18.00     6000.00
02242              18.00     5600.00
02243              18.00     5600.00
02244              18.00     5400.00
02245              18.00     5600.00
02246              16.00     5200.00
02247              16.00     5000.00
02248              14.00     5200.00
02249              14.00     4800.00
02250              12.00     4600.00
02251              10.00     4600.00
02252              12.00     4400.00
02253              14.00     4400.00
02254              12.00     4200.00
02255              14.00     4000.00
02256              12.00     4000.00
02257              10.00     3800.00
02258               6.00     3600.00
02259              10.00     3600.00
02260              12.00     3400.00
02261              10.00     3200.00
02262              10.00     3200.00
02263               6.00     3000.00
02264               6.00     2800.00
02265               4.00     2800.00
02266               6.00     2600.00
02267              10.00     2200.00
02268               4.00     2400.00
02269               2.00     2200.00
02270               4.00     2000.00
02271               2.00     1800.00
02272               2.00     1800.00
02273               4.00     1400.00
02274               2.00     1400.00
02275               4.00     1200.00
02276              -2.00     1200.00
02277              -2.00      800.00
02278              -2.00      600.00
02279               2.00      800.00
02280               2.00      600.00
02281              -2.00      400.00
02282              -4.00      200.00
02283              -2.00        0.00
02284               4.00        0.00
02285               4.00     -200.00
02286              22.00     -400.00
02287              32.00     -600.00
02288              -6.00     -600.00
02289             -30.00     -800.00
02290              -6.00     -800.00
02291              28.00    -1000.00
02292              28.00    -1000.00
02293             116.00    -1200.00
02294             250.00    -1600.00
02295              28.00    -1800.00
02296            -250.00    -2000.00
02297            -250.00    -2400.00
02298              52.00    -2400.00
02299             250.00    -1800.00
02300             250.00    -2000.00
02301            -214.00    -2800.00
02302            -250.00    -2400.00
02303             250.00    -3200.00
02304             250.00    -3200.00
02305            -196.00    -2400.00
02306            -250.00    -3400.00
02307            -242.00    -3400.00
02308              14.00    -3200.00
02309             250.00    -4000.00
02310            -250.00    -3600.00
02311            -250.00    -3600.00
02312             250.00    -4200.00
02313              44.00    -4000.00
02314             -74.00    -4400.00
02315            -126.00    -4400.00
02316            -140.00    -4200.00
02317             242.00    -4800.00
02318             106.00    -4800.00
02319            -138.00    -5000.00
02320            -222.00    -5400.00
02321             -52.00    -4800.00
02322             250.00    -5600.00
02323              18.00    -5600.00
02324            -186.00    -5600.00
02325            -132.00    -6000.00
02326             -10.00    -5600.00
02327             204.00    -6000.00
02328             -38.00    -6000.00
02329            -154.00    -6000.00
02330             -40.00    -6400.00
02331             -14.00    -6400.00
02332              74.00    -6800.00
02333             -24.00    -6600.00
02334             -98.00    -6800.00
02335             -44.00    -7200.00
02336              14.00    -6800.00
02337              24.00    -7400.00
02338             -78.00    -7200.00
02339             -52.00    -7400.00
02340             -10.00    -7600.00
02341             -22.00    -7400.00
02342             -22.00    -7800.00
02343             -32.00    -7600.00
02344             -30.00    -8000.00
02345             -58.00    -8000.00
02346             -38.00    -8000.00
02347              -4.00    -8000.00
02348             -22.00    -8200.00
02349             -50.00    -8400.00
02350             -44.00    -8600.00
02351             -36.00    -8400.00
02352             -52.00    -8800.00
02353             -38.00    -8600.00
02354             -14.00    -8800.00
02355             -36.00    -8800.00
02356             -54.00    -9000.00
02357             -50.00    -9000.00
02358             -38.00    -9000.00
02359             -44.00    -9200.00
02360             -36.00    -9200.00
02361             -30.00    -9200.00
02362             -50.00    -9200.00
02363             -66.00    -9400.00
02364             -44.00    -9400.00
02365             -30.00    -9400.00
02366             -48.00    -9600.00
02367             -60.00    -9600.00
02368             -54.00    -9600.00
02369             -44.00    -9600.00
02370             -44.00    -9800.00
02371             -44.00    -9800.00
02372             -60.00    -9800.00
02373             -62.00    -9600.00
02374             -44.00    -9600.00
02375             -36.00   -10000.00
02376             -54.00    -9800.00
02377             -76.00   -10000.00
02378             -54.00   -10000.00
02379             -44.00   -10000.00
02380             -54.00   -10000.00
02381             -62.00   -10000.00
02382             -58.00   -10000.00
02383             -46.00   -10000.00
02384             -52.00   -10000.00
02385             -74.00   -10000.00
02386             -76.00   -10000.00
02387             -60.00   -10000.00
02388             -30.00   -10200.00
02389             -42.00   -10000.00
02390             -78.00   -10000.00
02391             -84.00   -10200.00
02392             -60.00   -10000.00
02393             -46.00   -10000.00
02394             -54.00   -10000.00
02395             -62.00   -10000.00
02396             -70.00   -10000.00
02397             -78.00   -10000.00
02398             -70.00   -10000.00
02399             -52.00   -10000.00
02400             -54.00   -10000.00
02401             -64.00   -10000.00
02402             -62.00   -10000.00
02403             -60.00    -9800.00
02404             -74.00    -9800.00
02405             -76.00   -10000.00
02406             -62.00    -9800.00
02407             -56.00    -9800.00
02408             -76.00    -9800.00
02409             -90.00    -9800.00
02410             -74.00    -9800.00
02411             -48.00    -9800.00
02412             -44.00    -9600.00
02413             -58.00    -9600.00
02414             -66.00    -9600.00
02415             -54.00    -9600.00
02416             -38.00    -9400.00
02417             -42.00    -9600.00
02418             -62.00    -9200.00
02419             -66.00    -9200.00
02420             -44.00    -9200.00
02421             -34.00    -9200.00
02422             -44.00    -9000.00
02423             -54.00    -9000.00
02424             -54.00    -9000.00
02425             -46.00    -8800.00
02426             -38.00    -8800.00
02427             -32.00    -8800.00
02428             -38.00    -8600.00
02429             -46.00    -8600.00
02430             -38.00    -8400.00
02431             -38.00    -8400.00
02432             -44.00    -8200.00
02433             -44.00    -8200.00
02434             -36.00    -8000.00
02435             -26.00    -8000.00
02436             -34.00    -8000.00
02437             -42.00    -8000.00
02438             -36.00    -8000.00
02439             -36.00    -7600.00
02440             -34.00    -7600.00
02441             -28.00    -7400.00
02442             -26.00    -7400.00
02443             -34.00    -7200.00
02444             -36.00    -7200.00
02445             -34.00    -7000.00
02446             -28.00    -7000.00
02447             -22.00    -6800.00
02448             -22.00    -6600.00
02449             -28.00    -6600.00
02450             -30.00    -6400.00
02451             -30.00    -6400.00
02452             -26.00    -6400.00
02453             -20.00    -6200.00
02454             -22.00    -6000.00
02455             -24.00    -6000.00
02456             -22.00    -5600.00
02457             -26.00    -5600.00
02458             -22.00    -5600.00
02459             -20.00    -5600.00
02460             -22.00    -5200.00
02461             -22.00    -5200.00
02462             -22.00    -5200.00
02463             -22.00    -5000.00
02464             -20.00    -4600.00
02465             -20.00    -4600.00
02466             -20.00    -4600.00
02467             -20.00    -4400.00
02468             -18.00    -4200.00
02469             -18.00    -4200.00
02470             -18.00    -4000.00
02471             -18.00    -4000.00
02472             -18.00    -3600.00
02473             -18.00    -3600.00
02474             -14.00    -3400.00
02475             -12.00    -3400.00
02476             -14.00    -3200.00
02477             -18.00    -3200.00
02478             -16.00    -3000.00
02479             -14.00    -2800.00
02480             -12.00    -2600.00
02481             -12.00    -2600.00
02482             -12.00    -2400.00
02483             -12.00    -2000.00
02484             -14.00    -2000.00
02485             -12.00    -2000.00
02486             -10.00    -1800.00
02487              -6.00    -1600.00
02488              -6.00    -1600.00
02489             -10.00    -1400.00
02490             -12.00    -1200.00
02491             -12.00    -1000.00
02492              -6.00     -800.00
02493              -4.00     -800.00
02494              -4.00     -400.00
02495              -6.00     -400.00
02496              -6.00     -400.00
02497              -2.00     -200.00
02498              -4.00        0.00
02499              -2.00      200.00
02500              14.00      400.00
02501              36.00      400.00
02502               4.00      600.00
02503             -28.00      600.00
02504             -18.00      800.00
02505              20.00      800.00
02506              28.00     1200.00
02507              18.00     1200.00
02508             108.00     1400.00
02509             250.00     1800.00
02510              26.00     2000.00
02511            -250.00     2000.00
02512            -250.00     2000.00
02513             196.00     2200.00
02514             250.00     2400.00
02515             250.00     2400.00
02516             198.00     2800.00
02517            -250.00     2400.00
02518            -244.00     2800.00
02519             250.00     3000.00
02520             186.00     3200.00
02521            -250.00     3400.00
02522            -124.00     3200.00
02523              -8.00     3400.00
02524             250.00     3800.00
02525              62.00     3800.00
02526            -250.00     4000.00
02527              48.00     4200.00
02528             250.00     4000.00
02529               2.00     4400.00
02530            -124.00     4400.00
02531             -98.00     4800.00
02532              90.00     4800.00
02533             204.00     4800.00
02534              26.00     5200.00
02535            -234.00     5200.00
02536             -90.00     5200.00
02537             246.00     5400.00
02538             146.00     5600.00
02539            -122.00     5800.00
02540            -130.00     5800.00
02541              30.00     6000.00
02542             166.00     6200.00
02543              60.00     6200.00
02544             -80.00     6200.00
02545             -38.00     6400.00
02546              36.00     6400.00
02547              76.00     6800.00
02548              42.00     6800.00
02549             -28.00     6800.00
02550             -22.00     7000.00
02551              62.00     7000.00
02552              66.00     7200.00
02553             -18.00     7200.00
02554              -8.00     7400.00
02555              54.00     7400.00
02556              40.00     7600.00
02557               4.00     7800.00
02558              22.00     8000.00
02559              44.00     8000.00
02560              26.00     8200.00
02561              12.00     8000.00
02562              34.00     8200.00
02563              44.00     8400.00
02564              34.00     8200.00
02565              34.00     8400.00
02566              30.00     8400.00
02567              12.00     8600.00
02568              28.00     8600.00
02569              62.00     8600.00
02570              46.00     8800.00
02571              14.00     8800.00
02572              26.00     9000.00
02573              46.00     9000.00
02574              40.00     9200.00
02575              42.00     9200.00
02576              52.00     9200.00
02577              40.00     9400.00
02578              28.00     9400.00
02579              42.00     9400.00
02580              54.00     9600.00
02581              42.00     9400.00
02582              38.00     9400.00
02583              52.00     9600.00
02584              46.00     9600.00
02585              44.00     9600.00
02586              48.00     9800.00
02587              52.00     9800.00
02588              42.00     9800.00
02589              46.00    10000.00
02590              58.00    10000.00
02591              54.00    10000.00
02592              42.00    10000.00
02593              44.00    10000.00
02594              54.00    10000.00
02595              52.00    10000.00
02596              54.00    10000.00
02597              60.00    10200.00
02598              54.00    10000.00
02599              46.00    10000.00
02600              50.00    10000.00
02601              58.00    10000.00
02602              54.00    10000.00
02603              58.00    10000.00
02604              58.00    10000.00
02605              52.00    10200.00
02606              50.00    10000.00
02607              58.00    10000.00
02608              64.00    10200.00
02609              60.00    10000.00
02610              58.00    10000.00
02611              58.00    10200.00
02612              58.00    10000.00
02613              52.00    10000.00
02614              56.00    10000.00
02615              60.00    10000.00
02616              58.00    10000.00
02617              58.00    10000.00
02618              58.00    10000.00
02619              54.00     9800.00
02620              54.00    10000.00
02621              64.00     9800.00
02622              78.00     9800.00
02623              82.00     9600.00
02624              62.00     9800.00
02625              42.00     9800.00
02626              34.00     9600.00
02627              46.00     9400.00
02628              58.00     9600.00
02629              54.00     9400.00
02630              40.00     9400.00
02631              36.00     9400.00
02632              44.00     9400.00
02633              46.00     9200.00
02634              40.00     9200.00
02635              38.00     9200.00
02636              42.00     9200.00
02637              46.00     9000.00
02638              36.00     8800.00
02639              34.00     8800.00
02640              34.00     8800.00
02641              36.00     8600.00
02642              42.00     8600.00
02643              38.00     8600.00
02644              30.00     8600.00
02645              30.00     8400.00
02646              34.00     8400.00
02647              32.00     8400.00
02648              30.00     8200.00
02649              30.00     8400.00
02650              34.00     8000.00
02651              30.00     8000.00
02652              24.00     7800.00
02653              26.00     7800.00
02654              26.00     7800.00
02655              28.00     7400.00
02656              30.00     7600.00
02657              28.00     7200.00
02658              22.00     7200.00
02659              20.00     7000.00
02660              20.00     7000.00
02661              26.00     7000.00
02662              22.00     6800.00
02663              22.00     6600.00
02664              20.00     6400.00
02665              18.00     6400.00
02666              18.00     6200.00
02667              18.00     6200.00
02668              20.00     6000.00
02669              20.00     6000.00
02670              18.00     6000.00
02671              14.00     5800.00
02672              14.00     5600.00
02673              14.00     5600.00
02674              16.00     5400.00
02675              14.00     5200.00
02676              12.00     5000.00
02677              14.00     4800.00
02678              12.00     4800.00
02679              12.00     4600.00
02680              10.00     4600.00
02681              10.00     4400.00
02682              10.00     4200.00
02683              14.00     4200.00
02684              14.00     4000.00
02685              10.00     3800.00
02686               6.00     3800.00
02687               6.00     3600.00
02688              10.00     3600.00
02689              10.00     3400.00
02690              10.00     3200.00
02691               6.00     3200.00
02692               4.00     2800.00
02693               4.00     2800.00
02694               4.00     2800.00
02695               6.00     2400.00
02696              10.00     2400.00
02697               4.00     2200.00
02698               4.00     2000.00
02699               4.00     2000.00
02700               2.00     1800.00
02701               4.00     1600.00
02702               4.00     1400.00
02703               4.00     1400.00
02704               4.00     1200.00
02705               0.00     1000.00
02706               2.00      800.00
02707               0.00      800.00
02708               2.00      600.00
02709               4.00      600.00
02710               2.00      400.00
02711               4.00      200.00
02712              -2.00        0.00
02713               2.00     -200.00
02714               4.00     -200.00
02715              34.00     -400.00
02716              26.00     -400.00
02717             -12.00     -600.00
02718             -30.00     -800.00
02719               2.00    -1000.00
02720              28.00    -1000.00
02721              30.00    -1200.00
02722             190.00    -1400.00
02723             250.00    -1600.00
02724            -182.00    -2000.00
02725            -250.00    -2000.00
02726            -250.00    -2400.00
02727             164.00    -2200.00
02728             250.00    -2000.00
02729             250.00    -2400.00
02730            -250.00    -2600.00
02731            -250.00    -2400.00
02732             250.00    -3600.00
02733             250.00    -2800.00
02734            -250.00    -2400.00
02735            -216.00    -3600.00
02736            -250.00    -3400.00
02737             210.00    -3400.00
02738             250.00    -4200.00
02739            -250.00    -3600.00
02740            -128.00    -4000.00
02741             250.00    -4400.00
02742             -48.00    -4000.00
02743             -52.00    -4600.00
02744            -178.00    -4400.00
02745             -46.00    -4200.00
02746             250.00    -5000.00
02747              18.00    -4600.00
02748            -166.00    -5000.00
02749            -222.00    -5200.00
02750              60.00    -5000.00
02751             250.00    -5800.00
02752             -74.00    -5400.00
02753            -170.00    -5600.00
02754            -126.00    -6000.00
02755              62.00    -5600.00
02756             186.00    -6000.00
02757            -102.00    -6000.00
02758            -116.00    -6400.00
02759             -68.00    -6600.00
02760              22.00    -6400.00
02761              52.00    -6800.00
02762             -54.00    -6400.00
02763            -124.00    -7000.00
02764              14.00    -7200.00
02765              84.00    -6800.00
02766              24.00    -7200.00
02767            -132.00    -7200.00
02768             -88.00    -7400.00
02769              26.00    -7400.00
02770             -22.00    -7600.00
02771             -68.00    -7800.00
02772             -44.00    -7600.00
02773              18.00    -8000.00
02774             -26.00    -8000.00
02775             -46.00    -8000.00
02776             -24.00    -8200.00
02777             -10.00    -8200.00
02778             -28.00    -8400.00
02779             -54.00    -8400.00
02780             -54.00    -8400.00
02781             -70.00    -8600.00
02782             -24.00    -8800.00
02783             -12.00    -8800.00
02784             -28.00    -8800.00
02785             -50.00    -8800.00
02786             -46.00    -9000.00
02787             -38.00    -9000.00
02788             -46.00    -9000.00
02789             -30.00    -9200.00
02790             -34.00    -9200.00
02791             -54.00    -9200.00
02792             -80.00    -9400.00
02793             -52.00    -9600.00
02794             -36.00    -9400.00
02795             -38.00    -9600.00
02796             -44.00    -9600.00
02797             -46.00    -9600.00
02798             -46.00    -9600.00
02799             -60.00    -9600.00
02800             -54.00    -9800.00
02801             -62.00    -9800.00
02802             -62.00    -9800.00
02803             -50.00   -10000.00
02804             -44.00    -9800.00
02805             -54.00   -10000.00
02806             -66.00   -10000.00
02807             -60.00    -9800.00
02808             -58.00   -10000.00
02809             -58.00   -10000.00
02810             -50.00   -10000.00
02811             -50.00   -10000.00
02812             -68.00   -10000.00
02813             -80.00   -10000.00
02814             -62.00   -10000.00
02815             -44.00   -10000.00
02816             -52.00   -10000.00
02817             -62.00   -10000.00
02818             -70.00   -10000.00
02819             -68.00   -10000.00
02820             -60.00   -10000.00
02821             -50.00   -10000.00
02822             -58.00   -10000.00
02823             -70.00   -10200.00
02824             -74.00   -10000.00
02825             -66.00   -10000.00
02826             -60.00   -10200.00
02827             -62.00   -10000.00
02828             -66.00   -10000.00
02829             -62.00   -10000.00
02830             -60.00    -9800.00
02831             -56.00   -10000.00
02832             -58.00    -9800.00
02833             -68.00   -10000.00
02834             -76.00    -9800.00
02835             -70.00    -9800.00
02836             -66.00    -9800.00
02837             -76.00    -9800.00
02838             -84.00    -9800.00
02839             -66.00    -9600.00
02840             -46.00    -9600.00
02841             -44.00    -9600.00
02842             -54.00    -9600.00
02843             -54.00    -9400.00
02844             -50.00    -9600.00
02845             -44.00    -9600.00
02846             -52.00    -9400.00
02847             -60.00    -9200.00
02848             -54.00    -9200.00
02849             -38.00    -9200.00
02850             -36.00    -9000.00
02851             -46.00    -9000.00
02852             -52.00    -9000.00
02853             -46.00    -9000.00
02854             -44.00    -8800.00
02855             -38.00    -8800.00
02856             -42.00    -8800.00
02857             -42.00    -8600.00
02858             -42.00    -8600.00
02859             -42.00    -8400.00
02860             -42.00    -8400.00
02861             -42.00    -8400.00
02862             -38.00    -8200.00
02863             -30.00    -8200.00
02864             -34.00    -8000.00
02865             -40.00    -8000.00
02866             -42.00    -7800.00
02867             -36.00    -7800.00
02868             -32.00    -7600.00
02869             -34.00    -7600.00
02870             -32.00    -7600.00
02871             -30.00    -7400.00
02872             -34.00    -7200.00
02873             -34.00    -7200.00
02874             -34.00    -7000.00
02875             -32.00    -6800.00
02876             -26.00    -6800.00
02877             -22.00    -6600.00
02878             -26.00    -6600.00
02879             -34.00    -6600.00
02880             -32.00    -6400.00
02881             -22.00    -6200.00
02882             -22.00    -6200.00
02883             -22.00    -6000.00
02884             -28.00    -6000.00
02885             -28.00    -5800.00
02886             -26.00    -5600.00
02887             -20.00    -5400.00
02888             -20.00    -5600.00
02889             -22.00    -5200.00
02890             -22.00    -5200.00
02891             -20.00    -5200.00
02892             -20.00    -4600.00
02893             -22.00    -4800.00
02894             -24.00    -4600.00
02895             -18.00    -4400.00
02896             -16.00    -4400.00
02897             -12.00    -4200.00
02898             -14.00    -4000.00
02899             -18.00    -4000.00
02900             -18.00    -4000.00
02901             -16.00    -3600.00
02902             -14.00    -3600.00
02903             -12.00    -3400.00
02904             -12.00    -3400.00
02905             -14.00    -3200.00
02906             -18.00    -3000.00
02907             -14.00    -3000.00
02908             -12.00    -2600.00
02909              -6.00    -2600.00
02910             -10.00    -2400.00
02911             -10.00    -2200.00
02912             -12.00    -2000.00
02913             -12.00    -2000.00
02914             -12.00    -1800.00
02915              -6.00    -1800.00
02916              -6.00    -1600.00
02917              -6.00    -1400.00
02918             -10.00    -1200.00
02919             -10.00    -1000.00
02920             -10.00    -1000.00
02921             -10.00     -800.00
02922              -6.00     -800.00
02923              -6.00     -400.00
02924              -4.00     -400.00
02925              -6.00     -400.00
02926              -6.00        0.00
02927              -2.00        0.00
02928               2.00        0.00
02929              26.00      400.00
02930              30.00      400.00
02931             -10.00      400.00
02932             -30.00      600.00
02933             -10.00      800.00
02934              26.00     1000.00
02935              20.00     1200.00
02936              20.00     1400.00
02937             172.00     1400.00
02938             250.00     1800.00
02939            -148.00     2000.00
02940            -250.00     2000.00
02941            -250.00     2000.00
02942             250.00     2200.00
02943             250.00     2400.00
02944             250.00     2600.00
02945             -12.00     2600.00
02946            -250.00     2600.00
02947              58.00     3000.00
02948             250.00     3000.00
02949             -42.00     3200.00
02950            -250.00     3400.00
02951             -96.00     3200.00
02952              52.00     3600.00
02953             250.00     3800.00
02954             -86.00     3800.00
02955            -250.00     4000.00
02956             158.00     4000.00
02957             212.00     4200.00
02958             -58.00     4400.00
02959            -134.00     4400.00
02960             -54.00     4800.00
02961             142.00     4800.00
02962             188.00     4800.00
02963             -54.00     5400.00
02964            -246.00     5200.00
02965              10.00     5200.00
02966             250.00     5600.00
02967              68.00     5600.00
02968            -148.00     5800.00
02969            -102.00     5800.00
02970              82.00     6200.00
02971             164.00     6200.00
02972              16.00     6200.00
02973             -86.00     6400.00
02974             -18.00     6400.00
02975              54.00     6600.00
02976              76.00     6800.00
02977              22.00     6800.00
02978             -38.00     6800.00
02979              -2.00     7000.00
02980              80.00     7200.00
02981              48.00     7200.00
02982             -26.00     7200.00
02983              10.00     7600.00
02984              58.00     7400.00
02985              26.00     7600.00
02986               6.00     7800.00
02987              30.00     7800.00
02988              36.00     8000.00
02989              18.00     8200.00
02990              16.00     8200.00
02991              38.00     8400.00
02992              42.00     8400.00
02993              30.00     8400.00
02994              36.00     8400.00
02995              20.00     8400.00
02996              10.00     8600.00
02997              36.00     8600.00
02998              62.00     8800.00
02999              36.00     8800.00
03000              12.00     8800.00
03001              30.00     9000.00
03002              42.00     9200.00
03003              36.00     9200.00
03004              42.00     9200.00
03005              50.00     9200.00
03006              36.00     9400.00
03007              22.00     9400.00
03008              44.00     9400.00
03009              52.00     9400.00
03010              38.00     9400.00
03011              38.00     9400.00
03012              50.00     9600.00
03013              46.00     9600.00
03014              42.00     9600.00
03015              50.00     9800.00
03016              50.00     9800.00
03017              38.00     9600.00
03018              46.00    10000.00
03019              60.00    10000.00
03020              52.00    10000.00
03021              42.00    10000.00
03022              46.00    10000.00
03023              54.00    10000.00
03024              52.00    10000.00
03025              60.00    10200.00
03026              66.00    10000.00
03027              52.00    10200.00
03028              38.00    10200.00
03029              52.00    10200.00
03030              62.00    10200.00
03031              62.00    10000.00
03032              58.00    10200.00
03033              58.00    10200.00
03034              50.00    10200.00
03035              46.00    10200.00
03036              64.00    10000.00
03037              68.00    10200.00
03038              60.00    10200.00
03039              58.00    10000.00
03040              58.00    10000.00
03041              58.00    10200.00
03042              54.00    10000.00
03043              60.00    10000.00
03044              66.00    10000.00
03045              58.00    10000.00
03046              52.00    10000.00
03047              56.00    10000.00
03048              60.00    10000.00
03049              60.00    10000.00
03050              68.00     9800.00
03051              76.00     9800.00
03052              74.00    10000.00
03053              56.00     9600.00
03054              44.00     9600.00
03055              42.00     9800.00
03056              50.00     9600.00
03057              54.00     9400.00
03058              50.00     9400.00
03059              38.00     9400.00
03060              42.00     9200.00
03061              46.00     9200.00
03062              42.00     9200.00
03063              36.00     9200.00
03064              36.00     9200.00
03065              44.00     9000.00
03066              46.00     9000.00
03067              36.00     9000.00
03068              26.00     8800.00
03069              30.00     8600.00
03070              38.00     8600.00
03071              42.00     8600.00
03072              38.00     8600.00
03073              28.00     8400.00
03074              26.00     8400.00
03075              30.00     8400.00
03076              34.00     8400.00
03077              34.00     8200.00
03078              32.00     8000.00
03079              28.00     8000.00
03080              28.00     7800.00
03081              28.00     7600.00
03082              26.00     7600.00
03083              28.00     7600.00
03084              30.00     7400.00
03085              28.00     7200.00
03086              26.00     7200.00
03087              22.00     7200.00
03088              22.00     7000.00
03089              26.00     7000.00
03090              22.00     6800.00
03091              22.00     6600.00
03092              26.00     6600.00
03093              22.00     6600.00
03094              20.00     6400.00
03095              20.00     6200.00
03096              20.00     6200.00
03097              20.00     6200.00
03098              22.00     6000.00
03099              20.00     6000.00
03100              18.00     5800.00
03101              12.00     5600.00
03102              14.00     5600.00
03103              18.00     5400.00
03104              18.00     5200.00
03105              18.00     5000.00
03106              16.00     4800.00
03107              12.00     4800.00
03108              12.00     4800.00
03109              12.00     4600.00
03110              14.00     4400.00
03111              14.00     4400.00
03112              12.00     4200.00
03113              10.00     4000.00
03114              10.00     3800.00
03115               6.00     3800.00
03116               6.00     3600.00
03117              10.00     3400.00
03118              12.00     3200.00
03119              10.00     3200.00
03120               6.00     3000.00
03121               4.00     3000.00
03122               2.00     2800.00
03123               4.00     2600.00
03124               6.00     2400.00
03125               6.00     2400.00
03126               6.00     2200.00
03127               4.00     2000.00
03128               2.00     2000.00
03129              -2.00     1600.00
03130               2.00     1600.00
03131               4.00     1400.00
03132               4.00     1400.00
03133               4.00     1000.00
03134               2.00     1000.00
03135              -4.00      800.00
03136              -2.00      800.00
03137               0.00      600.00
03138              -2.00      400.00
03139               2.00      200.00
03140               2.00        0.00
03141              -2.00        0.00
03142               4.00     -200.00
03143              10.00     -200.00
03144              36.00     -400.00
03145              16.00     -600.00
03146             -20.00     -800.00
03147             -26.00     -800.00
03148              12.00     -800.00
03149              26.00    -1200.00
03150              42.00    -1200.00
03151             250.00    -1200.00
03152             250.00    -1800.00
03153            -250.00    -2000.00
03154            -250.00    -2200.00
03155            -228.00    -2400.00
03156             250.00    -2000.00
03157             250.00    -2000.00
03158             250.00    -2800.00
03159            -250.00    -2400.00
03160            -250.00    -2600.00
03161             250.00    -3400.00
03162             250.00    -2600.00
03163            -250.00    -2800.00
03164            -194.00    -3800.00
03165            -234.00    -3200.00
03166             250.00    -3600.00
03167             218.00    -4000.00
03168            -250.00    -3400.00
03169              90.00    -4200.00
03170             250.00    -4200.00
03171             -96.00    -4000.00
03172             -46.00    -4600.00
03173            -204.00    -4200.00
03174              68.00    -4400.00
03175             238.00    -5000.00
03176             -50.00    -4600.00
03177            -184.00    -5200.00
03178            -198.00    -5000.00
03179             170.00    -5200.00
03180             212.00    -5600.00
03181            -148.00    -5400.00
03182            -156.00    -6000.00
03183            -104.00    -5800.00
03184             132.00    -5800.00
03185             124.00    -6400.00
03186            -154.00    -6000.00
03187             -84.00    -6400.00
03188             -36.00    -6400.00
03189              36.00    -6600.00
03190              42.00    -6800.00
03191             -86.00    -6600.00
03192             -74.00    -7000.00
03193             -18.00    -7200.00
03194              36.00    -7200.00
03195             -30.00    -7400.00
03196             -78.00    -7200.00
03197             -22.00    -7400.00
03198             -22.00    -7400.00
03199             -22.00    -7600.00
03200             -30.00    -7800.00
03201             -28.00    -7600.00
03202             -42.00    -8000.00
03203             -58.00    -8000.00
03204             -22.00    -8200.00
03205             -12.00    -8200.00
03206             -32.00    -8200.00
03207             -46.00    -8400.00
03208             -38.00    -8400.00
03209             -48.00    -8600.00
03210             -46.00    -8600.00
03211             -20.00    -8600.00
03212             -20.00    -8800.00
03213             -46.00    -8800.00
03214             -58.00    -8800.00
03215             -46.00    -9000.00
03216             -40.00    -9000.00
03217             -38.00    -9200.00
03218             -32.00    -9200.00
03219             -38.00    -9200.00
03220             -60.00    -9200.00
03221             -58.00    -9400.00
03222             -38.00    -9200.00
03223             -38.00    -9400.00
03224             -46.00    -9600.00
03225             -50.00    -9600.00
03226             -46.00    -9600.00
03227             -52.00    -9600.00
03228             -50.00    -9600.00
03229             -46.00    -9800.00
03230             -58.00    -9800.00
03231             -58.00    -9800.00
03232             -46.00    -9800.00
03233             -44.00    -9800.00
03234             -58.00   -10000.00
03235             -62.00   -10000.00
03236             -60.00    -9800.00
03237             -60.00   -10000.00
03238             -54.00   -10000.00
03239             -44.00   -10000.00
03240             -46.00   -10000.00
03241             -70.00   -10000.00
03242             -74.00   -10000.00
03243             -62.00   -10000.00
03244             -54.00   -10000.00
03245             -50.00   -10000.00
03246             -52.00   -10000.00
03247             -66.00   -10000.00
03248             -76.00   -10000.00
03249             -68.00   -10000.00
03250             -60.00   -10200.00
03251             -52.00   -10000.00
03252             -54.00   -10000.00
03253             -68.00   -10000.00
03254             -78.00   -10000.00
03255             -74.00   -10000.00
03256             -54.00   -10000.00
03257             -54.00   -10000.00
03258             -70.00   -10000.00
03259             -70.00   -10000.00
03260             -60.00   -10000.00
03261             -60.00    -9800.00
03262             -60.00    -9800.00
03263             -66.00    -9800.00
03264             -70.00    -9800.00
03265             -78.00    -9800.00
03266             -82.00    -9800.00
03267             -66.00    -9800.00
03268             -58.00    -9600.00
03269             -60.00    -9600.00
03270             -62.00    -9600.00
03271             -52.00    -9600.00
03272             -44.00    -9600.00
03273             -44.00    -9400.00
03274             -52.00    -9400.00
03275             -62.00    -9200.00
03276             -54.00    -9200.00
03277             -38.00    -9200.00
03278             -34.00    -9200.00
03279             -50.00    -9200.00
03280             -60.00    -9000.00
03281             -48.00    -8800.00
03282             -34.00    -9000.00
03283             -36.00    -8800.00
03284             -42.00    -8800.00
03285             -44.00    -8800.00
03286             -44.00    -8600.00
03287             -38.00    -8600.00
03288             -36.00    -8400.00
03289             -42.00    -8200.00
03290             -42.00    -8400.00
03291             -36.00    -8200.00
03292             -30.00    -8000.00
03293             -36.00    -8000.00
03294             -40.00    -8000.00
03295             -36.00    -8000.00
03296             -28.00    -7800.00
03297             -30.00    -7600.00
03298             -30.00    -7400.00
03299             -30.00    -7400.00
03300             -32.00    -7200.00
03301             -36.00    -7200.00
03302             -30.00    -7200.00
03303             -24.00    -6800.00
03304             -22.00    -6800.00
03305             -26.00    -6800.00
03306             -28.00    -6600.00
03307             -30.00    -6400.00
03308             -30.00    -6400.00
03309             -28.00    -6200.00
03310             -26.00    -6200.00
03311             -22.00    -6200.00
03312             -22.00    -6000.00
03313             -28.00    -5800.00
03314             -28.00    -5800.00
03315             -22.00    -5800.00
03316             -22.00    -5600.00
03317             -24.00    -5400.00
03318             -20.00    -5200.00
03319             -20.00    -5000.00
03320             -20.00    -5000.00
03321             -24.00    -4600.00
03322             -26.00    -4600.00
03323             -22.00    -4600.00
03324             -20.00    -4400.00
03325             -14.00    -4400.00
03326             -18.00    -4200.00
03327             -18.00    -4200.00
03328             -20.00    -4000.00
03329             -20.00    -3800.00
03330             -16.00    -3600.00
03331             -12.00    -3600.00
03332             -10.00    -3400.00
03333             -18.00    -3200.00
03334             -20.00    -3200.00
03335             -18.00    -3000.00
03336             -14.00    -2800.00
03337             -10.00    -2800.00
03338             -10.00    -2600.00
03339             -12.00    -2600.00
03340             -12.00    -2400.00
03341             -14.00    -2200.00
03342             -10.00    -2000.00
03343             -10.00    -1800.00
03344             -12.00    -1600.00
03345             -10.00    -1600.00
03346             -10.00    -1400.00
03347             -10.00    -1200.00
03348             -10.00    -1000.00
03349              -6.00     -800.00
03350              -8.00     -800.00
03351              -6.00     -600.00
03352              -6.00     -400.00
03353              -6.00     -400.00
03354              -4.00     -200.00
03355              -2.00        0.00
03356              -4.00        0.00
03357              -2.00      400.00
03358              30.00      400.00
03359              28.00      400.00
03360             -14.00      600.00
03361             -30.00      600.00
03362               2.00     1000.00
03363              28.00     1000.00
03364              18.00     1200.00
03365              38.00     1400.00
03366             242.00     1600.00
03367             250.00     1800.00
03368            -250.00     2000.00
03369            -250.00     2000.00
03370            -106.00     2000.00
03371             250.00     2400.00
03372             250.00     2400.00
03373             250.00     2800.00
03374            -250.00     2400.00
03375            -250.00     2800.00
03376             250.00     3000.00
03377             250.00     3000.00
03378            -212.00     3600.00
03379            -230.00     3200.00
03380             -76.00     3200.00
03381             126.00     3800.00
03382             250.00     3800.00
03383            -220.00     4000.00
03384            -196.00     4400.00
03385             228.00     4200.00
03386             138.00     4200.00
03387             -86.00     4400.00
03388            -126.00     4600.00
03389             -10.00     5000.00
03390             176.00     4800.00
03391             146.00     5000.00
03392            -134.00     5200.00
03393            -220.00     5200.00
03394             110.00     5600.00
03395             250.00     5600.00
03396             -14.00     5800.00
03397            -156.00     5600.00
03398             -60.00     6000.00
03399             126.00     6200.00
03400             138.00     6200.00
03401             -38.00     6200.00
03402             -70.00     6400.00
03403              12.00     6400.00
03404              70.00     6600.00
03405              66.00     6800.00
03406               2.00     6800.00
03407             -38.00     7000.00
03408              26.00     7000.00
03409              84.00     7200.00
03410              16.00     7200.00
03411             -30.00     7200.00
03412              36.00     7600.00
03413              66.00     7600.00
03414              14.00     7600.00
03415               0.00     7800.00
03416              42.00     8200.00
03417              42.00     8000.00
03418              12.00     8200.00
03419              18.00     8200.00
03420              42.00     8400.00
03421              44.00     8400.00
03422              38.00     8400.00
03423              36.00     8400.00
03424              12.00     8600.00
03425               6.00     8600.00
03426              54.00     8600.00
03427              72.00     8800.00
03428              34.00     8800.00
03429               6.00     8800.00
03430              28.00     8800.00
03431              46.00     9200.00
03432              48.00     9200.00
03433              54.00     9200.00
03434              42.00     9200.00
03435              26.00     9200.00
03436              28.00     9400.00
03437              56.00     9400.00
03438              58.00     9400.00
03439              36.00     9400.00
03440              38.00     9600.00
03441              48.00     9600.00
03442              46.00     9600.00
03443              46.00     9600.00
03444              52.00     9600.00
03445              42.00     9800.00
03446              36.00    10000.00
03447              50.00     9800.00
03448              68.00    10000.00
03449              54.00    10000.00
03450              38.00    10000.00
03451              44.00    10000.00
03452              52.00    10000.00
03453              54.00    10000.00
03454              62.00    10000.00
03455              60.00    10000.00
03456              44.00    10000.00
03457              42.00    10000.00
03458              58.00    10200.00
03459              66.00    10200.00
03460              58.00    10000.00
03461              56.00    10200.00
03462              50.00    10000.00
03463              46.00    10200.00
03464              58.00    10200.00
03465              66.00    10000.00
03466              62.00    10000.00
03467              56.00    10200.00
03468              58.00    10000.00
03469              60.00    10000.00
03470              58.00    10200.00
03471              58.00    10000.00
03472              58.00    10200.00
03473              58.00    10000.00
03474              58.00    10000.00
03475              60.00    10000.00
03476              58.00    10000.00
03477              52.00    10000.00
03478              58.00     9800.00
03479              76.00    10000.00
03480              84.00     9600.00
03481              76.00     9800.00
03482              52.00     9600.00
03483              38.00     9600.00
03484              36.00     9600.00
03485              54.00     9600.00
03486              56.00     9400.00
03487              50.00     9400.00
03488              40.00     9400.00
03489              40.00     9400.00
03490              46.00     9200.00
03491              44.00     9200.00
03492              40.00     9200.00
03493              40.00     9000.00
03494              42.00     9000.00
03495              44.00     9000.00
03496              42.00     8800.00
03497              34.00     8800.00
03498              34.00     8800.00
03499              38.00     8800.00
03500              42.00     8600.00
03501              38.00     8400.00
03502              26.00     8600.00
03503              30.00     8400.00
03504              30.00     8400.00
03505              28.00     8200.00
03506              34.00     8400.00
03507              34.00     8000.00
03508              28.00     8000.00
03509              26.00     7800.00
03510              26.00     7600.00
03511              26.00     7600.00
03512              28.00     7600.00
03513              28.00     7200.00
03514              26.00     7200.00
03515              22.00     7200.00
03516              20.00     7200.00
03517              22.00     7000.00
03518              24.00     6800.00
03519              24.00     6800.00
03520              22.00     6800.00
03521              18.00     6600.00
03522              20.00     6400.00
03523              22.00     6200.00
03524              20.00     6200.00
03525              14.00     6200.00
03526              14.00     6000.00
03527              20.00     6000.00
03528              22.00     5800.00
03529              20.00     6000.00
03530              12.00     5600.00
03531              12.00     5400.00
03532              12.00     5200.00
03533              18.00     5200.00
03534              20.00     5200.00
03535              16.00     4800.00
03536              10.00     4600.00
03537               8.00     4600.00
03538              10.00     4400.00
03539              12.00     4200.00
03540              14.00     4400.00
03541              12.00     4000.00
03542              12.00     4000.00
03543               8.00     3800.00
03544              10.00     3800.00
03545              10.00     3600.00
03546              10.00     3600.00
03547              12.00     3200.00
03548              10.00     3200.00
03549               8.00     3000.00
03550               6.00     3000.00
03551               4.00     2800.00
03552               6.00     2600.00
03553               6.00     2400.00
03554              10.00     2200.00
03555               4.00     2200.00
03556               4.00     2000.00
03557               0.00     2000.00
03558               2.00     1800.00
03559               4.00     1600.00
03560               4.00     1400.00
03561               4.00     1400.00
03562               2.00     1200.00
03563              -2.00     1200.00
03564               2.00      800.00
03565               2.00      600.00
03566               4.00      400.00
03567               2.00      400.00
03568               2.00      400.00
03569              -2.00        0.00
03570               2.00        0.00
03571               6.00     -200.00
03572              12.00     -400.00
03573              34.00     -400.00
03574               4.00     -600.00
03575             -20.00     -800.00
03576             -14.00    -1000.00
03577              14.00    -1000.00
03578              22.00    -1000.00
03579              68.00    -1200.00
03580             250.00    -1600.00
03581             196.00    -1800.00
03582            -250.00    -2000.00
03583            -250.00    -2400.00
03584             -70.00    -2200.00
03585             250.00    -1800.00
03586             250.00    -2000.00
03587             226.00    -2800.00
03588            -250.00    -2400.00
03589            -196.00    -2800.00
03590             250.00    -3400.00
03591              68.00    -2400.00
03592            -250.00    -3200.00
03593            -220.00    -3600.00
03594            -134.00    -3200.00
03595             250.00    -4000.00
03596             -38.00    -3800.00
03597            -250.00    -3400.00
03598             244.00    -4400.00
03599             154.00    -4200.00
03600             -90.00    -4200.00
03601             -78.00    -4800.00
03602            -198.00    -4200.00
03603             170.00    -4600.00
03604             174.00    -5000.00
03605            -102.00    -4600.00
03606            -204.00    -5400.00
03607            -136.00    -5000.00
03608             250.00    -5400.00
03609             114.00    -5600.00
03610            -180.00    -5600.00
03611            -140.00    -6000.00
03612             -62.00    -5600.00
03613             188.00    -6000.00
03614              44.00    -6200.00
03615            -170.00    -6000.00
03616             -58.00    -6600.00
03617             -24.00    -6200.00
03618              62.00    -6600.00
03619              10.00    -6800.00
03620             -94.00    -6600.00
03621             -60.00    -7200.00
03622              -2.00    -6800.00
03623              42.00    -7200.00
03624             -54.00    -7200.00
03625             -68.00    -7200.00
03626             -12.00    -7600.00
03627             -20.00    -7400.00
03628             -20.00    -7800.00
03629             -30.00    -7600.00
03630             -24.00    -7800.00
03631             -50.00    -8000.00
03632             -50.00    -8000.00
03633             -12.00    -8200.00
03634             -14.00    -8200.00
03635             -38.00    -8200.00
03636             -44.00    -8600.00
03637             -42.00    -8400.00
03638             -50.00    -8400.00
03639             -40.00    -8800.00
03640             -16.00    -8800.00
03641             -28.00    -8800.00
03642             -54.00    -8800.00
03643             -52.00    -9000.00
03644             -38.00    -9000.00
03645             -44.00    -9000.00
03646             -38.00    -9200.00
03647             -30.00    -9200.00
03648             -44.00    -9200.00
03649             -62.00    -9200.00
03650             -54.00    -9400.00
03651             -38.00    -9400.00
03652             -44.00    -9600.00
03653             -52.00    -9600.00
03654             -46.00    -9600.00
03655             -46.00    -9600.00
03656             -60.00    -9600.00
03657             -54.00    -9800.00
03658             -50.00    -9800.00
03659             -58.00    -9800.00
03660             -54.00    -9800.00
03661             -50.00    -9800.00
03662             -52.00    -9800.00
03663             -62.00   -10000.00
03664             -58.00   -10000.00
03665             -58.00    -9800.00
03666             -60.00   -10000.00
03667             -54.00   -10000.00
03668             -50.00   -10000.00
03669             -58.00   -10000.00
03670             -70.00   -10000.00
03671             -68.00   -10200.00
03672             -54.00   -10000.00
03673             -54.00   -10000.00
03674             -52.00   -10000.00
03675             -58.00   -10200.00
03676             -68.00   -10000.00
03677             -74.00   -10000.00
03678             -62.00   -10000.00
03679             -54.00   -10200.00
03680             -60.00   -10000.00
03681             -62.00   -10200.00
03682             -60.00   -10200.00
03683             -66.00   -10000.00
03684             -70.00   -10000.00
03685             -66.00   -10000.00
03686             -52.00   -10000.00
03687             -54.00   -10000.00
03688             -62.00   -10000.00
03689             -70.00   -10000.00
03690             -74.00    -9800.00
03691             -66.00    -9800.00
03692             -58.00    -9800.00
03693             -52.00   -10000.00
03694             -76.00    -9800.00
03695             -98.00    -9800.00
03696             -76.00    -9800.00
03697             -44.00    -9800.00
03698             -36.00    -9600.00
03699             -54.00    -9600.00
03700             -68.00    -9600.00
03701             -56.00    -9400.00
03702             -42.00    -9600.00
03703             -38.00    -9400.00
03704             -54.00    -9200.00
03705             -62.00    -9200.00
03706             -54.00    -9200.00
03707             -38.00    -9200.00
03708             -30.00    -9200.00
03709             -46.00    -9200.00
03710             -58.00    -9000.00
03711             -54.00    -8800.00
03712             -44.00    -8800.00
03713             -30.00    -8800.00
03714             -34.00    -8800.00
03715             -44.00    -8600.00
03716             -46.00    -8400.00
03717             -44.00    -8400.00
03718             -44.00    -8400.00
03719             -36.00    -8200.00
03720             -30.00    -8200.00
03721             -34.00    -8200.00
03722             -38.00    -8000.00
03723             -46.00    -8000.00
03724             -38.00    -8000.00
03725             -28.00    -7600.00
03726             -30.00    -7600.00
03727             -34.00    -7400.00
03728             -38.00    -7400.00
03729             -34.00    -7400.00
03730             -28.00    -7200.00
03731             -28.00    -7000.00
03732             -32.00    -7000.00
03733             -30.00    -6800.00
03734             -28.00    -6800.00
03735             -22.00    -6800.00
03736             -22.00    -6600.00
03737             -30.00    -6400.00
03738             -30.00    -6400.00
03739             -28.00    -6200.00
03740             -22.00    -6000.00
03741             -20.00    -6000.00
03742             -22.00    -5800.00
03743             -28.00    -5800.00
03744             -26.00    -5600.00
03745             -22.00    -5600.00
03746             -18.00    -5400.00
03747             -20.00    -5200.00
03748             -18.00    -5000.00
03749             -22.00    -5000.00
03750             -22.00    -5000.00
03751             -20.00    -4600.00
03752             -14.00    -4600.00
03753             -14.00    -4400.00
03754             -18.00    -4200.00
03755             -18.00    -4200.00
03756             -20.00    -4200.00
03757             -20.00    -4000.00
03758             -14.00    -3800.00
03759             -12.00    -3600.00
03760             -12.00    -3600.00
03761             -12.00    -3400.00
03762             -16.00    -3200.00
03763             -12.00    -3200.00
03764             -12.00    -2800.00
03765             -12.00    -2800.00
03766             -12.00    -2600.00
03767             -14.00    -2600.00
03768             -12.00    -2400.00
03769             -10.00    -2200.00
03770             -12.00    -2000.00
03771             -12.00    -1800.00
03772             -10.00    -1800.00
03773             -12.00    -1600.00
03774              -6.00    -1600.00
03775              -6.00    -1400.00
03776             -10.00    -1200.00
03777             -12.00    -1000.00
03778             -12.00     -800.00
03779              -6.00     -600.00
03780               2.00     -600.00
03781              -2.00     -400.00
03782             -10.00     -400.00
03783              -8.00     -200.00
03784              -6.00        0.00
03785               2.00        0.00
03786              14.00      200.00
03787              34.00      400.00
03788              10.00      400.00
03789             -28.00      600.00
03790             -26.00      800.00
03791              14.00      800.00
03792              30.00     1000.00
03793              14.00     1400.00
03794              66.00     1200.00
03795             250.00     1800.00
03796             158.00     2000.00
03797            -250.00     2000.00
03798            -250.00     2000.00
03799              66.00     2200.00
03800             250.00     2400.00
03801             250.00     2400.00
03802             250.00     2800.00
03803            -250.00     2400.00
03804            -250.00     2800.00
03805             250.00     3200.00
03806             250.00     3000.00
03807            -250.00     3600.00
03808            -172.00     3200.00
03809             -50.00     3600.00
03810             210.00     3800.00
03811             186.00     3800.00
03812            -250.00     4000.00
03813             -68.00     4000.00
03814             250.00     4000.00
03815              62.00     4400.00
03816            -108.00     4600.00
03817            -110.00     4600.00
03818              42.00     4800.00
03819             194.00     4800.00
03820              90.00     5000.00
03821            -194.00     5200.00
03822            -162.00     5200.00
03823             202.00     5600.00
03824             208.00     5600.00
03825             -80.00     5600.00
03826            -146.00     5800.00
03827             -14.00     5800.00
03828             156.00     6200.00
03829             100.00     6200.00
03830             -64.00     6200.00
03831             -54.00     6400.00
03832              24.00     6400.00
03833              76.00     6400.00
03834              58.00     6800.00
03835             -16.00     6800.00
03836             -36.00     6800.00
03837              42.00     7000.00
03838              84.00     7200.00
03839               2.00     7200.00
03840             -22.00     7400.00
03841              42.00     7600.00
03842              50.00     7600.00
03843              10.00     7800.00
03844              16.00     7600.00
03845              42.00     8200.00
03846              28.00     8000.00
03847              10.00     7800.00
03848              26.00     8400.00
03849              40.00     8400.00
03850              34.00     8400.00
03851              34.00     8400.00
03852              32.00     8600.00
03853              12.00     8600.00
03854              18.00     8600.00
03855              54.00     8800.00
03856              56.00     8800.00
03857              20.00     8800.00
03858              20.00     8800.00
03859              36.00     9200.00
03860              38.00     9200.00
03861              38.00     9200.00
03862              50.00     9200.00
03863              44.00     9200.00
03864              26.00     9200.00
03865              30.00     9400.00
03866              50.00     9400.00
03867              48.00     9600.00
03868              38.00     9600.00
03869              46.00     9600.00
03870              46.00     9600.00
03871              38.00     9600.00
03872              48.00     9800.00
03873              58.00    10000.00
03874              42.00    10000.00
03875              42.00     9800.00
03876              54.00    10000.00
03877              60.00    10000.00
03878              46.00    10000.00
03879              44.00    10000.00
03880              52.00    10000.00
03881              50.00     9800.00
03882              52.00    10000.00
03883              62.00    10000.00
03884              58.00    10200.00
03885              46.00    10000.00
03886              50.00    10200.00
03887              56.00    10200.00
03888              58.00    10200.00
03889              58.00    10000.00
03890              60.00    10200.00
03891              54.00    10200.00
03892              46.00    10200.00
03893              52.00    10200.00
03894              62.00    10200.00
03895              62.00    10000.00
03896              58.00    10000.00
03897              58.00    10000.00
03898              54.00    10200.00
03899              52.00    10200.00
03900              58.00    10000.00
03901              64.00    10000.00
03902              58.00    10000.00
03903              54.00    10000.00
03904              56.00    10000.00
03905              54.00    10000.00
03906              52.00     9600.00
03907              62.00    10000.00
03908              76.00     9800.00
03909              80.00     9600.00
03910              68.00     9800.00
03911              46.00     9600.00
03912              38.00     9600.00
03913              44.00     9400.00
03914              54.00     9600.00
03915              52.00     9400.00
03916              42.00     9400.00
03917              38.00     9400.00
03918              44.00     9400.00
03919              50.00     9400.00
03920              36.00     9200.00
03921              36.00     9200.00
03922              38.00     9000.00
03923              46.00     9000.00
03924              42.00     8800.00
03925              36.00     8800.00
03926              30.00     8800.00
03927              34.00     8800.00
03928              38.00     8600.00
03929              42.00     8600.00
03930              34.00     8400.00
03931              30.00     8400.00
03932              30.00     8400.00
03933              30.00     8400.00
03934              36.00     8400.00
03935              34.00     8000.00
03936              30.00     8200.00
03937              30.00     8000.00
03938              26.00     7800.00
03939              28.00     7800.00
03940              28.00     7800.00
03941              26.00     7600.00
03942              30.00     7400.00
03943              28.00     7200.00
03944              22.00     7200.00
03945              22.00     7000.00
03946              22.00     7000.00
03947              26.00     7000.00
03948              22.00     6800.00
03949              24.00     6600.00
03950              26.00     6600.00
03951              20.00     6400.00
03952              20.00     6400.00
03953              20.00     6400.00
03954              20.00     6000.00
03955              20.00     6000.00
03956              20.00     5800.00
03957              20.00     5800.00
03958              18.00     5600.00
03959              12.00     5400.00
03960              14.00     5600.00
03961              18.00     5200.00
03962              18.00     5200.00
03963              18.00     4800.00
03964              12.00     4800.00
03965              10.00     4800.00
03966              10.00     4600.00
03967              12.00     4400.00
03968              14.00     4400.00
03969              12.00     4200.00
03970              10.00     4000.00
03971              10.00     4000.00
03972               8.00     3800.00
03973               6.00     3600.00
03974               6.00     3600.00
03975              10.00     3400.00
03976              12.00     3200.00
03977              12.00     3000.00
03978               4.00     3000.00
03979               2.00     2800.00
03980               4.00     2600.00
03981               6.00     2600.00
03982               6.00     2400.00
03983               4.00     2200.00
03984               4.00     2200.00
03985               4.00     1800.00
03986               0.00     1800.00
03987               4.00     1600.00
03988               6.00     1400.00
03989               2.00     1400.00
03990              -2.00     1400.00
03991               4.00     1000.00
03992               2.00      800.00
03993              -2.00      800.00
03994              -4.00      400.00
03995              -2.00      400.00
03996               4.00      400.00
03997               4.00      200.00
03998              -4.00        0.00
03999              -4.00     -200.00
04000               4.00     -200.00
04001              30.00     -400.00
04002              38.00     -400.00
04003              -8.00     -400.00
04004             -38.00     -800.00
04005             -12.00    -1000.00
04006              28.00    -1000.00
04007              34.00    -1000.00
04008             130.00    -1200.00
04009             250.00    -1600.00
04010               4.00    -1800.00
04011            -250.00    -2000.00
04012            -250.00    -2200.00
04013              68.00    -2400.00
04014             250.00    -1800.00
04015             250.00    -2200.00
04016            -250.00    -2800.00
04017            -250.00    -2400.00
04018             250.00    -3000.00
04019             250.00    -3200.00
04020            -212.00    -2400.00
04021            -250.00    -3400.00
04022            -250.00    -3600.00
04023              34.00    -3200.00
04024             250.00    -4000.00
04025            -250.00    -3600.00
04026            -250.00    -3800.00
04027             250.00    -4400.00
04028              26.00    -4000.00
04029             -68.00    -4400.00
04030            -124.00    -4600.00
04031            -132.00    -4200.00
04032             236.00    -5000.00
04033              86.00    -4800.00
04034            -138.00    -5000.00
04035            -218.00    -5400.00
04036             -42.00    -4800.00
04037             250.00    -5600.00
04038               2.00    -5600.00
04039            -186.00    -5800.00
04040            -130.00    -6000.00
04041              -2.00    -5600.00
04042             202.00    -6000.00
04043             -52.00    -6200.00
04044            -150.00    -6200.00
04045             -38.00    -6600.00
04046             -12.00    -6200.00
04047              74.00    -6800.00
04048             -36.00    -6600.00
04049             -98.00    -6800.00
04050             -44.00    -7200.00
04051              14.00    -6800.00
04052              24.00    -7200.00
04053             -76.00    -7200.00
04054             -46.00    -7200.00
04055             -12.00    -7600.00
04056             -22.00    -7400.00
04057             -22.00    -8000.00
04058             -34.00    -7800.00
04059             -28.00    -8000.00
04060             -54.00    -8000.00
04061             -44.00    -8000.00
04062             -10.00    -8200.00
04063             -20.00    -8200.00
04064             -42.00    -8400.00
04065             -44.00    -8400.00
04066             -38.00    -8400.00
04067             -52.00    -8400.00
04068             -36.00    -8600.00
04069             -12.00    -8800.00
04070             -36.00    -8800.00
04071             -54.00    -8800.00
04072             -52.00    -9000.00
04073             -38.00    -9000.00
04074             -38.00    -9000.00
04075             -36.00    -9200.00
04076             -34.00    -9200.00
04077             -50.00    -9200.00
04078             -62.00    -9400.00
04079             -46.00    -9400.00
04080             -40.00    -9600.00
04081             -46.00    -9600.00
04082             -46.00    -9600.00
04083             -44.00    -9600.00
04084             -46.00    -9600.00
04085             -54.00    -9600.00
04086             -50.00    -9800.00
04087             -52.00    -9600.00
04088             -58.00    -9800.00
04089             -50.00    -9800.00
04090             -44.00   -10000.00
04091             -52.00   -10000.00
04092             -66.00   -10000.00
04093             -60.00   -10000.00
04094             -60.00   -10000.00
04095             -58.00   -10000.00
04096             -50.00   -10000.00
04097             -48.00   -10000.00
04098             -62.00   -10000.00
04099             -72.00   -10000.00
04100             -66.00   -10000.00
04101             -58.00   -10000.00
04102             -52.00   -10000.00
04103             -54.00   -10000.00
04104             -60.00   -10000.00
04105             -70.00   -10000.00
04106             -68.00   -10200.00
04107             -62.00   -10000.00
04108             -58.00   -10200.00
04109             -62.00   -10000.00
04110             -62.00   -10000.00
04111             -66.00   -10000.00
04112             -70.00   -10000.00
04113             -68.00   -10000.00
04114             -62.00   -10000.00
04115             -60.00   -10000.00
04116             -60.00   -10000.00
04117             -62.00   -10000.00
04118             -66.00   -10000.00
04119             -70.00   -10000.00
04120             -66.00   -10000.00
04121             -62.00    -9800.00
04122             -68.00    -9800.00
04123             -82.00    -9800.00
04124             -84.00    -9800.00
04125             -68.00    -9600.00
04126             -46.00    -9600.00
04127             -46.00    -9600.00
04128             -54.00    -9600.00
04129             -60.00    -9600.00
04130             -50.00    -9600.00
04131             -42.00    -9400.00
04132             -46.00    -9600.00
04133             -60.00    -9200.00
04134             -54.00    -9200.00
04135             -38.00    -9200.00
04136             -38.00    -9200.00
04137             -46.00    -9000.00
04138             -52.00    -9000.00
04139             -46.00    -9000.00
04140             -44.00    -9000.00
04141             -36.00    -8800.00
04142             -38.00    -8800.00
04143             -40.00    -8800.00
04144             -42.00    -8600.00
04145             -38.00    -8600.00
04146             -38.00    -8400.00
04147             -42.00    -8400.00
04148             -38.00    -8200.00
04149             -30.00    -8200.00
04150             -30.00    -8200.00
04151             -36.00    -8000.00
04152             -42.00    -8000.00
04153             -36.00    -7600.00
04154             -30.00    -7600.00
04155             -30.00    -7600.00
04156             -32.00    -7600.00
04157             -36.00    -7400.00
04158             -32.00    -7400.00
04159             -30.00    -7200.00
04160             -30.00    -7200.00
04161             -30.00    -7000.00
04162             -28.00    -6800.00
04163             -26.00    -6800.00
04164             -24.00    -6600.00
04165             -30.00    -6400.00
04166             -30.00    -6400.00
04167             -30.00    -6400.00
04168             -28.00    -6000.00
04169             -26.00    -6000.00
04170             -22.00    -6000.00
04171             -26.00    -5800.00
04172             -26.00    -5600.00
04173             -28.00    -5600.00
04174             -28.00    -5200.00
04175             -22.00    -5400.00
04176             -16.00    -5200.00
04177             -16.00    -5000.00
04178             -26.00    -5000.00
04179             -30.00    -4600.00
04180             -22.00    -4800.00
04181             -14.00    -4400.00
04182             -14.00    -4400.00
04183             -18.00    -4200.00
04184             -22.00    -4000.00
04185             -22.00    -4000.00
04186             -22.00    -4000.00
04187             -12.00    -3600.00
04188              -8.00    -3800.00
04189             -12.00    -3400.00
04190             -20.00    -3400.00
04191             -20.00    -3400.00
04192             -14.00    -3000.00
04193             -12.00    -3000.00
04194             -12.00    -2800.00
04195             -12.00    -2800.00
04196             -12.00    -2400.00
04197             -10.00    -2400.00
04198             -10.00    -2200.00
04199             -10.00    -2000.00
04200             -14.00    -2000.00
04201             -12.00    -1800.00
04202              -6.00    -1800.00
04203              -4.00    -1400.00
04204              -2.00    -1200.00
04205             -10.00    -1200.00
04206             -12.00    -1000.00
04207             -10.00     -800.00
04208              -6.00     -800.00
04209              -2.00     -400.00
04210              -2.00     -600.00
04211              -6.00     -200.00
04212              -8.00     -200.00
04213              -4.00        0.00
04214               4.00      200.00
04215              20.00      400.00
04216              36.00      400.00
04217              -4.00      600.00
04218             -30.00      600.00
04219             -16.00      800.00
04220              20.00      800.00
04221              28.00     1000.00
04222              14.00     1200.00
04223             114.00     1400.00
04224             250.00     1800.00
04225               6.00     2000.00
04226            -250.00     1800.00
04227            -250.00     2000.00
04228             206.00     2000.00
04229             250.00     2400.00
04230             250.00     2400.00
04231             180.00     2400.00
04232            -250.00     2400.00
04233            -216.00     2800.00
04234             250.00     3000.00
04235             158.00     3200.00
04236            -250.00     3600.00
04237            -126.00     3200.00
04238              -6.00     3600.00
04239             250.00     3800.00
04240              46.00     3600.00
04241            -250.00     4000.00
04242              58.00     4200.00
04243             250.00     4000.00
04244             -10.00     4400.00
04245            -126.00     4400.00
04246             -92.00     4800.00
04247              98.00     4800.00
04248             200.00     4800.00
04249              20.00     5200.00
04250            -236.00     5200.00
04251             -84.00     5200.00
04252             250.00     5600.00
04253             140.00     5600.00
04254            -124.00     5800.00
04255            -126.00     5800.00
04256              36.00     6000.00
04257             170.00     6200.00
04258              52.00     6000.00
04259             -82.00     6400.00
04260             -30.00     6400.00
04261              40.00     6600.00
04262              76.00     6800.00
04263              42.00     6800.00
04264             -28.00     7000.00
04265             -22.00     7000.00
04266              68.00     7000.00
04267              68.00     7200.00
04268             -16.00     7200.00
04269              -6.00     7400.00
04270              54.00     7600.00
04271              38.00     7800.00
04272               6.00     7800.00
04273              26.00     7800.00
04274              44.00     8000.00
04275              20.00     8200.00
04276              12.00     8200.00
04277              36.00     8400.00
04278              44.00     8400.00
04279              34.00     8400.00
04280              34.00     8400.00
04281              28.00     8600.00
04282               6.00     8600.00
04283              30.00     8600.00
04284              68.00     8800.00
04285              50.00     8800.00
04286              12.00     8800.00
04287              22.00     8800.00
04288              42.00     9200.00
04289              38.00     9200.00
04290              38.00     9200.00
04291              50.00     9200.00
04292              36.00     9200.00
04293              26.00     9200.00
04294              38.00     9400.00
04295              58.00     9400.00
04296              46.00     9400.00
04297              34.00     9600.00
04298              44.00     9600.00
04299              52.00     9600.00
04300              46.00     9600.00
04301              50.00     9800.00
04302              44.00     9800.00
04303              34.00    10000.00
04304              42.00     9800.00
04305              64.00     9800.00
04306              60.00    10000.00
04307              42.00    10000.00
04308              44.00    10000.00
04309              54.00    10000.00
04310              54.00    10000.00
04311              52.00    10200.00
04312              60.00    10000.00
04313              54.00    10200.00
04314              44.00    10000.00
04315              46.00    10200.00
04316              58.00    10200.00
04317              58.00    10000.00
04318              68.00    10200.00
04319              58.00    10000.00
04320              46.00    10200.00
04321              52.00    10200.00
04322              60.00    10000.00
04323              66.00    10400.00
04324              50.00    10000.00
04325              60.00    10000.00
04326              68.00    10000.00
04327              58.00    10000.00
04328              42.00    10000.00
04329              54.00    10000.00
04330              78.00    10000.00
04331              78.00    10000.00
04332              50.00    10000.00
04333              32.00    10000.00
04334              46.00    10000.00
04335              74.00     9800.00
04336              84.00     9800.00
04337              70.00    10000.00
04338              68.00     9600.00
04339              60.00     9800.00
04340              52.00     9600.00
04341              46.00     9600.00
04342              52.00     9600.00
04343              50.00     9400.00
04344              42.00     9400.00
04345              42.00     9400.00
04346              50.00     9400.00
04347              52.00     9200.00
04348              38.00     9200.00
04349              36.00     9200.00
04350              42.00     9200.00
04351              38.00     8800.00
04352              38.00     9000.00
04353              46.00     9000.00
04354              42.00     8800.00
04355              30.00     8800.00
04356              26.00     8600.00
04357              36.00     8600.00
04358              40.00     8600.00
04359              38.00     8600.00
04360              30.00     8400.00
04361              26.00     8200.00
04362              26.00     8200.00
04363              34.00     8000.00
04364              36.00     8000.00
04365              28.00     8000.00
04366              22.00     7800.00
04367              22.00     7800.00
04368              28.00     7600.00
04369              30.00     7600.00
04370              28.00     7400.00
04371              26.00     7600.00
04372              20.00     7200.00
04373              22.00     7200.00
04374              22.00     7200.00
04375              22.00     7000.00
04376              18.00     6800.00
04377              20.00     6800.00
04378              26.00     6800.00
04379              20.00     6400.00
04380              14.00     6400.00
04381              20.00     6400.00
04382              22.00     6200.00
04383              22.00     6200.00
04384              20.00     6000.00
04385              18.00     6000.00
04386              14.00     5600.00
04387              12.00     5600.00
04388              18.00     5400.00
04389              20.00     5400.00
04390              14.00     5200.00
04391              10.00     5200.00
04392              14.00     4800.00
04393              18.00     4800.00
04394              14.00     4800.00
04395              10.00     4600.00
04396              12.00     4400.00
04397              14.00     4400.00
04398              12.00     4000.00
04399              12.00     4000.00
04400               8.00     3800.00
04401               6.00     3800.00
04402              10.00     3800.00
04403              10.00     3400.00
04404              10.00     3400.00
04405              10.00     3200.00
04406              10.00     3000.00
04407               6.00     3000.00
04408               4.00     2800.00
04409               4.00     2600.00
04410               6.00     2600.00
04411               8.00     2400.00
04412              10.00     2200.00
04413               6.00     2200.00
04414               2.00     2000.00
04415              -4.00     2000.00
04416              -2.00     1600.00
04417               6.00     1400.00
04418               6.00     1400.00
04419               4.00     1200.00
04420              -4.00     1000.00
04421              -6.00      800.00
04422              -2.00      600.00
04423               4.00      400.00
04424               2.00      400.00
04425               2.00      200.00
04426              -2.00        0.00
04427              -2.00        0.00
04428               2.00     -200.00
04429              10.00     -200.00
04430              30.00     -400.00
04431              22.00     -400.00
04432             -18.00     -800.00
04433             -28.00     -800.00
04434               6.00    -1000.00
04435              28.00    -1000.00
04436              32.00    -1200.00
04437             202.00    -1200.00
04438             250.00    -1600.00
04439            -206.00    -2000.00
04440            -250.00    -2000.00
04441            -250.00    -2400.00
04442             174.00    -2200.00
04443             250.00    -1800.00
04444             250.00    -2400.00
04445            -250.00    -2800.00
04446            -250.00    -2400.00
04447             250.00    -3200.00
04448             250.00    -2800.00
04449            -250.00    -2600.00
04450            -210.00    -3800.00
04451            -250.00    -3200.00
04452             226.00    -3400.00
04453             250.00    -4000.00
04454            -250.00    -3600.00
04455             -98.00    -4000.00
04456             250.00    -4400.00
04457             -62.00    -4000.00
04458             -44.00    -4800.00
04459            -172.00    -4200.00
04460             -28.00    -4400.00
04461             250.00    -5000.00
04462               2.00    -4800.00
04463            -166.00    -5200.00
04464            -214.00    -5200.00
04465              78.00    -5000.00
04466             250.00    -5800.00
04467             -94.00    -5400.00
04468            -170.00    -5600.00
04469            -118.00    -6000.00
04470              74.00    -5600.00
04471             178.00    -6200.00
04472            -118.00    -6000.00
04473            -114.00    -6200.00
04474             -32.00    -6600.00
04475              14.00    -6400.00
04476              66.00    -6800.00
04477             -70.00    -6600.00
04478             -90.00    -7000.00
04479             -26.00    -7200.00
04480              36.00    -7000.00
04481              -2.00    -7400.00
04482             -86.00    -7200.00
04483             -34.00    -7400.00
04484             -12.00    -7600.00
04485             -14.00    -7600.00
04486             -22.00    -8000.00
04487             -30.00    -7800.00
04488             -38.00    -8000.00
04489             -62.00    -8000.00
04490             -26.00    -8000.00
04491              -6.00    -8200.00
04492             -28.00    -8200.00
04493             -48.00    -8400.00
04494             -38.00    -8400.00
04495             -44.00    -8800.00
04496             -50.00    -8800.00
04497             -28.00    -8600.00
04498             -14.00    -8800.00
04499             -42.00    -8800.00
04500             -54.00    -9000.00
04501             -46.00    -9000.00
04502             -42.00    -9000.00
04503             -40.00    -9200.00
04504             -30.00    -9200.00
04505             -34.00    -9200.00
04506             -58.00    -9200.00
04507             -66.00    -9200.00
04508             -44.00    -9400.00
04509             -38.00    -9600.00
04510             -48.00    -9600.00
04511             -50.00    -9600.00
04512             -44.00    -9600.00
04513             -52.00    -9800.00
04514             -52.00    -9600.00
04515             -46.00    -9800.00
04516             -52.00    -9800.00
04517             -60.00    -9800.00
04518             -54.00    -9800.00
04519             -46.00   -10000.00
04520             -56.00   -10000.00
04521             -62.00   -10000.00
04522             -58.00   -10000.00
04523             -58.00   -10000.00
04524             -58.00   -10000.00
04525             -46.00   -10000.00
04526             -50.00   -10000.00
04527             -62.00   -10000.00
04528             -74.00   -10000.00
04529             -62.00   -10200.00
04530             -54.00   -10000.00
04531             -50.00   -10000.00
04532             -54.00   -10000.00
04533             -66.00   -10200.00
04534             -72.00   -10400.00
04535             -70.00   -10000.00
04536             -58.00   -10000.00
04537             -54.00   -10200.00
04538             -60.00   -10000.00
04539             -62.00   -10000.00
04540             -66.00   -10000.00
04541             -70.00   -10000.00
04542             -66.00   -10000.00
04543             -58.00   -10000.00
04544             -58.00   -10000.00
04545             -62.00   -10000.00
04546             -66.00   -10000.00
04547             -62.00   -10000.00
04548             -68.00    -9800.00
04549             -66.00   -10000.00
04550             -66.00    -9800.00
04551             -72.00    -9800.00
04552             -84.00    -9800.00
04553             -78.00    -9800.00
04554             -62.00    -9800.00
04555             -46.00    -9800.00
04556             -52.00    -9800.00
04557             -58.00    -9600.00
04558             -54.00    -9600.00
04559             -50.00    -9600.00
04560             -44.00    -9600.00
04561             -50.00    -9200.00
04562             -62.00    -9200.00
04563             -54.00    -9200.00
04564             -36.00    -9200.00
04565             -40.00    -9200.00
04566             -48.00    -9000.00
04567             -52.00    -9000.00
04568             -48.00    -8800.00
04569             -44.00    -8800.00
04570             -38.00    -9000.00
04571             -38.00    -8800.00
04572             -44.00    -8800.00
04573             -44.00    -8800.00
04574             -40.00    -8400.00
04575             -40.00    -8200.00
04576             -42.00    -8400.00
04577             -36.00    -8200.00
04578             -30.00    -8000.00
04579             -34.00    -8200.00
04580             -38.00    -8000.00
04581             -42.00    -8000.00
04582             -34.00    -7800.00
04583             -34.00    -7800.00
04584             -30.00    -7600.00
04585             -34.00    -7400.00
04586             -36.00    -7400.00
04587             -34.00    -7400.00
04588             -30.00    -7200.00
04589             -30.00    -7000.00
04590             -28.00    -6800.00
04591             -22.00    -6800.00
04592             -22.00    -6800.00
04593             -28.00    -6600.00
04594             -28.00    -6400.00
04595             -28.00    -6400.00
04596             -26.00    -6400.00
04597             -26.00    -6000.00
04598             -22.00    -6200.00
04599             -24.00    -6000.00
04600             -26.00    -5800.00
04601             -22.00    -5600.00
04602             -22.00    -5600.00
04603             -24.00    -5400.00
04604             -22.00    -5200.00
04605             -14.00    -5200.00
04606             -18.00    -5000.00
04607             -22.00    -4800.00
04608             -26.00    -4600.00
04609             -20.00    -4600.00
04610             -16.00    -4400.00
04611             -14.00    -4400.00
04612             -14.00    -4200.00
04613             -20.00    -4200.00
04614             -22.00    -4000.00
04615             -20.00    -3800.00
04616             -18.00    -3800.00
04617             -14.00    -3600.00
04618             -12.00    -3400.00
04619             -12.00    -3400.00
04620             -14.00    -3200.00
04621             -20.00    -3000.00
04622             -14.00    -2800.00
04623             -12.00    -2800.00
04624             -10.00    -2600.00
04625             -10.00    -2600.00
04626             -12.00    -2200.00
04627             -18.00    -2400.00
04628             -12.00    -2000.00
04629              -6.00    -1800.00
04630              -6.00    -1800.00
04631             -12.00    -1600.00
04632             -14.00    -1400.00
04633              -8.00    -1200.00
04634              -4.00    -1000.00
04635             -12.00    -1000.00
04636             -12.00     -800.00
04637             -10.00     -800.00
04638              -4.00     -600.00
04639              -4.00     -400.00
04640              -2.00     -200.00
04641              -6.00     -200.00
04642              -4.00        0.00
04643              -2.00      200.00
04644              28.00      400.00
04645              36.00      400.00
04646             -10.00      600.00
04647             -36.00      600.00
04648              -6.00      800.00
04649              24.00     1000.00
04650              22.00     1000.00
04651              26.00     1400.00
04652             178.00     1400.00
04653             250.00     1800.00
04654            -162.00     1800.00
04655            -250.00     2000.00
04656            -250.00     2000.00
04657             250.00     2200.00
04658             250.00     2400.00
04659             250.00     2800.00
04660             -36.00     2600.00
04661            -250.00     2600.00
04662              94.00     3000.00
04663             250.00     2800.00
04664             -68.00     3400.00
04665            -250.00     3400.00
04666             -90.00     3200.00
04667              62.00     3600.00
04668             250.00     4000.00
04669            -106.00     3800.00
04670            -250.00     4200.00
04671             170.00     4400.00
04672             204.00     4000.00
04673             -62.00     4400.00
04674            -132.00     4600.00
04675             -50.00     4800.00
04676             148.00     4800.00
04677             182.00     5000.00
04678             -62.00     5200.00
04679            -246.00     5200.00
04680              20.00     5400.00
04681             250.00     5600.00
04682              58.00     5600.00
04683            -150.00     5800.00
04684             -96.00     5800.00
04685              86.00     6000.00
04686             158.00     6200.00
04687               4.00     6200.00
04688             -84.00     6400.00
04689             -10.00     6400.00
04690              58.00     6600.00
04691              74.00     6800.00
04692              16.00     6800.00
04693             -42.00     6800.00
04694               2.00     7000.00
04695              82.00     7200.00
04696              46.00     7200.00
04697             -28.00     7200.00
04698              14.00     7400.00
04699              58.00     7600.00
04700              26.00     7600.00
04701               2.00     7800.00
04702              30.00     8000.00
04703              38.00     8000.00
04704              14.00     8200.00
04705              14.00     8200.00
04706              38.00     8400.00
04707              42.00     8400.00
04708              34.00     8400.00
04709              34.00     8400.00
04710              20.00     8600.00
04711               8.00     8600.00
04712              42.00     8600.00
04713              66.00     8800.00
04714              36.00     9000.00
04715               6.00     8800.00
04716              28.00     8800.00
04717              46.00     9200.00
04718              42.00     9200.00
04719              46.00     9200.00
04720              46.00     9200.00
04721              32.00     9200.00
04722              28.00     9400.00
04723              46.00     9400.00
04724              54.00     9400.00
04725              38.00     9600.00
04726              36.00     9600.00
04727              52.00     9600.00
04728              46.00     9600.00
04729              44.00     9600.00
04730              50.00     9800.00
04731              44.00     9800.00
04732              36.00    10000.00
04733              52.00    10000.00
04734              68.00    10000.00
04735              56.00    10000.00
04736              36.00    10000.00
04737              44.00    10000.00
04738              58.00    10000.00
04739              54.00    10000.00
04740              58.00    10000.00
04741              62.00    10200.00
04742              50.00    10000.00
04743              44.00    10000.00
04744              52.00    10000.00
04745              60.00    10000.00
04746              58.00    10200.00
04747              58.00    10000.00
04748              58.00    10200.00
04749              46.00    10000.00
04750              50.00    10000.00
04751              62.00    10000.00
04752              66.00    10200.00
04753              58.00    10000.00
04754              58.00    10200.00
04755              58.00    10000.00
04756              58.00    10000.00
04757              54.00    10000.00
04758              58.00    10200.00
04759              58.00    10000.00
04760              54.00    10000.00
04761              58.00    10000.00
04762              58.00    10000.00
04763              54.00     9800.00
04764              52.00     9600.00
04765              66.00     9800.00
04766              82.00     9800.00
04767              78.00     9800.00
04768              54.00     9600.00
04769              38.00     9600.00
04770              36.00     9600.00
04771              50.00     9600.00
04772              54.00     9600.00
04773              50.00     9400.00
04774              38.00     9400.00
04775              42.00     9400.00
04776              44.00     9400.00
04777              44.00     9200.00
04778              38.00     9200.00
04779              42.00     9200.00
04780              44.00     9000.00
04781              44.00     9000.00
04782              34.00     9000.00
04783              32.00     8800.00
04784              34.00     8800.00
04785              38.00     8600.00
04786              38.00     8600.00
04787              36.00     8600.00
04788              30.00     8400.00
04789              30.00     8400.00
04790              36.00     8200.00
04791              34.00     8400.00
04792              28.00     8200.00
04793              28.00     8000.00
04794              34.00     7800.00
04795              30.00     7800.00
04796              26.00     7800.00
04797              26.00     8000.00
04798              26.00     7600.00
04799              28.00     7600.00
04800              28.00     7400.00
04801              26.00     7200.00
04802              20.00     7200.00
04803              22.00     7200.00
04804              26.00     7000.00
04805              22.00     7000.00
04806              22.00     6800.00
04807              22.00     6600.00
04808              22.00     6600.00
04809              20.00     6400.00
04810              14.00     6200.00
04811              18.00     6200.00
04812              22.00     6000.00
04813              20.00     6000.00
04814              18.00     6000.00
04815              14.00     5600.00
04816              14.00     5600.00
04817              18.00     5400.00
04818              12.00     5200.00
04819              14.00     5200.00
04820              16.00     5000.00
04821              18.00     4800.00
04822              12.00     4800.00
04823               6.00     4800.00
04824              10.00     4600.00
04825              10.00     4400.00
04826              16.00     4400.00
04827              16.00     4000.00
04828              10.00     4000.00
04829               4.00     3800.00
04830               4.00     3800.00
04831              10.00     3600.00
04832              14.00     3400.00
04833              10.00     3400.00
04834               4.00     3200.00
04835              10.00     3000.00
04836               6.00     2800.00
04837               4.00     2800.00
04838               4.00     2600.00
04839               4.00     2400.00
04840              10.00     2400.00
04841               6.00     2200.00
04842               4.00     2000.00
04843               2.00     2000.00
04844               2.00     1800.00
04845               6.00     1600.00
04846               6.00     1600.00
04847               4.00     1200.00
04848               2.00     1200.00
04849               2.00     1000.00
04850               2.00      800.00
04851               2.00      600.00
04852               2.00      600.00
04853              -2.00      400.00
04854               4.00      400.00
04855               2.00        0.00
04856               2.00        0.00
04857               2.00     -200.00
04858              12.00     -200.00
04859              38.00     -400.00
04860              18.00     -400.00
04861             -22.00     -800.00
04862             -26.00     -800.00
04863              12.00    -1000.00
04864              30.00    -1200.00
04865              46.00    -1200.00
04866             250.00    -1400.00
04867             250.00    -1800.00
04868            -250.00    -2000.00
04869            -250.00    -2000.00
04870            -202.00    -2400.00
04871             250.00    -2000.00
04872             250.00    -1800.00
04873             250.00    -2800.00
04874            -250.00    -2600.00
04875            -250.00    -2800.00
04876             250.00    -3400.00
04877             250.00    -2400.00
04878            -250.00    -2800.00
04879            -196.00    -4000.00
04880            -230.00    -3400.00
04881             250.00    -3600.00
04882             186.00    -4000.00
04883            -250.00    -3400.00
04884             110.00    -4200.00
04885             246.00    -4200.00
04886            -100.00    -4200.00
04887             -46.00    -4800.00
04888            -198.00    -4200.00
04889              84.00    -4600.00
04890             226.00    -5000.00
04891             -68.00    -4800.00
04892            -186.00    -5400.00
04893            -188.00    -5000.00
04894             186.00    -5200.00
04895             194.00    -5800.00
04896            -160.00    -5400.00
04897            -152.00    -6000.00
04898             -94.00    -5800.00
04899             146.00    -5800.00
04900             114.00    -6400.00
04901            -164.00    -6000.00
04902             -82.00    -6400.00
04903             -30.00    -6400.00
04904              42.00    -6400.00
04905              38.00    -6800.00
04906             -88.00    -6400.00
04907             -74.00    -7000.00
04908             -20.00    -6800.00
04909              42.00    -7000.00
04910             -28.00    -7400.00
04911             -76.00    -7400.00
04912             -22.00    -7600.00
04913             -18.00    -7600.00
04914             -22.00    -7600.00
04915             -34.00    -8000.00
04916             -22.00    -7800.00
04917             -38.00    -8000.00
04918             -60.00    -8000.00
04919             -22.00    -8200.00
04920             -12.00    -8200.00
04921             -30.00    -8200.00
04922             -46.00    -8400.00
04923             -36.00    -8400.00
04924             -42.00    -8600.00
04925             -48.00    -8400.00
04926             -26.00    -8400.00
04927             -22.00    -8800.00
04928             -44.00    -8800.00
04929             -50.00    -9000.00
04930             -46.00    -9000.00
04931             -44.00    -9000.00
04932             -40.00    -9200.00
04933             -30.00    -9000.00
04934             -34.00    -9200.00
04935             -54.00    -9200.00
04936             -60.00    -9600.00
04937             -44.00    -9400.00
04938             -44.00    -9400.00
04939             -46.00    -9600.00
04940             -44.00    -9600.00
04941             -50.00    -9600.00
04942             -56.00    -9800.00
04943             -52.00    -9600.00
04944             -50.00    -9600.00
04945             -58.00    -9800.00
04946             -58.00    -9800.00
04947             -46.00    -9800.00
04948             -52.00    -9800.00
04949             -60.00    -9800.00
04950             -66.00   -10000.00
04951             -54.00   -10000.00
04952             -58.00   -10000.00
04953             -58.00   -10000.00
04954             -52.00   -10000.00
04955             -54.00   -10000.00
04956             -66.00   -10200.00
04957             -66.00   -10000.00
04958             -62.00   -10000.00
04959             -58.00   -10000.00
04960             -58.00   -10000.00
04961             -60.00   -10000.00
04962             -62.00   -10000.00
04963             -70.00   -10000.00
04964             -68.00   -10000.00
04965             -60.00   -10000.00
04966             -60.00   -10000.00
04967             -64.00   -10000.00
04968             -62.00   -10000.00
04969             -66.00   -10000.00
04970             -70.00   -10000.00
04971             -68.00   -10000.00
04972             -58.00   -10000.00
04973             -60.00   -10000.00
04974             -62.00   -10000.00
04975             -62.00   -10000.00
04976             -62.00   -10000.00
04977             -66.00    -9800.00
04978             -62.00    -9800.00
04979             -62.00    -9800.00
04980             -76.00    -9800.00
04981             -86.00    -9800.00
04982             -70.00    -9800.00
04983             -50.00    -9800.00
04984             -46.00    -9800.00
04985             -54.00    -9600.00
04986             -62.00    -9600.00
04987             -54.00    -9400.00
04988             -38.00    -9600.00
04989             -42.00    -9400.00
04990             -60.00    -9200.00
04991             -62.00    -9000.00
04992             -44.00    -9200.00
04993             -30.00    -9200.00
04994             -36.00    -9200.00
04995             -50.00    -9000.00
04996             -54.00    -9000.00
04997             -46.00    -9000.00
04998             -38.00    -8800.00
04999             -34.00    -8800.00
05000             -38.00    -8800.00
