Unit:(mV)
                     CH1         CH2
Frequency              ? 300.083 kHz
00001              22.20    -6400.00
00002             -25.00    -7200.00
00003             -24.40    -8000.00
00004              25.00    -8000.00
00005              -6.20    -8000.00
00006             -25.00    -8800.00
00007              25.00    -8800.00
00008              25.00   -10400.00
00009             -25.00   -10400.00
00010              25.00   -11200.00
00011              25.00   -11200.00
00012             -25.00   -12800.00
00013              25.00   -13600.00
00014             -22.20   -12800.00
00015               6.20   -14400.00
00016              14.20   -14400.00
00017             -25.00   -14400.00
00018              25.00   -16000.00
00019              -8.60   -16000.00
00020             -24.40   -16800.00
00021              25.00   -16800.00
00022              -1.20   -17600.00
00023             -25.00   -17600.00
00024              23.40   -18400.00
00025               8.20   -19200.00
00026             -25.00   -19200.00
00027              25.00   -20000.00
00028              -0.60   -20800.00
00029             -16.40   -21600.00
00030              21.40   -20800.00
00031             -10.80   -22400.00
00032              -6.00   -23200.00
00033              13.60   -22400.00
00034              -4.20   -23200.00
00035              -4.40   -24000.00
00036              15.60   -24800.00
00037             -10.00   -24000.00
00038              -0.40   -24800.00
00039              11.40   -25600.00
00040             -10.20   -25600.00
00041               5.80   -25600.00
00042               5.20   -26400.00
00043              -4.40   -26400.00
00044               2.80   -27200.00
00045               3.80   -27200.00
00046              -2.60   -27200.00
00047               2.80   -28000.00
00048               3.60   -28800.00
00049              -3.80   -28800.00
00050               4.00   -28800.00
00051               1.40   -28800.00
00052              -1.40   -28800.00
00053               5.20   -29600.00
00054               1.20   -29600.00
00055              -1.20   -29600.00
00056               4.40   -30400.00
00057              -0.20   -30400.00
00058              -0.60   -31200.00
00059               3.60   -31200.00
00060               0.20   -30400.00
00061               1.80   -30400.00
00062               2.00   -32000.00
00063               0.40   -32000.00
00064               1.00   -32000.00
00065               1.80   -32000.00
00066               1.40   -32800.00
00067               0.60   -32000.00
00068               2.40   -32000.00
00069               0.60   -32000.00
00070               1.00   -32000.00
00071               2.00   -32000.00
00072               0.40   -32000.00
00073               2.60   -32000.00
00074               1.00   -32800.00
00075               1.00   -32000.00
00076               2.00   -32000.00
00077               0.40   -32000.00
00078               1.40   -32000.00
00079               2.20   -32000.00
00080               1.00   -32000.00
00081               0.80   -32000.00
00082               1.40   -32000.00
00083               1.40   -32000.00
00084               0.60   -32000.00
00085               2.00   -32000.00
00086               1.60   -31200.00
00087               1.00   -31200.00
00088               1.60   -30400.00
00089               1.20   -30400.00
00090               1.60   -30400.00
00091               1.60   -29600.00
00092               0.80   -30400.00
00093               1.40   -29600.00
00094               1.40   -29600.00
00095               0.60   -28800.00
00096               1.80   -29600.00
00097               1.20   -28800.00
00098               1.20   -28800.00
00099               1.40   -28800.00
00100               1.00   -28000.00
00101               1.40   -27200.00
00102               1.20   -28000.00
00103               1.00   -27200.00
00104               1.40   -26400.00
00105               1.80   -26400.00
00106               0.60   -26400.00
00107               0.60   -25600.00
00108               2.20   -25600.00
00109               0.60   -25600.00
00110               0.20   -24800.00
00111               2.60   -24000.00
00112               1.40   -24000.00
00113               0.20   -23200.00
00114               0.40   -23200.00
00115               1.40   -22400.00
00116               1.20   -22400.00
00117              -1.00   -21600.00
00118               2.60   -20800.00
00119               2.00   -20800.00
00120              -0.60   -20800.00
00121               2.00   -20000.00
00122               0.60   -19200.00
00123              -1.80   -18400.00
00124               1.20   -18400.00
00125               1.60   -17600.00
00126              -0.40   -16800.00
00127               1.20   -16800.00
00128               1.20   -16800.00
00129              -0.60   -16000.00
00130               1.00   -15200.00
00131               0.40   -14400.00
00132              -0.20   -14400.00
00133               1.40   -13600.00
00134               0.20   -12800.00
00135              -0.20   -12000.00
00136               0.20   -12000.00
00137               0.20   -11200.00
00138               1.00   -10400.00
00139              -0.20   -10400.00
00140              -0.60    -9600.00
00141              -0.20    -9600.00
00142              -0.20    -8000.00
00143               0.20    -8000.00
00144               0.40    -8000.00
00145               0.40    -6400.00
00146              -0.60    -6400.00
00147              -0.20    -5600.00
00148               0.20    -4800.00
00149              -0.60    -4800.00
00150              -1.00    -4000.00
00151              -0.20    -3200.00
00152               0.40    -2400.00
00153              -0.20    -1600.00
00154              -0.20    -1600.00
00155               0.20     -800.00
00156              -0.60     -800.00
00157              -0.60      800.00
00158               0.40        0.00
00159               1.00     1600.00
00160               2.80     1600.00
00161              -2.20     2400.00
00162               0.00     2400.00
00163               1.40     3200.00
00164              -1.00     4800.00
00165               0.40     4800.00
00166              14.60     5600.00
00167              25.00     7200.00
00168             -25.00     8000.00
00169             -25.00     8000.00
00170              25.00     8000.00
00171             -11.40     8800.00
00172             -25.00     8800.00
00173              25.00     9600.00
00174             -25.00     9600.00
00175             -25.00    11200.00
00176              25.00    12000.00
00177             -25.00    11200.00
00178              18.00    12800.00
00179              25.00    12800.00
00180             -25.00    12800.00
00181              25.00    14400.00
00182             -25.00    14400.00
00183              -5.40    15200.00
00184              25.00    16000.00
00185             -25.00    16000.00
00186              21.80    16800.00
00187              25.00    17600.00
00188             -25.00    18400.00
00189              -9.20    18400.00
00190              25.00    19200.00
00191             -25.00    19200.00
00192              -7.80    20000.00
00193              25.00    20800.00
00194             -25.00    21600.00
00195              14.60    21600.00
00196               5.00    21600.00
00197             -24.60    22400.00
00198              14.00    22400.00
00199               0.40    23200.00
00200             -11.60    23200.00
00201               9.00    24000.00
00202               2.80    24800.00
00203             -19.40    24800.00
00204              14.60    25600.00
00205              -7.40    25600.00
00206              -9.00    26400.00
00207              11.40    26400.00
00208              -9.00    27200.00
00209              -1.80    27200.00
00210               1.80    27200.00
00211              -2.80    28000.00
00212              -5.00    28000.00
00213               3.40    28800.00
00214              -4.40    28800.00
00215              -4.40    28800.00
00216               2.80    29600.00
00217              -6.00    30400.00
00218              -0.80    30400.00
00219               1.80    29600.00
00220              -5.20    30400.00
00221              -0.60    30400.00
00222              -0.60    31200.00
00223              -5.80    31200.00
00224               0.60    31200.00
00225              -2.00    31200.00
00226              -3.40    32000.00
00227               1.00    31200.00
00228              -2.40    32800.00
00229              -2.80    32800.00
00230              -2.00    32800.00
00231              -2.00    32000.00
00232              -2.00    32800.00
00233              -1.80    32800.00
00234              -1.20    32000.00
00235              -3.00    32800.00
00236              -0.20    32800.00
00237              -2.80    33600.00
00238              -2.20    33600.00
00239              -0.60    32800.00
00240              -3.60    32800.00
00241               0.20    32800.00
00242              -2.20    32800.00
00243              -3.40    32800.00
00244              -0.40    32000.00
00245              -2.20    33600.00
00246              -2.00    32000.00
00247              -2.00    32800.00
00248              -2.60    32800.00
00249              -2.00    32000.00
00250              -1.80    32000.00
00251              -1.80    32800.00
00252              -2.00    32000.00
00253              -1.80    32000.00
00254              -2.00    32000.00
00255              -2.00    31200.00
00256              -2.00    31200.00
00257              -2.60    31200.00
00258              -1.80    31200.00
00259              -1.20    30400.00
00260              -2.40    30400.00
00261              -1.80    30400.00
00262              -2.20    30400.00
00263              -2.20    30400.00
00264              -1.80    29600.00
00265              -2.00    28800.00
00266              -2.00    28800.00
00267              -2.00    28800.00
00268              -1.80    28800.00
00269              -1.80    28000.00
00270              -2.00    27200.00
00271              -1.80    27200.00
00272              -2.20    27200.00
00273              -1.40    27200.00
00274              -1.80    26400.00
00275              -2.60    25600.00
00276              -1.40    25600.00
00277              -1.80    25600.00
00278              -1.80    24800.00
00279              -1.20    24000.00
00280              -2.40    24000.00
00281              -1.40    24000.00
00282              -1.20    23200.00
00283              -1.80    22400.00
00284              -1.60    22400.00
00285              -1.40    21600.00
00286              -1.20    21600.00
00287              -1.80    20800.00
00288              -1.40    20800.00
00289              -1.80    19200.00
00290              -1.40    19200.00
00291              -0.80    18400.00
00292              -1.80    17600.00
00293              -1.40    17600.00
00294              -1.20    16800.00
00295              -1.40    16000.00
00296              -0.60    16000.00
00297              -1.60    15200.00
00298              -1.20    15200.00
00299              -0.80    14400.00
00300              -1.40    14400.00
00301              -1.00    13600.00
00302              -1.20    12800.00
00303              -1.40    12000.00
00304              -0.60    12000.00
00305              -0.60    11200.00
00306              -1.00    10400.00
00307              -1.20     9600.00
00308              -0.60     9600.00
00309              -0.80     8800.00
00310              -1.20     8800.00
00311              -0.40     8000.00
00312              -1.00     7200.00
00313              -1.00     7200.00
00314              -0.40     6400.00
00315              -0.60     5600.00
00316              -0.60     4800.00
00317              -0.60     4800.00
00318              -0.60     3200.00
00319              -0.60     3200.00
00320              -1.00     1600.00
00321              -1.20     1600.00
00322              -0.40      800.00
00323              -0.60        0.00
00324              -0.40        0.00
00325               0.40     -800.00
00326               3.40     -800.00
00327              -0.40    -1600.00
00328              -1.20    -2400.00
00329               1.80    -2400.00
00330               0.40    -3200.00
00331              -0.40    -4000.00
00332               2.00    -4000.00
00333              11.60    -4800.00
00334              25.00    -6400.00
00335             -23.80    -8000.00
00336             -25.00    -8000.00
00337              20.20    -8000.00
00338               9.00    -8800.00
00339             -25.00    -8800.00
00340              16.80    -8800.00
00341              25.00   -10400.00
00342             -25.00    -9600.00
00343              18.60   -11200.00
00344              25.00   -11200.00
00345             -25.00   -12000.00
00346              25.00   -12800.00
00347               2.60   -12800.00
00348             -13.80   -13600.00
00349              25.00   -14400.00
00350             -25.00   -14400.00
00351              25.00   -16000.00
00352              13.00   -16000.00
00353             -25.00   -16800.00
00354              25.00   -17600.00
00355              13.20   -17600.00
00356             -25.00   -17600.00
00357              10.00   -18400.00
00358              22.80   -19200.00
00359             -25.00   -20000.00
00360              19.60   -20000.00
00361              15.20   -20800.00
00362             -23.60   -20800.00
00363              18.60   -22400.00
00364              -2.40   -21600.00
00365             -12.40   -22400.00
00366              12.40   -22400.00
00367               1.60   -23200.00
00368              -8.20   -24000.00
00369              15.00   -24000.00
00370              -3.40   -24000.00
00371              -7.80   -24800.00
00372              14.20   -25600.00
00373              -8.40   -26400.00
00374               0.40   -25600.00
00375               8.60   -26400.00
00376              -3.80   -26400.00
00377               0.40   -27200.00
00378               5.80   -27200.00
00379              -1.20   -27200.00
00380              -0.20   -28800.00
00381               5.40   -28800.00
00382              -2.80   -28000.00
00383               1.40   -28800.00
00384               4.00   -28800.00
00385              -2.40   -28800.00
00386               3.00   -29600.00
00387               3.60   -29600.00
00388              -2.20   -29600.00
00389               2.60   -29600.00
00390               2.20   -30400.00
00391              -1.80   -30400.00
00392               2.60   -30400.00
00393               1.80   -31200.00
00394               1.00   -31200.00
00395               2.60   -32000.00
00396               0.40   -32000.00
00397               0.20   -32000.00
00398               2.20   -32000.00
00399               1.40   -32000.00
00400               0.20   -32000.00
00401               2.60   -32000.00
00402               1.00   -32000.00
00403               0.40   -32000.00
00404               2.60   -32000.00
00405               0.20   -32000.00
00406               1.40   -32000.00
00407               2.00   -32800.00
00408               0.20   -32000.00
00409               1.80   -32000.00
00410               1.00   -32000.00
00411               1.00   -32000.00
00412               2.20   -32800.00
00413               1.40   -32000.00
00414               1.00   -32000.00
00415               1.40   -32000.00
00416               1.40   -32000.00
00417               1.00   -32000.00
00418               1.40   -31200.00
00419               1.40   -32000.00
00420               1.00   -32000.00
00421               1.80   -31200.00
00422               1.40   -30400.00
00423               1.00   -30400.00
00424               1.40   -30400.00
00425               1.00   -30400.00
00426               1.40   -29600.00
00427               1.80   -29600.00
00428               1.40   -29600.00
00429               1.40   -28800.00
00430               1.20   -28800.00
00431               1.40   -28800.00
00432               1.60   -28800.00
00433               0.60   -28800.00
00434               1.40   -28800.00
00435               1.40   -27200.00
00436               1.20   -28000.00
00437               1.00   -27200.00
00438               1.00   -27200.00
00439               1.20   -26400.00
00440               1.20   -25600.00
00441               1.20   -25600.00
00442               1.20   -25600.00
00443               1.20   -24800.00
00444               1.20   -24000.00
00445               1.00   -24000.00
00446               1.00   -23200.00
00447               0.40   -23200.00
00448               1.00   -23200.00
00449               1.20   -22400.00
00450               0.20   -22400.00
00451               0.40   -20800.00
00452               1.20   -20800.00
00453               0.40   -20000.00
00454               1.00   -20800.00
00455               1.00   -19200.00
00456               0.20   -18400.00
00457               0.60   -19200.00
00458               0.60   -17600.00
00459               0.20   -17600.00
00460               0.60   -16800.00
00461               0.60   -16800.00
00462               0.20   -16000.00
00463               0.40   -15200.00
00464               0.40   -15200.00
00465               0.40   -14400.00
00466               0.40   -13600.00
00467               0.20   -13600.00
00468               0.20   -12800.00
00469               0.60   -12000.00
00470              -0.40   -11200.00
00471               0.40   -11200.00
00472               0.40   -10400.00
00473              -0.40    -9600.00
00474               0.40    -9600.00
00475              -0.40    -9600.00
00476              -0.60    -8000.00
00477               0.40    -8000.00
00478               0.20    -7200.00
00479              -0.40    -7200.00
00480              -0.20    -6400.00
00481               0.40    -5600.00
00482               0.20    -4800.00
00483              -0.60    -4000.00
00484              -0.20    -3200.00
00485              -0.20    -3200.00
00486              -0.60    -1600.00
00487              -0.40    -1600.00
00488               0.00     -800.00
00489              -0.40     -800.00
00490               0.40        0.00
00491               0.40      800.00
00492               0.20      800.00
00493               3.00     1600.00
00494              -1.80     1600.00
00495              -1.20     2400.00
00496               1.40     3200.00
00497               0.00     4000.00
00498              -1.00     4000.00
00499               9.80     4800.00
00500              25.00     6400.00
00501             -22.40     8000.00
00502             -25.00     8000.00
00503              21.00     8800.00
00504               5.20     8000.00
00505             -25.00     8800.00
00506              25.00     9600.00
00507              19.60     9600.00
00508             -25.00    10400.00
00509              25.00    11200.00
00510             -25.00    11200.00
00511             -25.00    12000.00
00512              25.00    12800.00
00513             -25.00    12800.00
00514              25.00    14400.00
00515              -9.00    14400.00
00516             -25.00    15200.00
00517              25.00    15200.00
00518             -25.00    16000.00
00519              -8.60    16000.00
00520              25.00    17600.00
00521             -25.00    17600.00
00522             -22.60    18400.00
00523              25.00    18400.00
00524              -8.80    19200.00
00525             -25.00    19200.00
00526              25.00    20800.00
00527             -25.00    20800.00
00528              -3.40    21600.00
00529              20.20    22400.00
00530             -25.00    22400.00
00531               8.60    22400.00
00532               6.00    24000.00
00533             -13.00    24000.00
00534               3.20    24000.00
00535              11.60    24800.00
00536             -20.80    24800.00
00537               7.80    25600.00
00538               2.80    25600.00
00539             -16.60    25600.00
00540              11.40    26400.00
00541              -5.00    27200.00
00542              -4.60    27200.00
00543               2.60    28000.00
00544              -1.00    28000.00
00545              -6.00    28000.00
00546               1.80    28800.00
00547              -0.60    28800.00
00548              -7.60    28800.00
00549               3.20    28800.00
00550              -3.60    30400.00
00551              -3.80    29600.00
00552               3.40    30400.00
00553              -4.20    30400.00
00554              -3.00    30400.00
00555               1.40    31200.00
00556              -5.20    31200.00
00557              -1.80    31200.00
00558               0.20    31200.00
00559              -4.20    32000.00
00560               0.20    32000.00
00561              -1.20    32000.00
00562              -3.00    32800.00
00563              -2.00    32000.00
00564              -2.00    32800.00
00565              -2.20    32000.00
00566              -2.20    32800.00
00567              -1.00    32000.00
00568              -3.40    32800.00
00569              -1.00    32800.00
00570              -2.00    32800.00
00571              -3.40    32800.00
00572              -0.40    32800.00
00573              -3.60    32800.00
00574              -1.40    32800.00
00575              -1.00    32800.00
00576              -3.40    32800.00
00577              -1.20    32000.00
00578              -1.80    32800.00
00579              -2.20    32800.00
00580              -2.20    32800.00
00581              -2.20    32800.00
00582              -2.20    32000.00
00583              -2.20    32800.00
00584              -1.60    32000.00
00585              -2.20    31200.00
00586              -2.00    32000.00
00587              -1.80    32800.00
00588              -2.20    32000.00
00589              -2.00    31200.00
00590              -2.00    31200.00
00591              -2.60    31200.00
00592              -1.20    30400.00
00593              -2.20    30400.00
00594              -2.20    30400.00
00595              -2.00    30400.00
00596              -2.20    30400.00
00597              -2.00    28800.00
00598              -2.20    28800.00
00599              -2.00    28800.00
00600              -2.20    28000.00
00601              -2.20    28000.00
00602              -1.40    28000.00
00603              -2.20    28000.00
00604              -1.80    27200.00
00605              -1.80    27200.00
00606              -1.40    27200.00
00607              -1.20    26400.00
00608              -2.40    25600.00
00609              -1.80    25600.00
00610              -1.20    25600.00
00611              -2.00    24800.00
00612              -1.60    24000.00
00613              -1.80    24000.00
00614              -2.00    24000.00
00615              -1.40    23200.00
00616              -1.40    22400.00
00617              -1.80    21600.00
00618              -1.60    22400.00
00619              -1.20    21600.00
00620              -1.40    20800.00
00621              -1.40    20800.00
00622              -1.20    19200.00
00623              -2.00    19200.00
00624              -0.80    19200.00
00625              -1.00    18400.00
00626              -2.00    18400.00
00627              -1.20    17600.00
00628              -1.20    16000.00
00629              -1.40    16000.00
00630              -1.00    16000.00
00631              -1.20    14400.00
00632              -1.00    15200.00
00633              -1.40    14400.00
00634              -1.20    13600.00
00635              -1.20    12800.00
00636              -1.60    12800.00
00637              -0.60    12000.00
00638              -0.80    11200.00
00639              -1.20    11200.00
00640              -1.00     9600.00
00641              -0.80     9600.00
00642              -1.00     9600.00
00643              -1.20     8000.00
00644              -1.00     8000.00
00645              -1.20     8000.00
00646              -0.60     6400.00
00647              -1.20     6400.00
00648              -0.40     5600.00
00649              -0.60     4800.00
00650              -1.20     4800.00
00651              -0.40     3200.00
00652              -0.40     3200.00
00653              -0.80     2400.00
00654              -1.00     1600.00
00655              -0.60     1600.00
00656               0.00        0.00
00657              -0.40        0.00
00658               0.40        0.00
00659               2.40     -800.00
00660               1.40    -1600.00
00661              -2.00    -2400.00
00662               1.00    -2400.00
00663               0.80    -3200.00
00664              -0.20    -4000.00
00665               0.80    -4000.00
00666               8.20    -4800.00
00667              25.00    -6400.00
00668              -6.40    -7200.00
00669             -25.00    -8000.00
00670               9.80    -8000.00
00671              19.60    -8800.00
00672             -25.00    -8800.00
00673              -6.60    -8800.00
00674              25.00   -10400.00
00675             -25.00   -10400.00
00676             -24.40   -11200.00
00677              25.00   -12000.00
00678             -25.00   -11200.00
00679               4.20   -12800.00
00680              25.00   -12800.00
00681             -25.00   -13600.00
00682              25.00   -14400.00
00683             -25.00   -14400.00
00684               6.80   -14400.00
00685              25.00   -15200.00
00686             -25.00   -16800.00
00687              10.80   -16800.00
00688              25.00   -16800.00
00689             -25.00   -17600.00
00690              -5.00   -18400.00
00691              25.00   -19200.00
00692             -25.00   -19200.00
00693               2.60   -20000.00
00694              25.00   -20000.00
00695             -25.00   -20800.00
00696               9.40   -21600.00
00697               8.40   -22400.00
00698             -16.60   -22400.00
00699               9.00   -22400.00
00700               8.40   -23200.00
00701             -11.00   -24000.00
00702              10.20   -24000.00
00703               5.40   -24000.00
00704             -13.00   -24800.00
00705              11.80   -24800.00
00706              -2.00   -25600.00
00707              -5.00   -26400.00
00708               9.40   -26400.00
00709              -2.20   -27200.00
00710              -1.20   -27200.00
00711               5.40   -27200.00
00712               0.20   -27200.00
00713              -2.00   -28000.00
00714               5.80   -28000.00
00715              -1.20   -28800.00
00716              -1.20   -28800.00
00717               5.00   -28800.00
00718              -1.80   -29600.00
00719               1.40   -29600.00
00720               4.60   -29600.00
00721              -1.40   -30400.00
00722               1.80   -29600.00
00723               2.80   -29600.00
00724              -1.80   -30400.00
00725               2.00   -31200.00
00726               2.20   -30400.00
00727               0.40   -32000.00
00728               2.60   -32000.00
00729               0.80   -32000.00
00730               0.20   -32000.00
00731               1.40   -32000.00
00732               1.80   -32000.00
00733               0.20   -32000.00
00734               2.00   -32000.00
00735               1.80   -32000.00
00736               0.40   -32000.00
00737               2.60   -32000.00
00738               0.40   -32000.00
00739               1.00   -32000.00
00740               2.00   -32000.00
00741               0.40   -32800.00
00742               2.00   -32000.00
00743               1.20   -32000.00
00744               0.40   -32000.00
00745               1.80   -32000.00
00746               1.60   -32000.00
00747               1.20   -32000.00
00748               1.40   -32000.00
00749               1.80   -32000.00
00750               1.20   -32000.00
00751               1.20   -32000.00
00752               1.40   -31200.00
00753               1.20   -31200.00
00754               1.80   -30400.00
00755               1.20   -30400.00
00756               0.60   -30400.00
00757               1.80   -30400.00
00758               0.80   -30400.00
00759               1.40   -29600.00
00760               2.00   -29600.00
00761               1.00   -29600.00
00762               1.40   -29600.00
00763               1.20   -29600.00
00764               1.20   -28800.00
00765               1.40   -28000.00
00766               1.20   -28800.00
00767               1.40   -28000.00
00768               0.60   -27200.00
00769               1.20   -27200.00
00770               1.00   -27200.00
00771               1.00   -27200.00
00772               1.40   -26400.00
00773               1.20   -26400.00
00774               1.20   -25600.00
00775               0.60   -25600.00
00776               1.00   -25600.00
00777               1.00   -24800.00
00778               1.00   -24000.00
00779               1.00   -23200.00
00780               0.60   -23200.00
00781               0.60   -23200.00
00782               1.00   -22400.00
00783               0.40   -22400.00
00784               1.00   -21600.00
00785               1.00   -20800.00
00786               0.40   -20800.00
00787               0.80   -20000.00
00788               0.40   -19200.00
00789               0.20   -18400.00
00790               1.00   -18400.00
00791               0.60   -17600.00
00792               0.20   -17600.00
00793               0.80   -16800.00
00794               0.40   -16800.00
00795               0.40   -16800.00
00796               0.40   -16000.00
00797               0.40   -15200.00
00798               0.40   -14400.00
00799               0.40   -14400.00
00800               0.20   -13600.00
00801               0.20   -12800.00
00802               0.40   -12800.00
00803               0.20   -12000.00
00804               0.20   -11200.00
00805               0.40   -11200.00
00806               0.00   -10400.00
00807               0.40    -9600.00
00808              -0.20    -8800.00
00809               0.00    -8800.00
00810               0.40    -7200.00
00811              -0.20    -7200.00
00812               0.00    -7200.00
00813               0.20    -6400.00
00814              -0.20    -4800.00
00815               0.40    -4800.00
00816              -0.40    -4000.00
00817              -0.60    -3200.00
00818               0.20    -3200.00
00819               0.20    -2400.00
00820              -0.40    -1600.00
00821              -0.20     -800.00
00822              -0.40     -800.00
00823               0.20        0.00
00824               0.20      800.00
00825              -0.20     1600.00
00826               3.20     1600.00
00827               0.40     2400.00
00828              -2.20     2400.00
00829               1.00     3200.00
00830               0.60     4000.00
00831              -1.80     4000.00
00832               6.60     4800.00
00833              25.00     6400.00
00834              -1.40     6400.00
00835             -25.00     7200.00
00836               8.20     8000.00
00837              19.40     8000.00
00838             -25.00     8800.00
00839              25.00     9600.00
00840              25.00     9600.00
00841             -25.00     9600.00
00842              25.00    11200.00
00843              21.00    11200.00
00844             -25.00    12800.00
00845              25.00    12000.00
00846             -25.00    12800.00
00847              25.00    13600.00
00848              25.00    14400.00
00849             -25.00    14400.00
00850              25.00    16000.00
00851             -13.40    16000.00
00852             -25.00    16800.00
00853              25.00    16800.00
00854             -10.20    17600.00
00855             -25.00    18400.00
00856              23.80    18400.00
00857              12.20    19200.00
00858             -25.00    19200.00
00859              25.00    19200.00
00860              -3.00    20800.00
00861             -22.00    21600.00
00862              25.00    21600.00
00863             -25.00    22400.00
00864              -1.80    22400.00
00865              11.00    23200.00
00866             -10.80    23200.00
00867              -3.00    24000.00
00868              15.40    24800.00
00869             -15.80    24800.00
00870              -1.80    24800.00
00871              10.80    25600.00
00872             -19.40    25600.00
00873               7.60    25600.00
00874               1.20    26400.00
00875              -7.60    27200.00
00876               1.60    27200.00
00877               0.40    28000.00
00878              -5.40    28000.00
00879              -1.20    28800.00
00880               2.00    28800.00
00881              -7.60    28800.00
00882               1.20    28800.00
00883              -0.60    29600.00
00884              -5.40    29600.00
00885               2.80    30400.00
00886              -2.00    30400.00
00887              -4.20    31200.00
00888               1.80    30400.00
00889              -3.80    31200.00
00890              -3.60    31200.00
00891               1.20    31200.00
00892              -4.40    32000.00
00893              -0.80    32800.00
00894              -0.20    32000.00
00895              -3.40    32000.00
00896              -1.80    32800.00
00897              -1.80    32000.00
00898              -2.20    32000.00
00899              -2.40    32000.00
00900              -0.40    32800.00
00901              -3.00    32800.00
00902              -1.20    32800.00
00903              -0.20    32800.00
00904              -4.40    32800.00
00905              -0.60    32000.00
00906              -3.40    32800.00
00907              -3.40    32800.00
00908               0.20    32800.00
00909              -3.80    32000.00
00910              -1.80    32800.00
00911              -0.20    32800.00
00912              -3.00    32800.00
00913              -2.60    32800.00
00914              -2.00    32800.00
00915              -2.80    32000.00
00916              -2.20    32800.00
00917              -1.40    32000.00
00918              -2.60    32000.00
00919              -2.00    32000.00
00920              -1.20    32000.00
00921              -2.60    31200.00
00922              -1.40    31200.00
00923              -2.20    31200.00
00924              -3.00    31200.00
00925              -1.20    30400.00
00926              -2.20    30400.00
00927              -3.20    30400.00
00928              -0.60    30400.00
00929              -1.80    29600.00
00930              -2.60    28800.00
00931              -1.60    28800.00
00932              -1.80    28800.00
00933              -2.80    28800.00
00934              -2.60    28000.00
00935              -1.20    28000.00
00936              -1.60    28000.00
00937              -2.20    28000.00
00938              -1.40    27200.00
00939              -0.60    27200.00
00940              -2.20    25600.00
00941              -3.20    25600.00
00942              -1.40    25600.00
00943              -1.20    24800.00
00944              -2.60    24800.00
00945              -0.80    24800.00
00946              -1.60    24000.00
00947              -2.00    24000.00
00948              -1.20    23200.00
00949              -1.40    23200.00
00950              -1.20    22400.00
00951              -2.40    21600.00
00952              -2.00    21600.00
00953              -0.60    20800.00
00954              -1.80    20800.00
00955              -1.60    20000.00
00956              -0.60    19200.00
00957              -1.60    19200.00
00958              -1.60    18400.00
00959              -1.00    18400.00
00960              -2.20    17600.00
00961              -1.40    17600.00
00962              -0.60    16000.00
00963              -1.00    16000.00
00964              -1.00    15200.00
00965              -0.40    14400.00
00966              -2.00    14400.00
00967              -1.80    13600.00
00968              -0.60    13600.00
00969              -2.20    12800.00
00970              -1.20    12000.00
00971               0.20    11200.00
00972              -1.20    11200.00
00973              -1.40     9600.00
00974              -0.60     9600.00
00975              -0.60     8800.00
00976              -2.20     8800.00
00977              -1.00     8000.00
00978              -0.40     8000.00
00979              -1.20     6400.00
00980              -0.60     6400.00
00981              -0.20     5600.00
00982              -1.00     4800.00
00983              -1.00     4800.00
00984              -1.20     4000.00
00985              -0.60     3200.00
00986              -0.40     2400.00
00987              -1.20     1600.00
00988              -0.60      800.00
00989               0.40      800.00
00990              -0.20        0.00
00991               0.20        0.00
00992               1.80     -800.00
00993               2.20    -1600.00
00994              -2.00    -1600.00
00995               1.00    -2400.00
00996               0.60    -3200.00
00997              -0.40    -3200.00
00998               0.80    -4000.00
00999               5.40    -4000.00
01000              21.00    -5600.00
01001              10.80    -7200.00
01002             -25.00    -8000.00
01003              -6.40    -8000.00
01004              25.00    -8000.00
01005             -24.40    -8000.00
01006             -25.00    -8000.00
01007              25.00    -9600.00
01008               1.00   -10400.00
01009             -25.00   -10400.00
01010              25.00   -12000.00
01011             -21.20   -11200.00
01012             -25.00   -12800.00
01013              25.00   -13600.00
01014             -25.00   -12800.00
01015              25.00   -14400.00
01016             -12.40   -14400.00
01017             -16.40   -14400.00
01018              25.00   -16000.00
01019             -25.00   -16000.00
01020              -7.80   -16800.00
01021              25.00   -16800.00
01022             -16.60   -17600.00
01023             -18.80   -18400.00
01024              25.00   -19200.00
01025             -12.40   -19200.00
01026             -16.80   -19200.00
01027              25.00   -20000.00
01028             -15.40   -20800.00
01029              -2.80   -20800.00
01030              16.40   -20800.00
01031             -15.80   -22400.00
01032               3.00   -22400.00
01033              10.80   -23200.00
01034              -9.40   -23200.00
01035               4.20   -23200.00
01036              11.40   -24800.00
01037             -13.80   -24800.00
01038               8.40   -24800.00
01039               4.20   -25600.00
01040              -9.80   -25600.00
01041              10.00   -26400.00
01042               0.20   -26400.00
01043              -3.80   -26400.00
01044               5.40   -27200.00
01045               2.60   -27200.00
01046              -3.60   -28000.00
01047               4.60   -28000.00
01048               2.00   -28000.00
01049              -3.00   -28800.00
01050               4.60   -29600.00
01051              -0.60   -29600.00
01052              -0.60   -29600.00
01053               5.00   -29600.00
01054               0.20   -29600.00
01055               0.20   -30400.00
01056               4.00   -30400.00
01057              -1.00   -30400.00
01058               0.20   -30400.00
01059               2.80   -30400.00
01060               0.40   -32000.00
01061               2.60   -31200.00
01062               1.20   -32000.00
01063               0.20   -32000.00
01064               1.00   -32000.00
01065               2.00   -32000.00
01066               1.20   -32000.00
01067               1.40   -32000.00
01068               2.60   -32000.00
01069               0.20   -32000.00
01070               1.80   -32000.00
01071               1.80   -32000.00
01072               0.60   -32000.00
01073               2.60   -32000.00
01074               1.00   -32000.00
01075               2.20   -32000.00
01076               1.80   -32000.00
01077              -0.20   -32000.00
01078               1.80   -32000.00
01079               1.80   -32000.00
01080               1.00   -32000.00
01081               1.40   -32000.00
01082               2.00   -32000.00
01083               1.20   -32000.00
01084               1.20   -32000.00
01085               1.80   -32000.00
01086               1.00   -31200.00
01087               1.40   -32000.00
01088               1.80   -30400.00
01089               1.00   -30400.00
01090               1.60   -30400.00
01091               1.00   -30400.00
01092               1.20   -30400.00
01093               2.00   -29600.00
01094               0.80   -29600.00
01095               1.20   -29600.00
01096               1.00   -28800.00
01097               0.40   -28800.00
01098               1.40   -28800.00
01099               1.00   -28800.00
01100               1.40   -28000.00
01101               1.20   -28000.00
01102               1.40   -27200.00
01103               0.40   -27200.00
01104               0.20   -26400.00
01105               1.80   -26400.00
01106               1.00   -26400.00
01107               0.20   -26400.00
01108               1.80   -24800.00
01109               0.60   -25600.00
01110               0.40   -24800.00
01111               1.40   -24000.00
01112               1.40   -24000.00
01113               0.40   -23200.00
01114               0.80   -23200.00
01115               1.00   -22400.00
01116               0.40   -22400.00
01117               1.00   -22400.00
01118               1.00   -21600.00
01119               0.40   -20800.00
01120               0.80   -20800.00
01121               0.40   -20000.00
01122               0.00   -18400.00
01123               0.40   -18400.00
01124               0.40   -18400.00
01125               0.60   -17600.00
01126               0.60   -16800.00
01127               0.60   -16800.00
01128               0.60   -16800.00
01129               0.40   -16000.00
01130               0.40   -15200.00
01131               1.00   -15200.00
01132               0.20   -13600.00
01133               0.40   -13600.00
01134               0.40   -12800.00
01135               0.40   -12800.00
01136               0.20   -12000.00
01137               0.40   -11200.00
01138               0.40   -11200.00
01139               0.20   -10400.00
01140               0.40    -9600.00
01141              -0.20    -9600.00
01142              -0.20    -8800.00
01143               0.40    -8000.00
01144               0.20    -8000.00
01145               0.20    -7200.00
01146               0.40    -6400.00
01147              -0.20    -6400.00
01148               0.20    -4800.00
01149               0.20    -4800.00
01150              -0.80    -4000.00
01151               0.20    -3200.00
01152               0.20    -3200.00
01153              -0.60    -1600.00
01154               0.20     -800.00
01155               0.00     -800.00
01156              -0.60        0.00
01157               0.00        0.00
01158               0.60     1600.00
01159               1.80     1600.00
01160               2.00     2400.00
01161              -2.20     2400.00
01162               0.40     3200.00
01163               1.40     3200.00
01164              -1.80     4000.00
01165               3.40     4800.00
01166              22.20     6400.00
01167              17.00     7200.00
01168             -25.00     8000.00
01169              -8.60     8000.00
01170              25.00     8000.00
01171             -25.00     8000.00
01172              -5.00     9600.00
01173              25.00     9600.00
01174             -25.00     9600.00
01175              18.80    12000.00
01176              25.00    11200.00
01177             -25.00    12000.00
01178              25.00    12800.00
01179             -20.40    12800.00
01180             -17.20    13600.00
01181              25.00    14400.00
01182             -25.00    15200.00
01183              25.00    15200.00
01184              25.00    16000.00
01185             -25.00    16000.00
01186              25.00    16800.00
01187              10.20    17600.00
01188             -25.00    17600.00
01189               8.60    19200.00
01190              25.00    19200.00
01191             -25.00    19200.00
01192              18.00    20000.00
01193              20.80    20800.00
01194             -25.00    21600.00
01195              25.00    21600.00
01196             -14.20    22400.00
01197             -14.20    22400.00
01198              14.80    22400.00
01199              -6.40    24000.00
01200              -8.20    24000.00
01201              15.40    24800.00
01202              -7.60    24800.00
01203             -12.20    24800.00
01204              16.20    25600.00
01205             -16.40    25600.00
01206               1.00    25600.00
01207               7.00    27200.00
01208              -9.40    27200.00
01209               1.20    27200.00
01210               0.60    28000.00
01211              -4.40    28000.00
01212              -3.00    28000.00
01213               4.20    28800.00
01214              -6.60    28800.00
01215              -0.20    28800.00
01216              -1.00    28800.00
01217              -8.00    28800.00
01218               6.20    29600.00
01219              -9.60    30400.00
01220               0.60    30400.00
01221               1.00    31200.00
01222               1.20    31200.00
01223              -3.80    31200.00
01224              -3.00    31200.00
01225               1.00    31200.00
01226              -8.60    31200.00
01227              -0.20    32000.00
01228              -2.60    32000.00
01229              -1.40    32000.00
01230               1.60    32800.00
01231              -5.20    32000.00
01232               1.80    32800.00
01233              -4.60    32800.00
01234              -0.40    32800.00
01235              -1.80    33600.00
01236              -6.60    32000.00
01237              -1.40    32800.00
01238               0.00    32800.00
01239              -3.60    32800.00
01240              -2.80    32800.00
01241               3.60    32800.00
01242              -3.20    33600.00
01243              -3.00    32000.00
01244              -1.00    32800.00
01245              -6.60    32800.00
01246              -1.20    32800.00
01247              -1.80    32800.00
01248              -4.40    32800.00
01249               1.40    32000.00
01250              -0.60    32800.00
01251              -2.80    32000.00
01252              -2.20    32800.00
01253              -2.00    31200.00
01254              -4.00    31200.00
01255              -2.60    32000.00
01256              -2.00    31200.00
01257              -2.20    31200.00
01258              -0.20    31200.00
01259              -1.20    30400.00
01260              -1.40    31200.00
01261              -1.20    30400.00
01262              -3.80    29600.00
01263              -2.20    28800.00
01264              -1.40    28800.00
01265              -3.80    28800.00
01266              -1.40    28800.00
01267              -1.00    28800.00
01268              -1.40    28000.00
01269              -1.00    27200.00
01270              -2.00    27200.00
01271              -2.80    27200.00
01272              -2.00    27200.00
01273              -1.40    26400.00
01274              -2.80    25600.00
01275              -1.40    25600.00
01276              -0.40    25600.00
01277              -2.00    24800.00
01278              -1.40    24800.00
01279              -1.40    24000.00
01280              -2.60    24000.00
01281              -1.60    24000.00
01282              -1.80    23200.00
01283              -1.40    22400.00
01284              -1.20    21600.00
01285              -1.80    21600.00
01286              -1.20    21600.00
01287              -1.20    20800.00
01288              -2.00    20800.00
01289              -1.40    19200.00
01290              -1.20    19200.00
01291              -1.20    18400.00
01292              -1.80    18400.00
01293              -1.20    17600.00
01294              -1.60    17600.00
01295              -1.80    16800.00
01296              -0.60    16000.00
01297              -1.40    15200.00
01298              -1.20    15200.00
01299              -1.00    14400.00
01300              -1.40    13600.00
01301              -1.20    12800.00
01302              -1.40    12800.00
01303              -1.40    12000.00
01304              -1.00    11200.00
01305              -1.20    11200.00
01306              -1.00    10400.00
01307              -1.20     9600.00
01308              -0.60     9600.00
01309              -1.20     8800.00
01310              -1.20     8000.00
01311              -0.60     8000.00
01312              -1.20     7200.00
01313              -1.00     6400.00
01314              -0.20     5600.00
01315              -1.00     5600.00
01316              -0.40     4800.00
01317              -0.60     3200.00
01318              -0.60     3200.00
01319              -0.60     2400.00
01320              -1.40     2400.00
01321              -1.20     1600.00
01322               0.00      800.00
01323              -0.20        0.00
01324              -0.20        0.00
01325               1.20     -800.00
01326               3.60    -1600.00
01327              -1.20    -1600.00
01328              -0.60    -1600.00
01329               1.80    -3200.00
01330               0.00    -3200.00
01331              -0.60    -4000.00
01332               4.40    -4000.00
01333              17.00    -5600.00
01334              21.20    -6400.00
01335             -25.00    -7200.00
01336             -21.60    -8000.00
01337              25.00    -8000.00
01338              -8.60    -8800.00
01339             -25.00    -8000.00
01340              25.00    -9600.00
01341              25.00   -10400.00
01342             -25.00   -10400.00
01343              25.00   -11200.00
01344              20.20   -11200.00
01345             -25.00   -12000.00
01346              25.00   -12800.00
01347             -25.00   -13600.00
01348               9.80   -14400.00
01349              11.00   -14400.00
01350             -25.00   -16000.00
01351              25.00   -16000.00
01352             -11.60   -16000.00
01353             -22.20   -16800.00
01354              25.00   -16800.00
01355              -3.40   -17600.00
01356             -25.00   -17600.00
01357              24.40   -18400.00
01358               5.40   -19200.00
01359             -25.00   -20000.00
01360              25.00   -20000.00
01361              -3.00   -20800.00
01362             -15.00   -20800.00
01363              21.00   -22400.00
01364             -11.80   -21600.00
01365              -4.40   -23200.00
01366              13.40   -23200.00
01367              -5.00   -23200.00
01368              -3.00   -24000.00
01369              15.40   -24000.00
01370             -10.60   -24800.00
01371               0.40   -24800.00
01372              10.60   -25600.00
01373             -10.80   -25600.00
01374               6.00   -25600.00
01375               4.40   -26400.00
01376              -4.00   -26400.00
01377               2.80   -27200.00
01378               4.20   -27200.00
01379              -3.40   -28800.00
01380               2.60   -28000.00
01381               4.20   -28800.00
01382              -4.20   -28800.00
01383               4.00   -28800.00
01384               1.80   -28800.00
01385              -2.00   -28800.00
01386               4.60   -29600.00
01387               1.20   -29600.00
01388              -1.20   -30400.00
01389               4.40   -30400.00
01390               0.00   -30400.00
01391              -0.60   -31200.00
01392               3.60   -31200.00
01393               0.20   -30400.00
01394               1.80   -31200.00
01395               2.00   -32000.00
01396               0.20   -32000.00
01397               1.00   -31200.00
01398               2.00   -32000.00
01399               1.00   -32000.00
01400               0.60   -32000.00
01401               3.20   -32000.00
01402               0.40   -32800.00
01403               1.80   -32000.00
01404               2.20   -32000.00
01405              -0.20   -32800.00
01406               2.60   -32000.00
01407               1.40   -32000.00
01408               1.00   -32800.00
01409               2.60   -32000.00
01410               0.40   -32000.00
01411               1.40   -32000.00
01412               2.00   -32000.00
01413               1.00   -32000.00
01414               1.00   -32000.00
01415               1.60   -32000.00
01416               1.40   -32000.00
01417               0.80   -32000.00
01418               2.00   -31200.00
01419               1.00   -32000.00
01420               1.60   -30400.00
01421               2.00   -31200.00
01422               0.40   -30400.00
01423               2.20   -30400.00
01424               1.20   -30400.00
01425               0.60   -30400.00
01426               2.00   -29600.00
01427               0.60   -28800.00
01428               0.20   -29600.00
01429               1.80   -29600.00
01430               1.00   -29600.00
01431               1.20   -28800.00
01432               1.20   -28000.00
01433               0.80   -28800.00
01434               0.60   -27200.00
01435               1.40   -27200.00
01436               1.00   -26400.00
01437               1.20   -27200.00
01438               1.00   -26400.00
01439               0.80   -26400.00
01440               1.40   -25600.00
01441               0.20   -25600.00
01442               0.20   -24800.00
01443               2.00   -24000.00
01444              -0.20   -24000.00
01445               0.40   -24000.00
01446               2.00   -23200.00
01447              -0.20   -23200.00
01448               1.00   -22400.00
01449               1.40   -22400.00
01450              -0.20   -21600.00
01451               1.00   -20800.00
01452               0.40   -20800.00
01453               0.40   -20000.00
01454               1.20   -20000.00
01455              -0.20   -19200.00
01456               1.00   -18400.00
01457               1.20   -18400.00
01458               0.20   -17600.00
01459               1.00   -17600.00
01460               0.20   -16800.00
01461               0.60   -16000.00
01462               0.40   -16000.00
01463               0.60   -15200.00
01464               1.00   -14400.00
01465              -0.20   -14400.00
01466               1.00   -13600.00
01467               0.60   -13600.00
01468              -0.20   -12800.00
01469               1.00   -12000.00
01470               0.20   -11200.00
01471               0.20   -10400.00
01472               1.00   -10400.00
01473              -0.20   -10400.00
01474              -0.20    -9600.00
01475               0.40    -8000.00
01476               0.20    -8000.00
01477              -0.20    -7200.00
01478               0.20    -7200.00
01479               0.20    -6400.00
01480              -0.80    -6400.00
01481               0.40    -4800.00
01482               0.20    -4800.00
01483              -0.40    -3200.00
01484               0.20    -3200.00
01485              -0.20    -2400.00
01486              -0.60    -1600.00
01487              -0.20    -1600.00
01488              -0.60     -800.00
01489              -0.40        0.00
01490               0.40        0.00
01491              -0.20        0.00
01492               1.00     1600.00
01493               3.60     1600.00
01494              -3.00     1600.00
01495              -0.60     2400.00
01496               2.00     3200.00
01497              -1.20     4800.00
01498               0.60     4800.00
01499              15.40     6400.00
01500              25.00     7200.00
01501             -25.00     8000.00
01502             -25.00     8000.00
01503              25.00     8000.00
01504             -14.00     8000.00
01505             -25.00     8800.00
01506              25.00     9600.00
01507             -25.00    10400.00
01508             -25.00    11200.00
01509              25.00    12000.00
01510             -25.00    11200.00
01511              23.80    12800.00
01512              23.60    12800.00
01513             -25.00    12800.00
01514              25.00    14400.00
01515             -25.00    14400.00
01516               1.80    15200.00
01517              25.00    16000.00
01518             -25.00    16000.00
01519              24.40    17600.00
01520              25.00    17600.00
01521             -25.00    17600.00
01522              -7.60    18400.00
01523              25.00    19200.00
01524             -25.00    19200.00
01525              -4.60    20000.00
01526              25.00    20800.00
01527             -25.00    21600.00
01528              17.00    22400.00
01529               2.20    22400.00
01530             -23.60    22400.00
01531              15.40    22400.00
01532              -0.20    23200.00
01533             -11.80    24000.00
01534              10.60    24000.00
01535               2.00    24800.00
01536             -19.60    24800.00
01537              15.60    25600.00
01538              -8.60    25600.00
01539              -7.80    25600.00
01540              10.80    27200.00
01541              -9.00    27200.00
01542              -1.20    27200.00
01543               2.00    28000.00
01544              -3.00    28000.00
01545              -4.60    28000.00
01546               4.20    28800.00
01547              -4.80    28800.00
01548              -4.40    28800.00
01549               3.00    29600.00
01550              -6.00    29600.00
01551              -0.60    30400.00
01552               2.60    30400.00
01553              -5.40    30400.00
01554              -1.00    31200.00
01555              -0.20    31200.00
01556              -5.40    31200.00
01557               0.40    32000.00
01558              -1.80    31200.00
01559              -3.00    31200.00
01560               0.60    32000.00
01561              -2.80    32000.00
01562              -3.20    32800.00
01563              -2.60    32000.00
01564              -1.40    32000.00
01565              -2.40    32800.00
01566              -2.00    32800.00
01567              -1.20    32800.00
01568              -3.60    32000.00
01569              -0.20    32800.00
01570              -3.00    32000.00
01571              -2.80    33600.00
01572              -1.00    32800.00
01573              -4.20    32800.00
01574              -0.60    32800.00
01575              -1.60    32800.00
01576              -3.40    32800.00
01577              -1.20    32000.00
01578              -2.20    32800.00
01579              -2.20    32800.00
01580              -2.40    32800.00
01581              -2.00    32800.00
01582              -2.20    32800.00
01583              -2.00    32800.00
01584              -1.40    32000.00
01585              -2.60    32000.00
01586              -1.40    32000.00
01587              -2.20    32000.00
01588              -2.80    31200.00
01589              -1.20    31200.00
01590              -2.80    31200.00
01591              -2.20    31200.00
01592              -0.60    31200.00
01593              -2.00    30400.00
01594              -1.60    30400.00
01595              -1.40    30400.00
01596              -2.20    30400.00
01597              -2.20    30400.00
01598              -2.00    29600.00
01599              -2.40    28800.00
01600              -2.00    28800.00
01601              -1.20    28800.00
01602              -1.80    28000.00
01603              -2.00    28000.00
01604              -2.00    27200.00
01605              -2.00    27200.00
01606              -1.00    26400.00
01607              -1.60    26400.00
01608              -2.60    25600.00
01609              -1.20    25600.00
01610              -1.80    25600.00
01611              -2.00    24800.00
01612              -1.20    24000.00
01613              -2.00    24000.00
01614              -1.80    24000.00
01615              -1.80    23200.00
01616              -1.80    22400.00
01617              -2.00    22400.00
01618              -1.40    21600.00
01619              -1.20    21600.00
01620              -1.80    20800.00
01621              -1.40    20800.00
01622              -1.60    19200.00
01623              -1.80    19200.00
01624              -1.20    18400.00
01625              -2.00    17600.00
01626              -1.80    17600.00
01627              -1.40    17600.00
01628              -1.80    16800.00
01629              -1.00    16000.00
01630              -1.20    16000.00
01631              -1.20    15200.00
01632              -1.20    14400.00
01633              -1.40    14400.00
01634              -1.40    13600.00
01635              -1.40    12800.00
01636              -1.20    12800.00
01637              -1.00    12000.00
01638              -1.00    11200.00
01639              -1.00    11200.00
01640              -1.40     9600.00
01641              -1.20     9600.00
01642              -1.00     8800.00
01643              -1.20     8000.00
01644              -0.60     8000.00
01645              -1.60     7200.00
01646              -0.80     6400.00
01647              -0.20     6400.00
01648              -1.20     5600.00
01649              -1.00     4800.00
01650              -0.60     4800.00
01651              -0.60     3200.00
01652              -0.60     3200.00
01653              -0.60     2400.00
01654              -0.60     1600.00
01655              -0.20      800.00
01656              -0.40        0.00
01657              -0.20        0.00
01658               0.40     -800.00
01659               3.40    -1600.00
01660              -0.20    -1600.00
01661              -1.20    -1600.00
01662               1.80    -2400.00
01663               0.60    -3200.00
01664              -0.60    -4000.00
01665               2.60    -4000.00
01666              12.20    -4800.00
01667              25.00    -6400.00
01668             -25.00    -8000.00
01669             -25.00    -8000.00
01670              21.40    -8000.00
01671               7.00    -8800.00
01672             -25.00    -8000.00
01673              21.00    -8800.00
01674              25.00   -10400.00
01675             -25.00   -10400.00
01676              24.60   -10400.00
01677              25.00   -11200.00
01678             -25.00   -12000.00
01679              25.00   -13600.00
01680              -2.00   -12800.00
01681             -10.20   -14400.00
01682              25.00   -14400.00
01683             -25.00   -14400.00
01684              25.00   -16000.00
01685              10.00   -16800.00
01686             -25.00   -16800.00
01687              25.00   -16800.00
01688              11.80   -17600.00
01689             -25.00   -17600.00
01690              11.80   -18400.00
01691              21.20   -19200.00
01692             -25.00   -20000.00
01693              21.40   -20000.00
01694              12.40   -20800.00
01695             -23.40   -20800.00
01696              19.20   -22400.00
01697              -3.60   -21600.00
01698             -11.40   -22400.00
01699              13.20   -23200.00
01700               1.00   -23200.00
01701              -8.40   -24000.00
01702              15.00   -24000.00
01703              -4.40   -24000.00
01704              -7.00   -24800.00
01705              13.80   -25600.00
01706              -8.60   -25600.00
01707               1.40   -25600.00
01708               8.20   -26400.00
01709              -4.20   -26400.00
01710               0.60   -27200.00
01711               5.00   -27200.00
01712              -2.20   -27200.00
01713               1.00   -28000.00
01714               5.40   -28800.00
01715              -3.00   -28800.00
01716               2.20   -28800.00
01717               3.40   -29600.00
01718              -2.60   -29600.00
01719               3.40   -29600.00
01720               2.80   -29600.00
01721              -2.20   -29600.00
01722               3.40   -30400.00
01723               1.80   -30400.00
01724              -1.20   -30400.00
01725               3.60   -31200.00
01726               1.40   -31200.00
01727               1.20   -32000.00
01728               2.20   -32000.00
01729               0.60   -32000.00
01730               0.80   -32000.00
01731               1.40   -32000.00
01732               1.80   -32000.00
01733               0.40   -32000.00
01734               2.60   -32000.00
01735               1.80   -32000.00
01736               1.20   -32000.00
01737               2.00   -32000.00
01738               0.20   -32000.00
01739               2.00   -32000.00
01740               1.80   -32000.00
01741               0.80   -32000.00
01742               2.60   -32000.00
01743               1.00   -32000.00
01744               1.00   -32000.00
01745               2.00   -32000.00
01746               1.20   -32000.00
01747               1.00   -32000.00
01748               1.40   -32000.00
01749               1.60   -32000.00
01750               0.60   -32000.00
01751               1.80   -32000.00
01752               1.60   -30400.00
01753               0.60   -31200.00
01754               1.80   -31200.00
01755               1.40   -30400.00
01756               1.20   -30400.00
01757               1.40   -30400.00
01758               0.80   -30400.00
01759               1.20   -29600.00
01760               1.80   -30400.00
01761               0.60   -29600.00
01762               1.40   -29600.00
01763               1.20   -28800.00
01764               1.20   -28800.00
01765               1.00   -28000.00
01766               0.60   -28000.00
01767               1.20   -27200.00
01768               1.20   -27200.00
01769               1.20   -27200.00
01770               0.80   -26400.00
01771               0.40   -26400.00
01772               1.40   -26400.00
01773               0.60   -26400.00
01774               1.00   -25600.00
01775               1.00   -25600.00
01776               0.60   -25600.00
01777               1.20   -24000.00
01778               1.00   -24000.00
01779               0.40   -24000.00
01780               1.00   -23200.00
01781               1.00   -23200.00
01782               0.60   -22400.00
01783               0.40   -22400.00
01784               0.60   -22400.00
01785               0.60   -20800.00
01786               0.60   -20800.00
01787               0.80   -20000.00
01788               0.40   -19200.00
01789               1.00   -19200.00
01790               0.60   -18400.00
01791               0.20   -17600.00
01792               1.20   -17600.00
01793               0.40   -16800.00
01794               0.60   -16000.00
01795               1.00   -16000.00
01796               0.20   -15200.00
01797               0.60   -14400.00
01798               0.40   -14400.00
01799              -0.20   -14400.00
01800               0.40   -12800.00
01801               0.40   -12800.00
01802               0.20   -12000.00
01803               0.40   -11200.00
01804               0.40   -11200.00
01805               0.40   -10400.00
01806               0.40    -9600.00
01807               0.20    -9600.00
01808              -0.20    -8000.00
01809               0.40    -8800.00
01810               0.20    -7200.00
01811               0.20    -7200.00
01812               0.20    -6400.00
01813              -0.20    -6400.00
01814              -0.20    -4800.00
01815               0.20    -4000.00
01816              -0.60    -4000.00
01817              -0.20    -3200.00
01818               0.20    -3200.00
01819              -0.40    -2400.00
01820              -0.20    -1600.00
01821              -0.40     -800.00
01822              -0.60     -800.00
01823               0.00        0.00
01824               0.20      800.00
01825               0.20     1600.00
01826               3.40     1600.00
01827              -2.00     2400.00
01828              -1.20     2400.00
01829               1.40     2400.00
01830              -0.40     4000.00
01831              -1.20     4800.00
01832              10.40     5600.00
01833              25.00     6400.00
01834             -24.80     8000.00
01835             -25.00     8000.00
01836              22.20     8000.00
01837               3.40     8000.00
01838             -25.00     8800.00
01839              25.00    10400.00
01840              13.60     9600.00
01841             -25.00    11200.00
01842              25.00    11200.00
01843             -25.00    12000.00
01844             -21.80    12800.00
01845              25.00    12800.00
01846             -25.00    12800.00
01847              25.00    14400.00
01848             -15.60    15200.00
01849             -25.00    15200.00
01850              25.00    15200.00
01851             -25.00    16000.00
01852              -3.80    16800.00
01853              25.00    17600.00
01854             -25.00    17600.00
01855             -20.00    18400.00
01856              25.00    19200.00
01857             -12.20    18400.00
01858             -25.00    19200.00
01859              25.00    20800.00
01860             -25.00    20800.00
01861              -0.20    21600.00
01862              18.60    21600.00
01863             -25.00    22400.00
01864              10.00    22400.00
01865               5.80    23200.00
01866             -13.00    24000.00
01867               4.20    24000.00
01868              10.60    24800.00
01869             -20.40    24800.00
01870               9.40    25600.00
01871               1.00    25600.00
01872             -15.40    25600.00
01873              11.60    27200.00
01874              -6.00    27200.00
01875              -3.80    27200.00
01876               2.80    27200.00
01877              -1.60    28000.00
01878              -6.00    28000.00
01879               2.60    28000.00
01880              -1.80    28800.00
01881              -6.80    28800.00
01882               3.40    28800.00
01883              -4.20    30400.00
01884              -3.40    30400.00
01885               3.20    30400.00
01886              -4.40    30400.00
01887              -2.80    30400.00
01888               1.20    30400.00
01889              -5.40    30400.00
01890              -1.40    31200.00
01891              -0.40    31200.00
01892              -4.40    32000.00
01893               0.40    32800.00
01894              -1.40    32000.00
01895              -3.40    32000.00
01896              -2.00    32800.00
01897              -2.00    32000.00
01898              -2.00    32800.00
01899              -2.20    32800.00
01900              -1.00    32800.00
01901              -3.40    32800.00
01902              -0.80    32800.00
01903              -2.20    32800.00
01904              -3.60    32800.00
01905              -0.40    32800.00
01906              -3.80    32800.00
01907              -1.40    33600.00
01908              -0.80    32800.00
01909              -3.60    33600.00
01910              -1.20    32800.00
01911              -2.00    33600.00
01912              -2.20    32800.00
01913              -1.80    32800.00
01914              -2.60    32000.00
01915              -2.00    32800.00
01916              -1.80    32800.00
01917              -1.20    32000.00
01918              -2.20    32000.00
01919              -1.80    32000.00
01920              -2.00    32000.00
01921              -2.60    32000.00
01922              -1.40    31200.00
01923              -2.40    32000.00
01924              -2.20    31200.00
01925              -0.80    31200.00
01926              -2.20    31200.00
01927              -1.80    30400.00
01928              -1.40    30400.00
01929              -2.20    29600.00
01930              -1.60    28800.00
01931              -1.80    28800.00
01932              -2.00    29600.00
01933              -2.00    28000.00
01934              -1.60    28000.00
01935              -1.80    28000.00
01936              -2.20    27200.00
01937              -1.40    27200.00
01938              -2.00    27200.00
01939              -1.60    27200.00
01940              -1.20    26400.00
01941              -2.20    26400.00
01942              -1.80    25600.00
01943              -1.20    24800.00
01944              -2.00    24800.00
01945              -1.20    24000.00
01946              -2.00    24000.00
01947              -2.00    24000.00
01948              -1.40    23200.00
01949              -1.60    22400.00
01950              -1.80    22400.00
01951              -1.80    22400.00
01952              -1.40    21600.00
01953              -1.80    20800.00
01954              -1.20    20000.00
01955              -1.80    20000.00
01956              -1.80    19200.00
01957              -1.00    18400.00
01958              -2.00    18400.00
01959              -1.80    17600.00
01960              -1.00    17600.00
01961              -2.00    17600.00
01962              -1.40    16000.00
01963              -0.60    16000.00
01964              -1.60    15200.00
01965              -1.40    14400.00
01966              -1.20    14400.00
01967              -1.40    13600.00
01968              -1.40    12800.00
01969              -1.60    12800.00
01970              -1.20    12000.00
01971              -0.60    11200.00
01972              -1.20    11200.00
01973              -2.00    10400.00
01974              -0.80     9600.00
01975              -0.80     8800.00
01976              -1.80     8800.00
01977              -0.20     8000.00
01978              -0.40     7200.00
01979              -1.40     7200.00
01980              -0.80     6400.00
01981              -0.40     5600.00
01982              -0.60     4800.00
01983              -1.20     4800.00
01984              -0.60     3200.00
01985              -0.20     3200.00
01986              -0.60     3200.00
01987              -1.00     1600.00
01988               0.00     1600.00
01989              -0.20     1600.00
01990              -0.40        0.00
01991               0.40     -800.00
01992               2.60     -800.00
01993               1.20    -1600.00
01994              -1.80    -1600.00
01995               1.20    -2400.00
01996               1.20    -3200.00
01997               0.20    -3200.00
01998               0.60    -4000.00
01999               8.40    -4800.00
02000              25.00    -6400.00
02001              -9.00    -7200.00
02002             -25.00    -8000.00
02003              11.60    -8000.00
02004              19.60    -8800.00
02005             -25.00    -8000.00
02006              -4.60    -8800.00
02007              25.00    -9600.00
02008             -25.00    -9600.00
02009             -19.80   -11200.00
02010              25.00   -11200.00
02011             -25.00   -12000.00
02012               8.60   -12800.00
02013              22.80   -12800.00
02014             -25.00   -13600.00
02015              25.00   -14400.00
02016             -25.00   -14400.00
02017              10.60   -15200.00
02018              25.00   -16000.00
02019             -25.00   -16000.00
02020              13.40   -17600.00
02021              25.00   -17600.00
02022             -25.00   -18400.00
02023              -2.20   -18400.00
02024              25.00   -19200.00
02025             -25.00   -19200.00
02026               5.20   -20000.00
02027              25.00   -20000.00
02028             -25.00   -20800.00
02029              11.80   -21600.00
02030               6.80   -22400.00
02031             -16.80   -22400.00
02032               9.40   -23200.00
02033               8.20   -23200.00
02034             -10.80   -24000.00
02035              11.00   -24000.00
02036               3.40   -24000.00
02037             -13.20   -25600.00
02038              13.80   -24800.00
02039              -2.80   -25600.00
02040              -4.60   -25600.00
02041              10.80   -26400.00
02042              -3.00   -26400.00
02043              -2.00   -27200.00
02044               6.00   -27200.00
02045              -0.80   -27200.00
02046              -2.60   -27200.00
02047               6.80   -28800.00
02048              -1.40   -28800.00
02049              -1.20   -28800.00
02050               6.20   -28800.00
02051              -1.60   -29600.00
02052               1.20   -29600.00
02053               4.60   -29600.00
02054              -2.00   -29600.00
02055               1.80   -30400.00
02056               3.20   -30400.00
02057              -1.80   -30400.00
02058               2.80   -30400.00
02059               2.60   -32000.00
02060               0.20   -31200.00
02061               2.60   -32000.00
02062               1.00   -31200.00
02063               0.00   -32000.00
02064               1.40   -32000.00
02065               2.60   -32000.00
02066               0.20   -32000.00
02067               2.20   -32800.00
02068               2.60   -32000.00
02069               0.40   -32800.00
02070               2.20   -32000.00
02071               0.40   -32000.00
02072               1.20   -32800.00
02073               2.40   -32000.00
02074               0.40   -32000.00
02075               2.60   -32000.00
02076               1.80   -32800.00
02077               0.40   -32000.00
02078               2.00   -32000.00
02079               1.20   -32000.00
02080               0.60   -32000.00
02081               1.40   -32000.00
02082               1.40   -32000.00
02083               1.00   -32000.00
02084               1.40   -32000.00
02085               1.80   -32000.00
02086               1.20   -32000.00
02087               1.20   -32000.00
02088               1.20   -30400.00
02089               1.00   -30400.00
02090               1.20   -30400.00
02091               0.40   -29600.00
02092               1.40   -29600.00
02093               2.00   -29600.00
02094               0.80   -29600.00
02095               1.20   -29600.00
02096               1.40   -28800.00
02097               1.00   -28800.00
02098               1.00   -28800.00
02099               1.00   -28800.00
02100               1.60   -27200.00
02101               0.80   -27200.00
02102               1.00   -27200.00
02103               1.40   -26400.00
02104               1.40   -26400.00
02105               1.00   -27200.00
02106               0.60   -25600.00
02107               0.80   -26400.00
02108               1.00   -25600.00
02109               1.40   -24800.00
02110               1.20   -24000.00
02111               0.40   -24000.00
02112               1.20   -24000.00
02113               1.20   -23200.00
02114               0.40   -23200.00
02115               1.20   -22400.00
02116               1.00   -22400.00
02117               0.40   -22400.00
02118               1.20   -20800.00
02119               1.00   -20000.00
02120               0.40   -20000.00
02121               0.40   -20000.00
02122               1.00   -18400.00
02123               1.20   -18400.00
02124               0.60   -18400.00
02125               0.20   -17600.00
02126               0.20   -16800.00
02127               0.80   -16800.00
02128               1.20   -16000.00
02129               0.20   -16000.00
02130               0.60   -15200.00
02131               0.60   -14400.00
02132              -0.20   -13600.00
02133               0.60   -13600.00
02134               0.60   -12800.00
02135               0.20   -12800.00
02136               0.20   -11200.00
02137               0.40   -11200.00
02138               0.40   -10400.00
02139              -0.20   -10400.00
02140               0.20    -9600.00
02141               0.20    -9600.00
02142              -0.20    -8000.00
02143               0.40    -8000.00
02144               0.20    -7200.00
02145              -0.40    -6400.00
02146               0.00    -6400.00
02147              -0.20    -4800.00
02148              -0.20    -4800.00
02149              -0.20    -4000.00
02150              -0.40    -3200.00
02151              -0.20    -3200.00
02152              -0.20    -1600.00
02153              -0.60    -1600.00
02154              -0.20     -800.00
02155              -0.20     -800.00
02156              -0.40        0.00
02157              -0.20      800.00
02158               0.40      800.00
02159               2.80     1600.00
02160              -0.40     2400.00
02161              -1.80     2400.00
02162               1.00     3200.00
02163               0.20     3200.00
02164              -1.80     4000.00
02165               6.40     4800.00
02166              25.00     7200.00
02167              -4.40     7200.00
02168             -25.00     8000.00
02169              10.80     8000.00
02170              17.80     8800.00
02171             -25.00     8800.00
02172              25.00     9600.00
02173              25.00    10400.00
02174             -25.00     9600.00
02175              25.00    11200.00
02176              13.80    11200.00
02177             -25.00    12000.00
02178              25.00    12800.00
02179             -25.00    12800.00
02180              25.00    14400.00
02181              25.00    14400.00
02182             -25.00    14400.00
02183              25.00    15200.00
02184             -19.60    16000.00
02185             -25.00    16000.00
02186              25.00    17600.00
02187             -13.40    17600.00
02188             -25.00    18400.00
02189              25.00    18400.00
02190               9.00    19200.00
02191             -25.00    20800.00
02192              25.00    20000.00
02193              -7.00    21600.00
02194             -19.40    21600.00
02195              25.00    21600.00
02196             -25.00    22400.00
02197               0.20    23200.00
02198              11.00    22400.00
02199             -11.60    23200.00
02200              -2.20    24800.00
02201              15.40    24800.00
02202             -17.00    24800.00
02203              -0.20    25600.00
02204              10.20    25600.00
02205             -19.40    25600.00
02206               9.20    27200.00
02207              -0.20    27200.00
02208              -7.40    27200.00
02209               2.60    27200.00
02210              -0.20    28000.00
02211              -6.20    28000.00
02212               0.20    28000.00
02213               1.80    28800.00
02214              -7.60    28800.00
02215               1.80    28800.00
02216              -1.80    29600.00
02217              -5.40    30400.00
02218               3.00    30400.00
02219              -3.00    30400.00
02220              -4.00    30400.00
02221               1.80    31200.00
02222              -4.40    30400.00
02223              -2.80    31200.00
02224               0.60    31200.00
02225              -4.40    31200.00
02226              -0.60    32800.00
02227              -0.60    32000.00
02228              -3.60    32000.00
02229              -2.60    32000.00
02230              -2.20    32000.00
02231              -1.80    32800.00
02232              -2.60    32800.00
02233              -1.00    32800.00
02234              -3.00    32800.00
02235              -1.20    32800.00
02236              -1.00    32800.00
02237              -4.40    32800.00
02238               0.40    32800.00
02239              -2.20    32800.00
02240              -3.00    32800.00
02241              -0.40    32800.00
02242              -3.60    32800.00
02243              -2.20    32800.00
02244              -1.00    32800.00
02245              -2.00    32000.00
02246              -2.00    32800.00
02247              -2.60    32800.00
02248              -1.80    32800.00
02249              -2.20    32000.00
02250              -2.00    32800.00
02251              -2.00    32000.00
02252              -2.20    32000.00
02253              -1.40    32800.00
02254              -2.00    32000.00
02255              -1.80    32000.00
02256              -2.20    31200.00
02257              -2.40    31200.00
02258              -1.40    31200.00
02259              -2.20    30400.00
02260              -1.80    30400.00
02261              -1.40    30400.00
02262              -2.60    30400.00
02263              -1.20    28800.00
02264              -1.20    28800.00
02265              -2.80    28800.00
02266              -2.20    28800.00
02267              -1.40    28800.00
02268              -1.80    28800.00
02269              -1.80    28000.00
02270              -1.40    27200.00
02271              -1.80    27200.00
02272              -2.20    27200.00
02273              -1.40    26400.00
02274              -2.20    26400.00
02275              -2.00    25600.00
02276              -1.20    25600.00
02277              -1.80    24800.00
02278              -1.40    24800.00
02279              -2.20    24000.00
02280              -1.40    24000.00
02281              -1.40    23200.00
02282              -2.20    23200.00
02283              -1.40    22400.00
02284              -1.20    21600.00
02285              -2.00    21600.00
02286              -1.20    20800.00
02287              -1.40    20800.00
02288              -2.00    20800.00
02289              -1.80    19200.00
02290              -1.00    19200.00
02291              -1.20    18400.00
02292              -2.00    17600.00
02293              -1.40    17600.00
02294              -1.80    16800.00
02295              -1.40    16000.00
02296              -1.20    15200.00
02297              -1.20    15200.00
02298              -1.00    15200.00
02299              -1.40    14400.00
02300              -1.20    13600.00
02301              -1.40    12800.00
02302              -1.20    12800.00
02303              -0.80    12000.00
02304              -1.80    11200.00
02305              -1.60    11200.00
02306               0.20     9600.00
02307              -1.20     9600.00
02308              -1.00     8800.00
02309              -1.20     8800.00
02310              -1.20     8000.00
02311              -1.00     8000.00
02312               0.20     7200.00
02313              -0.80     6400.00
02314              -0.40     7200.00
02315              -0.40     5600.00
02316              -1.00     4800.00
02317              -0.60     3200.00
02318              -0.20     3200.00
02319              -1.00     3200.00
02320              -0.40     2400.00
02321               0.40     1600.00
02322              -1.00      800.00
02323              -1.00        0.00
02324               0.60        0.00
02325               1.60     -800.00
02326               2.80    -1600.00
02327              -1.20    -1600.00
02328               0.20    -2400.00
02329               1.00    -3200.00
02330               0.20    -4000.00
02331               0.20    -4000.00
02332               6.20    -4000.00
02333              22.80    -4800.00
02334               7.80    -7200.00
02335             -25.00    -7200.00
02336              -3.60    -8000.00
02337              25.00    -8000.00
02338             -25.00    -8800.00
02339             -23.40    -8000.00
02340              25.00    -9600.00
02341              -6.80   -10400.00
02342             -25.00   -10400.00
02343              25.00   -12000.00
02344             -25.00   -11200.00
02345             -24.60   -12800.00
02346              25.00   -12800.00
02347             -25.00   -13600.00
02348              25.00   -14400.00
02349             -15.00   -14400.00
02350             -12.20   -15200.00
02351              25.00   -16000.00
02352             -25.00   -16000.00
02353              -3.80   -16800.00
02354              25.00   -17600.00
02355             -19.00   -17600.00
02356             -16.40   -18400.00
02357              25.00   -19200.00
02358             -15.40   -20000.00
02359             -13.00   -19200.00
02360              25.00   -20000.00
02361             -19.00   -20800.00
02362              -0.60   -21600.00
02363              16.00   -21600.00
02364             -17.00   -22400.00
02365               4.20   -22400.00
02366              12.20   -22400.00
02367             -10.00   -24000.00
02368               4.40   -24000.00
02369              10.60   -24000.00
02370             -14.00   -24800.00
02371               9.00   -25600.00
02372               3.80   -25600.00
02373              -8.60   -26400.00
02374              10.00   -26400.00
02375               0.20   -27200.00
02376              -3.40   -26400.00
02377               5.20   -27200.00
02378               2.20   -27200.00
02379              -3.00   -28000.00
02380               5.20   -28000.00
02381               1.00   -28800.00
02382              -3.00   -28800.00
02383               6.00   -28800.00
02384              -0.60   -28800.00
02385               0.40   -29600.00
02386               5.40   -29600.00
02387              -1.00   -30400.00
02388               1.00   -30400.00
02389               3.80   -30400.00
02390              -1.20   -30400.00
02391               1.80   -31200.00
02392               3.40   -31200.00
02393               0.80   -31200.00
02394               2.20   -32000.00
02395               0.60   -32000.00
02396               1.80   -31200.00
02397               0.60   -32000.00
02398               1.20   -32000.00
02399               1.80   -32000.00
02400               0.60   -32000.00
02401               2.60   -32000.00
02402               0.60   -32000.00
02403               1.80   -32000.00
02404               1.60   -32800.00
02405               0.20   -32000.00
02406               2.40   -32800.00
02407               1.00   -32000.00
02408               1.20   -32000.00
02409               2.20   -32000.00
02410               1.00   -32800.00
02411               1.20   -32000.00
02412               2.00   -32000.00
02413               1.20   -32000.00
02414               0.60   -32000.00
02415               1.20   -32000.00
02416               1.20   -31200.00
02417               0.60   -32000.00
02418               2.00   -32000.00
02419               1.00   -31200.00
02420               1.40   -30400.00
02421               1.60   -31200.00
02422               0.60   -30400.00
02423               1.40   -30400.00
02424               1.40   -30400.00
02425               0.80   -29600.00
02426               1.80   -30400.00
02427               1.00   -29600.00
02428               0.60   -28800.00
02429               1.20   -29600.00
02430               1.40   -28800.00
02431               0.40   -28800.00
02432               1.00   -28800.00
02433               1.80   -28000.00
02434               1.00   -27200.00
02435               1.80   -27200.00
02436               1.40   -27200.00
02437               0.40   -26400.00
02438               1.80   -26400.00
02439               1.20   -26400.00
02440               0.60   -25600.00
02441               1.40   -25600.00
02442               0.80   -25600.00
02443               0.60   -24800.00
02444               1.20   -24000.00
02445               1.00   -24000.00
02446               1.00   -23200.00
02447               1.00   -22400.00
02448               1.00   -22400.00
02449               0.60   -22400.00
02450               1.00   -21600.00
02451               0.60   -20800.00
02452               0.60   -20800.00
02453               1.00   -20000.00
02454               0.40   -20000.00
02455               0.20   -19200.00
02456               1.00   -18400.00
02457               0.40   -17600.00
02458               0.60   -17600.00
02459               0.60   -17600.00
02460               0.60   -16800.00
02461               0.60   -16000.00
02462               0.60   -16000.00
02463               0.40   -15200.00
02464               0.40   -14400.00
02465               0.20   -14400.00
02466               0.40   -13600.00
02467               0.20   -12800.00
02468               0.20   -12800.00
02469               0.20   -11200.00
02470               0.60   -12000.00
02471               0.40   -10400.00
02472              -0.20   -10400.00
02473               0.20    -9600.00
02474              -0.20    -9600.00
02475              -0.40    -8800.00
02476               0.20    -8000.00
02477              -0.40    -7200.00
02478              -0.20    -6400.00
02479               0.20    -6400.00
02480              -0.40    -6400.00
02481               0.00    -4800.00
02482              -0.20    -4000.00
02483              -0.60    -3200.00
02484              -0.20    -3200.00
02485              -0.20    -3200.00
02486              -0.60    -2400.00
02487              -0.40    -1600.00
02488              -0.40     -800.00
02489              -0.60        0.00
02490              -0.20        0.00
02491               0.20     1600.00
02492               2.40     1600.00
02493               1.40     2400.00
02494              -2.80     2400.00
02495               0.60     3200.00
02496               1.00     3200.00
02497              -1.40     3200.00
02498               3.60     4800.00
02499              23.60     6400.00
02500              14.60     7200.00
02501             -25.00     8000.00
02502              -5.40     8000.00
02503              25.00     8000.00
02504             -25.00     8800.00
02505               0.20     9600.00
02506              25.00     9600.00
02507             -25.00    10400.00
02508              25.00    11200.00
02509              25.00    12000.00
02510             -25.00    12000.00
02511              25.00    12800.00
02512             -25.00    12800.00
02513              -9.40    13600.00
02514              25.00    13600.00
02515             -25.00    15200.00
02516              25.00    16000.00
02517              22.80    16000.00
02518             -25.00    16000.00
02519              25.00    16800.00
02520               6.60    17600.00
02521             -25.00    18400.00
02522              11.60    18400.00
02523              24.80    19200.00
02524             -25.00    19200.00
02525              21.40    20800.00
02526              17.00    20800.00
02527             -25.00    21600.00
02528              25.00    21600.00
02529             -16.20    22400.00
02530             -11.80    22400.00
02531              14.60    22400.00
02532              -7.00    24000.00
02533              -7.20    24000.00
02534              15.40    24000.00
02535              -8.60    24800.00
02536             -11.00    24800.00
02537              15.40    25600.00
02538             -17.20    25600.00
02539               2.00    25600.00
02540               6.00    27200.00
02541              -9.20    27200.00
02542               1.20    27200.00
02543               0.40    28000.00
02544              -4.60    28000.00
02545              -2.60    28800.00
02546               3.80    28000.00
02547              -7.40    28800.00
02548              -0.60    28800.00
02549               0.60    30400.00
02550              -6.80    29600.00
02551               2.00    29600.00
02552              -0.40    30400.00
02553              -5.80    30400.00
02554               1.80    31200.00
02555              -2.40    30400.00
02556              -5.40    31200.00
02557               1.80    31200.00
02558              -3.00    32800.00
02559              -2.40    32000.00
02560               0.40    31200.00
02561              -2.20    32000.00
02562              -2.80    32000.00
02563              -2.60    32800.00
02564              -1.20    32000.00
02565              -2.20    32800.00
02566              -1.40    33600.00
02567              -2.40    32800.00
02568              -1.60    32000.00
02569              -1.00    32800.00
02570              -3.80    32800.00
02571              -0.20    32000.00
02572              -2.20    32800.00
02573              -3.60    32800.00
02574               1.00    33600.00
02575              -2.80    32800.00
02576              -2.80    32800.00
02577              -0.60    32800.00
02578              -2.20    32800.00
02579              -2.20    32000.00
02580              -2.20    32800.00
02581              -1.80    32000.00
02582              -2.00    32800.00
02583              -2.00    32800.00
02584              -1.60    32000.00
02585              -2.20    32000.00
02586              -1.80    31200.00
02587              -2.00    31200.00
02588              -1.20    32000.00
02589              -2.20    31200.00
02590              -2.60    31200.00
02591              -1.00    31200.00
02592              -1.60    30400.00
02593              -2.20    30400.00
02594              -1.20    30400.00
02595              -2.20    30400.00
02596              -2.00    28800.00
02597              -1.40    28800.00
02598              -2.60    28800.00
02599              -2.00    28800.00
02600              -2.20    28800.00
02601              -1.40    28000.00
02602              -1.60    27200.00
02603              -2.60    27200.00
02604              -2.00    27200.00
02605              -1.60    27200.00
02606              -1.40    26400.00
02607              -2.20    25600.00
02608              -2.00    25600.00
02609              -1.20    25600.00
02610              -2.20    24800.00
02611              -1.80    24800.00
02612              -2.00    24000.00
02613              -2.20    24000.00
02614              -1.40    24000.00
02615              -1.80    23200.00
02616              -1.20    22400.00
02617              -1.80    22400.00
02618              -1.80    21600.00
02619              -1.20    20800.00
02620              -2.20    20800.00
02621              -2.00    20000.00
02622              -1.20    19200.00
02623              -1.40    19200.00
02624              -1.40    18400.00
02625              -1.20    17600.00
02626              -1.40    17600.00
02627              -2.00    17600.00
02628              -1.20    16800.00
02629              -1.20    16000.00
02630              -2.00    15200.00
02631              -1.00    14400.00
02632              -1.20    14400.00
02633              -1.20    13600.00
02634              -0.60    12800.00
02635              -1.00    12800.00
02636              -1.20    12000.00
02637              -0.60    11200.00
02638              -1.00    11200.00
02639              -0.80    11200.00
02640              -1.20     9600.00
02641              -0.60     9600.00
02642              -1.20     8800.00
02643              -1.00     8800.00
02644              -0.60     8000.00
02645              -1.00     7200.00
02646              -0.60     6400.00
02647              -0.60     5600.00
02648              -1.00     4800.00
02649              -0.20     4800.00
02650              -1.00     4000.00
02651              -0.40     3200.00
02652              -0.20     2400.00
02653              -0.60     2400.00
02654              -0.60     1600.00
02655              -0.20      800.00
02656              -0.40        0.00
02657              -0.20        0.00
02658               1.20     -800.00
02659               3.60     -800.00
02660              -1.80    -1600.00
02661              -0.20    -1600.00
02662               1.80    -3200.00
02663               0.40    -3200.00
02664              -0.60    -3200.00
02665               4.40    -4800.00
02666              17.40    -5600.00
02667              19.80    -7200.00
02668             -25.00    -7200.00
02669             -19.00    -8000.00
02670              25.00    -8800.00
02671             -11.40    -9600.00
02672             -25.00    -8000.00
02673              25.00    -9600.00
02674              25.00   -10400.00
02675             -25.00   -10400.00
02676              25.00   -11200.00
02677              13.00   -11200.00
02678             -25.00   -12800.00
02679              25.00   -13600.00
02680             -25.00   -12800.00
02681              12.60   -14400.00
02682               8.00   -14400.00
02683             -25.00   -14400.00
02684              25.00   -16000.00
02685             -14.80   -16000.00
02686             -20.40   -16800.00
02687              25.00   -17600.00
02688              -5.40   -17600.00
02689             -25.00   -18400.00
02690              25.00   -19200.00
02691               2.80   -18400.00
02692             -25.00   -19200.00
02693              25.00   -20000.00
02694              -6.00   -20800.00
02695             -13.00   -21600.00
02696              21.00   -22400.00
02697             -12.80   -22400.00
02698              -3.40   -22400.00
02699              14.00   -23200.00
02700              -6.00   -23200.00
02701              -2.20   -24000.00
02702              15.40   -24000.00
02703             -11.40   -24800.00
02704               1.80   -24000.00
02705              10.00   -25600.00
02706             -10.80   -26400.00
02707               6.60   -26400.00
02708               4.20   -26400.00
02709              -3.80   -27200.00
02710               3.40   -27200.00
02711               3.80   -27200.00
02712              -2.80   -27200.00
02713               3.40   -28000.00
02714               3.40   -28800.00
02715              -3.80   -28800.00
02716               4.80   -28800.00
02717               1.40   -28800.00
02718              -1.80   -28800.00
02719               4.60   -29600.00
02720               1.00   -29600.00
02721              -1.40   -30400.00
02722               4.40   -30400.00
02723               0.20   -30400.00
02724              -0.20   -30400.00
02725               3.60   -31200.00
02726               0.40   -31200.00
02727               2.00   -31200.00
02728               2.00   -32000.00
02729               0.80   -32000.00
02730               0.40   -32000.00
02731               2.20   -32000.00
02732               1.20   -32000.00
02733               0.40   -32000.00
02734               2.80   -32000.00
02735               0.40   -32000.00
02736               1.80   -32000.00
02737               1.60   -32000.00
02738               0.20   -32000.00
02739               2.60   -32000.00
02740               1.20   -32800.00
02741               1.00   -32800.00
02742               1.40   -32000.00
02743               1.40   -32000.00
02744               1.20   -32000.00
02745               1.40   -32000.00
02746               2.00   -32000.00
02747               0.80   -32000.00
02748               1.20   -32000.00
02749               1.40   -32000.00
02750               0.40   -32000.00
02751               1.40   -32000.00
02752               1.40   -31200.00
02753               1.00   -31200.00
02754               2.00   -30400.00
02755               1.20   -30400.00
02756               1.20   -31200.00
02757               1.20   -29600.00
02758               1.40   -29600.00
02759               1.80   -30400.00
02760               1.40   -29600.00
02761               1.00   -29600.00
02762               1.20   -29600.00
02763               1.20   -28800.00
02764               1.60   -28800.00
02765               1.20   -28800.00
02766               1.40   -28000.00
02767               0.40   -28000.00
02768               1.00   -27200.00
02769               1.20   -27200.00
02770               0.80   -27200.00
02771               1.80   -26400.00
02772               2.00   -26400.00
02773               0.80   -26400.00
02774               1.20   -25600.00
02775               0.60   -25600.00
02776               0.60   -24800.00
02777               1.20   -24000.00
02778               0.60   -24000.00
02779               0.60   -24000.00
02780               1.20   -23200.00
02781               0.60   -23200.00
02782               1.20   -22400.00
02783               1.20   -22400.00
02784               0.40   -22400.00
02785               0.40   -20800.00
02786               1.80   -20800.00
02787               0.40   -20000.00
02788              -0.20   -20000.00
02789               1.20   -18400.00
02790               1.40   -17600.00
02791               0.40   -17600.00
02792               0.60   -16800.00
02793               1.20   -16800.00
02794               0.40   -16800.00
02795              -0.60   -16000.00
02796               0.40   -16000.00
02797               1.20   -14400.00
02798              -0.40   -14400.00
02799               0.20   -13600.00
02800               1.80   -13600.00
02801               0.00   -12800.00
02802              -0.60   -12000.00
02803               0.60   -11200.00
02804               0.20   -11200.00
02805              -0.40   -10400.00
02806               0.20    -9600.00
02807               1.00    -9600.00
02808              -0.20    -8800.00
02809              -0.40    -8000.00
02810               0.40    -7200.00
02811               0.00    -7200.00
02812              -0.60    -6400.00
02813               0.20    -6400.00
02814               0.20    -4800.00
02815              -1.40    -4800.00
02816              -0.40    -4000.00
02817               0.40    -3200.00
02818              -0.60    -3200.00
02819               0.20    -2400.00
02820               0.20    -1600.00
02821              -0.60     -800.00
02822              -0.40        0.00
02823              -0.40        0.00
02824              -0.40     1600.00
02825               1.40     1600.00
02826               2.80     1600.00
02827              -3.00     2400.00
02828               0.40     3200.00
02829               1.40     3200.00
02830              -1.40     4000.00
02831               1.20     4000.00
02832              16.40     5600.00
02833              25.00     7200.00
02834             -25.00     8000.00
02835             -24.40     8000.00
02836              25.00     8800.00
02837             -16.80     8000.00
02838             -25.00     8800.00
02839              25.00     9600.00
02840             -25.00     9600.00
02841             -22.20    11200.00
02842              25.00    11200.00
02843             -25.00    12000.00
02844              25.00    12800.00
02845              16.60    12800.00
02846             -25.00    13600.00
02847              25.00    14400.00
02848             -25.00    14400.00
02849              10.00    15200.00
02850              25.00    16000.00
02851             -25.00    16000.00
02852              25.00    16000.00
02853              25.00    17600.00
02854             -25.00    18400.00
02855              -4.60    18400.00
02856              25.00    18400.00
02857             -25.00    19200.00
02858              -0.60    20000.00
02859              25.00    20800.00
02860             -25.00    21600.00
02861              19.60    21600.00
02862              -0.20    22400.00
02863             -23.00    22400.00
02864              15.00    22400.00
02865              -0.60    24000.00
02866             -11.60    24000.00
02867              11.40    24800.00
02868               1.00    24000.00
02869             -18.80    24800.00
02870              15.60    25600.00
02871              -9.80    25600.00
02872              -6.80    25600.00
02873              10.60    26400.00
02874              -9.00    27200.00
02875              -1.20    27200.00
02876               2.00    28000.00
02877              -3.00    28000.00
02878              -5.40    28000.00
02879               4.60    28800.00
02880              -5.00    28800.00
02881              -4.60    28800.00
02882               3.00    29600.00
02883              -5.40    29600.00
02884              -0.60    30400.00
02885               1.40    30400.00
02886              -5.00    30400.00
02887               0.20    30400.00
02888              -1.00    31200.00
02889              -5.40    31200.00
02890               1.00    31200.00
02891              -2.80    32000.00
02892              -2.80    31200.00
02893               1.20    32800.00
02894              -3.00    32000.00
02895              -3.00    32800.00
02896              -1.20    32800.00
02897              -1.40    32000.00
02898              -3.00    32800.00
02899              -0.60    32800.00
02900              -0.80    32800.00
02901              -4.20    32000.00
02902               0.20    32800.00
02903              -1.40    32800.00
02904              -3.60    32800.00
02905              -1.40    33600.00
02906              -2.20    32800.00
02907              -1.00    33600.00
02908              -2.80    33600.00
02909              -1.80    32800.00
02910              -0.60    32800.00
02911              -3.00    32000.00
02912              -1.20    32800.00
02913              -1.80    32800.00
02914              -3.20    32000.00
02915              -2.00    32800.00
02916              -0.60    32000.00
02917              -1.60    32000.00
02918              -3.00    32800.00
02919              -1.00    31200.00
02920              -1.80    32000.00
02921              -4.20    32000.00
02922              -0.60    31200.00
02923              -1.60    30400.00
02924              -2.80    31200.00
02925              -1.80    31200.00
02926              -2.00    30400.00
02927              -1.20    30400.00
02928              -2.00    29600.00
02929              -2.80    28800.00
02930              -1.20    30400.00
02931              -1.80    28800.00
02932              -2.60    28800.00
02933              -2.60    28800.00
02934              -1.00    28000.00
02935              -1.40    27200.00
02936              -2.40    27200.00
02937              -1.80    27200.00
02938              -2.20    26400.00
02939              -1.60    26400.00
02940              -2.00    26400.00
02941              -2.20    25600.00
02942              -2.20    24800.00
02943              -1.20    24800.00
02944              -0.60    24800.00
02945              -1.40    24000.00
02946              -2.60    24000.00
02947              -1.40    24000.00
02948              -1.20    23200.00
02949              -2.20    22400.00
02950              -2.20    22400.00
02951              -1.20    21600.00
02952              -0.60    21600.00
02953              -1.40    20800.00
02954              -1.20    20000.00
02955              -1.20    19200.00
02956              -2.20    19200.00
02957              -1.80    18400.00
02958              -2.20    18400.00
02959              -1.20    17600.00
02960              -0.60    16800.00
02961              -1.20    16800.00
02962              -0.60    16000.00
02963              -1.40    16000.00
02964              -1.20    14400.00
02965              -1.00    14400.00
02966              -1.80    14400.00
02967              -1.80    13600.00
02968              -1.00    12800.00
02969              -0.60    12800.00
02970              -0.60    12000.00
02971              -0.60    11200.00
02972              -0.80    10400.00
02973              -1.40     9600.00
02974              -1.00     9600.00
02975              -0.60     8800.00
02976              -1.20     8800.00
02977              -0.40     8000.00
02978              -1.00     7200.00
02979              -1.00     6400.00
02980              -0.20     5600.00
02981              -0.60     5600.00
02982              -1.00     4800.00
02983              -0.40     4000.00
02984              -0.60     3200.00
02985              -0.60     2400.00
02986              -0.60     2400.00
02987              -0.60     1600.00
02988              -0.40      800.00
02989               0.20        0.00
02990               0.00     -800.00
02991               0.60        0.00
02992               3.00    -1600.00
02993              -1.20    -1600.00
02994              -1.60    -2400.00
02995               1.80    -2400.00
02996               0.40    -3200.00
02997              -0.60    -3200.00
02998               2.80    -4000.00
02999              12.60    -4800.00
03000              25.00    -6400.00
03001             -25.00    -7200.00
03002             -25.00    -8000.00
03003              23.20    -8000.00
03004               4.40    -8000.00
03005             -25.00    -8000.00
03006              25.00    -9600.00
03007              25.00   -10400.00
03008             -25.00    -9600.00
03009              25.00   -11200.00
03010              25.00   -11200.00
03011             -25.00   -12000.00
03012              25.00   -13600.00
03013              -7.00   -12800.00
03014              -7.00   -13600.00
03015              25.00   -14400.00
03016             -25.00   -15200.00
03017              25.00   -15200.00
03018               6.20   -16000.00
03019             -25.00   -16800.00
03020              25.00   -16800.00
03021               8.60   -17600.00
03022             -25.00   -17600.00
03023              14.60   -19200.00
03024              19.00   -18400.00
03025             -25.00   -19200.00
03026              24.20   -20000.00
03027              10.00   -20800.00
03028             -22.60   -20800.00
03029              20.60   -22400.00
03030              -5.40   -22400.00
03031             -11.20   -22400.00
03032              14.00   -23200.00
03033               0.20   -24000.00
03034              -7.60   -23200.00
03035              16.20   -24000.00
03036              -5.40   -24800.00
03037              -6.00   -24800.00
03038              13.80   -25600.00
03039              -9.20   -24800.00
03040               2.20   -26400.00
03041               7.80   -26400.00
03042              -4.20   -27200.00
03043               1.20   -27200.00
03044               5.20   -27200.00
03045              -2.40   -27200.00
03046               1.20   -28000.00
03047               5.20   -28800.00
03048              -3.60   -28800.00
03049               2.60   -28800.00
03050               3.40   -28800.00
03051              -2.40   -29600.00
03052               3.80   -29600.00
03053               2.60   -29600.00
03054              -1.80   -29600.00
03055               3.40   -30400.00
03056               1.20   -30400.00
03057              -1.20   -30400.00
03058               3.00   -31200.00
03059               1.20   -31200.00
03060               1.40   -32000.00
03061               2.00   -32000.00
03062               0.60   -31200.00
03063               1.00   -32000.00
03064               1.40   -32000.00
03065               2.00   -32000.00
03066               0.20   -32000.00
03067               2.20   -32000.00
03068               1.40   -32000.00
03069               0.40   -32000.00
03070               2.20   -32800.00
03071               0.20   -32000.00
03072               1.40   -32800.00
03073               2.00   -32000.00
03074               0.80   -32800.00
03075               1.80   -32800.00
03076               1.20   -32000.00
03077               1.40   -32000.00
03078               1.40   -32000.00
03079               1.80   -32000.00
03080               1.20   -32000.00
03081               1.20   -32000.00
03082               1.80   -32000.00
03083               1.20   -32000.00
03084               1.60   -32000.00
03085               1.40   -31200.00
03086               1.40   -31200.00
03087               1.80   -31200.00
03088               1.00   -31200.00
03089               1.40   -30400.00
03090               1.60   -30400.00
03091               1.40   -29600.00
03092               1.60   -29600.00
03093               1.60   -29600.00
03094               1.00   -29600.00
03095               1.40   -29600.00
03096               1.20   -28800.00
03097               1.80   -28800.00
03098               1.00   -28800.00
03099               0.80   -28800.00
03100               1.40   -28000.00
03101               1.20   -27200.00
03102               1.20   -27200.00
03103               1.20   -27200.00
03104               1.00   -26400.00
03105               1.20   -26400.00
03106               1.00   -25600.00
03107               1.40   -25600.00
03108               1.00   -25600.00
03109               1.00   -24800.00
03110               1.40   -24000.00
03111               1.00   -24000.00
03112               1.20   -24000.00
03113               1.20   -23200.00
03114               0.60   -23200.00
03115               1.00   -22400.00
03116               1.00   -21600.00
03117               0.80   -20800.00
03118               0.60   -20800.00
03119               0.80   -20800.00
03120               1.00   -20000.00
03121               0.40   -19200.00
03122               0.40   -20000.00
03123               0.40   -18400.00
03124               0.40   -18400.00
03125               0.80   -17600.00
03126               0.40   -16800.00
03127               0.40   -16800.00
03128               0.40   -16000.00
03129               0.40   -16000.00
03130               0.40   -16000.00
03131               0.20   -14400.00
03132               0.20   -14400.00
03133               0.40   -13600.00
03134               0.00   -12800.00
03135               0.40   -12000.00
03136              -0.20   -12000.00
03137               0.20   -11200.00
03138               0.40   -10400.00
03139              -0.20   -10400.00
03140               0.20    -9600.00
03141               0.20    -8800.00
03142              -0.20    -8000.00
03143               0.40    -7200.00
03144               0.00    -7200.00
03145               0.20    -6400.00
03146               0.40    -5600.00
03147              -0.20    -5600.00
03148              -0.20    -4800.00
03149              -0.20    -4000.00
03150              -0.60    -4000.00
03151              -0.20    -3200.00
03152              -0.20    -2400.00
03153              -0.60    -1600.00
03154              -0.20     -800.00
03155              -0.20     -800.00
03156              -0.20        0.00
03157               0.60      800.00
03158               0.60     1600.00
03159               3.40     1600.00
03160              -2.00     2400.00
03161              -1.20     2400.00
03162               1.40     3200.00
03163              -0.20     3200.00
03164              -0.60     4000.00
03165              11.40     5600.00
03166              25.00     7200.00
03167             -25.00     7200.00
03168             -25.00     8000.00
03169              24.00     8000.00
03170               0.40     8800.00
03171             -25.00     8800.00
03172              25.00     9600.00
03173               5.40     9600.00
03174             -25.00    11200.00
03175              25.00    11200.00
03176             -25.00    12000.00
03177             -13.00    12800.00
03178              25.00    12800.00
03179             -25.00    12800.00
03180              25.00    14400.00
03181             -25.00    14400.00
03182             -25.00    15200.00
03183              25.00    15200.00
03184             -25.00    16000.00
03185               2.00    16800.00
03186              25.00    16800.00
03187             -25.00    17600.00
03188             -18.80    17600.00
03189              25.00    19200.00
03190             -16.00    19200.00
03191             -22.80    19200.00
03192              25.00    20800.00
03193             -25.00    20800.00
03194               2.80    21600.00
03195              15.80    22400.00
03196             -25.00    22400.00
03197              11.20    22400.00
03198               4.20    23200.00
03199             -13.00    24000.00
03200               5.20    24000.00
03201               9.00    24800.00
03202             -21.00    24800.00
03203              10.80    25600.00
03204              -0.60    25600.00
03205             -14.80    25600.00
03206              11.80    26400.00
03207              -6.60    27200.00
03208              -4.00    26400.00
03209               2.80    27200.00
03210              -1.40    27200.00
03211              -6.00    28000.00
03212               3.00    28800.00
03213              -2.20    28000.00
03214              -6.80    28800.00
03215               3.40    29600.00
03216              -4.60    28800.00
03217              -3.00    29600.00
03218               3.60    30400.00
03219              -5.00    30400.00
03220              -2.20    30400.00
03221               1.60    30400.00
03222              -5.80    31200.00
03223              -0.80    31200.00
03224              -0.20    31200.00
03225              -4.40    32000.00
03226               0.60    32000.00
03227              -1.80    32000.00
03228              -3.40    32000.00
03229              -2.00    32800.00
03230              -2.00    32000.00
03231              -2.20    32800.00
03232              -1.80    32000.00
03233              -0.60    32800.00
03234              -3.40    32000.00
03235               0.00    32800.00
03236              -2.00    32800.00
03237              -3.00    32800.00
03238              -0.20    32800.00
03239              -3.60    32800.00
03240              -1.20    32000.00
03241              -1.00    32800.00
03242              -3.40    32800.00
03243              -1.20    32000.00
03244              -1.80    32000.00
03245              -2.00    32800.00
03246              -1.80    32800.00
03247              -2.20    32000.00
03248              -2.20    32800.00
03249              -1.80    32000.00
03250              -1.80    32000.00
03251              -2.80    32000.00
03252              -1.80    31200.00
03253              -1.80    31200.00
03254              -2.40    31200.00
03255              -1.40    31200.00
03256              -2.60    31200.00
03257              -2.60    30400.00
03258              -1.00    31200.00
03259              -2.20    30400.00
03260              -2.00    30400.00
03261              -1.80    29600.00
03262              -2.20    28800.00
03263              -1.40    29600.00
03264              -2.00    28800.00
03265              -2.20    28800.00
03266              -2.00    28800.00
03267              -2.00    28000.00
03268              -1.40    28000.00
03269              -2.20    27200.00
03270              -1.80    27200.00
03271              -2.00    27200.00
03272              -1.80    26400.00
03273              -1.80    25600.00
03274              -2.60    25600.00
03275              -1.80    25600.00
03276              -1.60    24800.00
03277              -1.80    24800.00
03278              -1.20    24800.00
03279              -2.00    24000.00
03280              -1.80    24000.00
03281              -1.40    24000.00
03282              -1.40    23200.00
03283              -1.80    22400.00
03284              -2.00    21600.00
03285              -1.20    21600.00
03286              -1.40    20800.00
03287              -1.80    20800.00
03288              -1.40    19200.00
03289              -1.80    19200.00
03290              -1.00    18400.00
03291              -1.40    17600.00
03292              -1.40    17600.00
03293              -1.00    17600.00
03294              -1.40    16800.00
03295              -0.80    16000.00
03296              -1.20    16000.00
03297              -1.40    15200.00
03298              -1.00    14400.00
03299              -1.20    14400.00
03300              -1.20    13600.00
03301              -1.20    12800.00
03302              -1.20    12800.00
03303              -1.00    12000.00
03304              -0.60    11200.00
03305              -1.20    11200.00
03306              -1.40     9600.00
03307              -1.20     9600.00
03308              -0.20     8800.00
03309              -1.20     8000.00
03310              -1.00     8000.00
03311              -0.60     7200.00
03312              -1.00     6400.00
03313              -0.40     5600.00
03314              -0.80     5600.00
03315              -0.80     4800.00
03316              -0.40     4000.00
03317              -1.20     3200.00
03318              -0.60     3200.00
03319              -0.20     2400.00
03320              -1.20     1600.00
03321              -1.00     1600.00
03322               0.20      800.00
03323              -0.60        0.00
03324              -0.20     -800.00
03325               3.40     -800.00
03326               1.00    -1600.00
03327              -2.60    -1600.00
03328               1.80    -2400.00
03329              -0.20    -3200.00
03330              -0.40    -3200.00
03331               1.80    -4000.00
03332               8.80    -4000.00
03333              25.00    -6400.00
03334             -12.60    -7200.00
03335             -25.00    -8000.00
03336              13.80    -8000.00
03337              15.80    -9600.00
03338             -25.00    -9600.00
03339               1.00    -8800.00
03340              25.00   -10400.00
03341             -25.00   -10400.00
03342              -9.40   -11200.00
03343              25.00   -12000.00
03344             -25.00   -12000.00
03345              15.00   -12800.00
03346              19.40   -13600.00
03347             -25.00   -13600.00
03348              25.00   -14400.00
03349             -25.00   -14400.00
03350              13.80   -15200.00
03351              25.00   -16000.00
03352             -25.00   -16800.00
03353              15.80   -16800.00
03354              22.20   -16800.00
03355             -25.00   -18400.00
03356              -0.80   -18400.00
03357              25.00   -19200.00
03358             -25.00   -20000.00
03359               8.40   -20000.00
03360              24.20   -20800.00
03361             -25.00   -21600.00
03362              13.20   -22400.00
03363               4.60   -22400.00
03364             -15.60   -22400.00
03365              10.60   -22400.00
03366               6.20   -23200.00
03367             -10.60   -24000.00
03368              12.20   -24000.00
03369               2.60   -24000.00
03370             -12.20   -24800.00
03371              13.20   -25600.00
03372              -3.00   -25600.00
03373              -3.60   -25600.00
03374               9.20   -26400.00
03375              -2.00   -26400.00
03376              -1.20   -27200.00
03377               5.00   -27200.00
03378               0.20   -27200.00
03379              -1.20   -28000.00
03380               5.20   -28800.00
03381              -1.80   -28800.00
03382              -0.60   -28800.00
03383               4.60   -28800.00
03384              -2.00   -29600.00
03385               1.40   -29600.00
03386               4.80   -29600.00
03387              -2.00   -29600.00
03388               1.40   -30400.00
03389               3.00   -30400.00
03390              -1.80   -30400.00
03391               2.00   -30400.00
03392               2.20   -31200.00
03393               0.60   -31200.00
03394               2.00   -31200.00
03395               1.20   -32000.00
03396               0.40   -32000.00
03397               1.00   -32000.00
03398               2.00   -32000.00
03399               0.40   -32000.00
03400               1.80   -32000.00
03401               2.20   -32000.00
03402               0.40   -32000.00
03403               2.20   -32000.00
03404               0.40   -32000.00
03405               1.20   -32000.00
03406               2.00   -32000.00
03407               0.60   -32800.00
03408               2.00   -32000.00
03409               1.60   -32000.00
03410               1.00   -32000.00
03411               2.00   -32000.00
03412               1.60   -32000.00
03413               1.20   -32000.00
03414               1.00   -32000.00
03415               1.80   -32000.00
03416               1.40   -31200.00
03417               1.00   -31200.00
03418               1.80   -32000.00
03419               1.40   -30400.00
03420               1.80   -31200.00
03421               1.40   -32000.00
03422               1.20   -30400.00
03423               1.80   -30400.00
03424               1.00   -29600.00
03425               1.20   -30400.00
03426               2.00   -29600.00
03427               1.00   -29600.00
03428               1.60   -29600.00
03429               1.40   -28800.00
03430               1.20   -28800.00
03431               1.20   -28800.00
03432               1.00   -28800.00
03433               1.80   -28000.00
03434               1.20   -28000.00
03435               1.20   -27200.00
03436               1.00   -27200.00
03437               1.00   -26400.00
03438               1.80   -26400.00
03439               1.20   -25600.00
03440               1.20   -25600.00
03441               1.00   -25600.00
03442               0.60   -24800.00
03443               1.00   -24800.00
03444               0.60   -24800.00
03445               1.00   -24000.00
03446               1.00   -23200.00
03447               0.60   -23200.00
03448               1.00   -22400.00
03449               0.60   -22400.00
03450               0.60   -22400.00
03451               0.60   -20800.00
03452               0.80   -20800.00
03453               0.60   -20000.00
03454               0.40   -19200.00
03455               0.40   -19200.00
03456               0.40   -18400.00
03457               0.40   -17600.00
03458               0.80   -17600.00
03459               0.40   -17600.00
03460               0.40   -16800.00
03461               0.40   -16800.00
03462               0.40   -16000.00
03463               0.40   -15200.00
03464              -0.20   -14400.00
03465               0.60   -14400.00
03466               0.60   -13600.00
03467              -0.20   -12800.00
03468               0.40   -12000.00
03469               0.20   -11200.00
03470              -0.20   -11200.00
03471               0.40   -11200.00
03472               0.20   -10400.00
03473               0.20    -9600.00
03474              -0.20    -8800.00
03475              -0.40    -8000.00
03476               0.40    -8000.00
03477              -0.20    -7200.00
03478              -0.20    -6400.00
03479               0.20    -6400.00
03480              -0.40    -5600.00
03481               0.00    -4800.00
03482              -0.20    -4800.00
03483              -0.20    -4000.00
03484               0.00    -2400.00
03485              -0.40    -2400.00
03486              -0.20    -1600.00
03487              -0.20     -800.00
03488              -0.40     -800.00
03489              -0.40        0.00
03490               0.20      800.00
03491               0.40     1600.00
03492               3.40     1600.00
03493              -0.40     2400.00
03494              -1.60     2400.00
03495               1.40     3200.00
03496               0.60     3200.00
03497              -1.80     4000.00
03498               7.20     4800.00
03499              25.00     6400.00
03500              -8.60     7200.00
03501             -25.00     8000.00
03502              14.00     8000.00
03503              15.60     8000.00
03504             -25.00     8000.00
03505              25.00     9600.00
03506              25.00     9600.00
03507             -25.00    10400.00
03508              25.00    12000.00
03509               4.20    11200.00
03510             -25.00    12000.00
03511              25.00    12800.00
03512             -25.00    12800.00
03513              25.00    14400.00
03514              24.20    14400.00
03515             -25.00    14400.00
03516              25.00    15200.00
03517             -25.00    16000.00
03518             -25.00    16800.00
03519              25.00    16800.00
03520             -17.20    17600.00
03521             -25.00    18400.00
03522              25.00    18400.00
03523               5.00    19200.00
03524             -25.00    19200.00
03525              25.00    19200.00
03526             -11.40    20800.00
03527             -16.60    21600.00
03528              25.00    21600.00
03529             -25.00    22400.00
03530               1.80    22400.00
03531               9.80    22400.00
03532             -12.20    23200.00
03533              -1.20    24000.00
03534              14.80    24800.00
03535             -18.20    24800.00
03536               1.80    24800.00
03537               8.40    24800.00
03538             -19.00    25600.00
03539               9.40    25600.00
03540              -0.80    26400.00
03541              -6.60    27200.00
03542               2.60    27200.00
03543              -0.60    27200.00
03544              -6.20    28800.00
03545               0.40    28000.00
03546               1.40    28800.00
03547              -7.80    28800.00
03548               2.20    29600.00
03549              -1.80    28800.00
03550              -5.80    28800.00
03551               3.40    30400.00
03552              -2.80    29600.00
03553              -4.20    30400.00
03554               2.20    30400.00
03555              -4.40    31200.00
03556              -2.80    31200.00
03557               0.60    31200.00
03558              -4.20    32000.00
03559              -0.20    31200.00
03560              -0.60    32000.00
03561              -3.40    32000.00
03562              -2.00    32000.00
03563              -2.00    32000.00
03564              -2.20    32800.00
03565              -2.20    32800.00
03566              -0.60    32000.00
03567              -3.20    32800.00
03568              -1.00    32800.00
03569              -0.60    32000.00
03570              -3.80    32800.00
03571              -0.20    32800.00
03572              -3.00    32800.00
03573              -2.20    32000.00
03574              -0.20    32800.00
03575              -3.60    32800.00
03576              -1.80    32800.00
03577              -1.80    32800.00
03578              -2.60    32800.00
03579              -2.00    32000.00
03580              -2.20    32800.00
03581              -2.20    32000.00
03582              -2.00    32800.00
03583              -1.80    32000.00
03584              -2.40    32800.00
03585              -2.00    32000.00
03586              -1.40    32000.00
03587              -2.60    31200.00
03588              -1.80    31200.00
03589              -2.20    31200.00
03590              -3.00    30400.00
03591              -1.20    30400.00
03592              -1.80    30400.00
03593              -2.40    30400.00
03594              -1.80    29600.00
03595              -2.00    30400.00
03596              -1.80    28800.00
03597              -2.00    28800.00
03598              -2.20    28800.00
03599              -2.00    28800.00
03600              -1.80    28000.00
03601              -1.20    28000.00
03602              -2.00    27200.00
03603              -1.80    27200.00
03604              -2.00    27200.00
03605              -1.80    27200.00
03606              -1.20    27200.00
03607              -2.20    25600.00
03608              -1.80    25600.00
03609              -0.60    24800.00
03610              -2.20    24800.00
03611              -1.40    24800.00
03612              -1.80    24000.00
03613              -2.20    24000.00
03614              -1.20    24000.00
03615              -1.40    22400.00
03616              -1.60    22400.00
03617              -1.40    22400.00
03618              -1.00    20800.00
03619              -1.20    21600.00
03620              -1.80    20000.00
03621              -1.60    20000.00
03622              -1.80    19200.00
03623              -1.20    19200.00
03624              -1.20    18400.00
03625              -1.40    17600.00
03626              -0.60    17600.00
03627              -2.00    17600.00
03628              -0.60    16000.00
03629              -0.60    16000.00
03630              -2.00    15200.00
03631              -0.80    14400.00
03632              -1.20    14400.00
03633              -1.20    12800.00
03634              -1.00    12800.00
03635              -1.00    12800.00
03636              -1.20    12000.00
03637              -0.60    11200.00
03638              -1.40    11200.00
03639              -1.00    10400.00
03640              -1.20     9600.00
03641              -1.00     8800.00
03642              -1.20     8000.00
03643              -0.60     8000.00
03644              -1.00     7200.00
03645              -1.20     6400.00
03646              -0.40     6400.00
03647              -0.80     5600.00
03648              -1.20     4800.00
03649              -0.60     4000.00
03650              -1.20     4000.00
03651              -0.60     3200.00
03652              -0.40     2400.00
03653              -1.20     1600.00
03654              -0.60     1600.00
03655              -0.20        0.00
03656              -0.60        0.00
03657              -0.20     -800.00
03658               2.00    -1600.00
03659               2.60    -1600.00
03660              -2.00    -1600.00
03661               0.60    -3200.00
03662               1.00    -3200.00
03663              -0.20    -4000.00
03664               0.20    -4000.00
03665               6.60    -4000.00
03666              23.40    -5600.00
03667               5.20    -7200.00
03668             -25.00    -7200.00
03669              -0.60    -8000.00
03670              24.60    -8800.00
03671             -25.00    -8800.00
03672             -20.40    -9600.00
03673              25.00   -10400.00
03674             -15.20   -10400.00
03675             -25.00   -10400.00
03676              25.00   -11200.00
03677             -25.00   -12000.00
03678             -18.00   -12800.00
03679              25.00   -12800.00
03680             -25.00   -12800.00
03681              25.00   -14400.00
03682             -18.80   -14400.00
03683              -7.80   -16000.00
03684              25.00   -15200.00
03685             -25.00   -16800.00
03686              -0.40   -16800.00
03687              25.00   -16800.00
03688             -21.00   -17600.00
03689             -14.60   -18400.00
03690              25.00   -18400.00
03691             -18.20   -20000.00
03692              -9.20   -20000.00
03693              25.00   -20000.00
03694             -20.40   -20800.00
03695               2.20   -21600.00
03696              14.20   -22400.00
03697             -16.80   -22400.00
03698               5.40   -22400.00
03699              10.80   -22400.00
03700             -10.40   -23200.00
03701               5.80   -24000.00
03702               9.40   -24800.00
03703             -14.20   -24800.00
03704              10.00   -25600.00
03705               2.80   -25600.00
03706              -8.60   -26400.00
03707               9.80   -26400.00
03708              -0.40   -26400.00
03709              -3.00   -27200.00
03710               4.80   -27200.00
03711               2.00   -27200.00
03712              -2.80   -27200.00
03713               5.00   -28800.00
03714               0.40   -28000.00
03715              -2.60   -28800.00
03716               5.20   -28800.00
03717              -0.80   -28800.00
03718               0.20   -28800.00
03719               4.60   -29600.00
03720              -1.00   -29600.00
03721               0.20   -30400.00
03722               3.60   -30400.00
03723              -1.40   -30400.00
03724               1.40   -30400.00
03725               2.60   -30400.00
03726               0.00   -31200.00
03727               2.60   -30400.00
03728               1.00   -32000.00
03729               0.40   -32000.00
03730               1.00   -32000.00
03731               2.00   -32000.00
03732               0.80   -32000.00
03733               1.40   -32000.00
03734               2.60   -32000.00
03735               0.20   -32000.00
03736               2.20   -32000.00
03737               1.00   -32800.00
03738               0.60   -32800.00
03739               2.60   -32800.00
03740               0.60   -32800.00
03741               1.80   -32000.00
03742               2.40   -32000.00
03743               0.40   -32000.00
03744               1.80   -32800.00
03745               2.20   -32000.00
03746               1.00   -32000.00
03747               0.60   -32800.00
03748               2.60   -32000.00
03749               1.00   -32000.00
03750               0.80   -32000.00
03751               2.40   -32000.00
03752               1.00   -31200.00
03753               1.40   -30400.00
03754               1.80   -30400.00
03755               0.80   -30400.00
03756               1.80   -30400.00
03757               1.20   -30400.00
03758               1.20   -30400.00
03759               2.20   -29600.00
03760               1.20   -29600.00
03761               1.40   -28800.00
03762               1.60   -29600.00
03763               1.00   -29600.00
03764               1.20   -28800.00
03765               1.60   -28000.00
03766               1.20   -28800.00
03767               0.40   -28000.00
03768               1.40   -27200.00
03769               1.00   -27200.00
03770               0.60   -27200.00
03771               1.80   -26400.00
03772               1.20   -26400.00
03773               1.00   -25600.00
03774               1.20   -25600.00
03775               0.60   -24000.00
03776               1.20   -24000.00
03777               1.40   -24000.00
03778               0.40   -24000.00
03779               1.00   -24000.00
03780               0.40   -23200.00
03781               0.40   -22400.00
03782               1.00   -22400.00
03783               0.60   -22400.00
03784               0.40   -20800.00
03785               1.00   -20800.00
03786               0.60   -20000.00
03787               0.40   -20000.00
03788               0.60   -18400.00
03789               0.40   -18400.00
03790               0.40   -18400.00
03791               1.00   -17600.00
03792               0.40   -17600.00
03793               0.40   -16800.00
03794               0.60   -16000.00
03795               0.20   -16000.00
03796               0.60   -16000.00
03797               0.40   -14400.00
03798               0.40   -13600.00
03799               0.60   -13600.00
03800               0.40   -12800.00
03801               0.20   -12800.00
03802               0.40   -12000.00
03803               0.20   -11200.00
03804               0.40   -11200.00
03805               0.20   -10400.00
03806               0.20    -9600.00
03807               0.40    -8800.00
03808              -0.20    -8000.00
03809               0.20    -8000.00
03810               0.20    -7200.00
03811               0.00    -6400.00
03812              -0.20    -6400.00
03813              -0.20    -6400.00
03814              -0.20    -4800.00
03815               0.00    -4000.00
03816              -0.40    -4000.00
03817               0.20    -3200.00
03818               0.00    -2400.00
03819              -0.20    -1600.00
03820              -0.40    -1600.00
03821              -0.40     -800.00
03822              -0.20        0.00
03823               0.20      800.00
03824               0.20      800.00
03825               2.60     1600.00
03826               1.80     2400.00
03827              -2.80     2400.00
03828               0.20     3200.00
03829               1.20     4000.00
03830              -2.00     4000.00
03831               4.20     4800.00
03832              25.00     6400.00
03833              10.80     7200.00
03834             -25.00     8000.00
03835              -2.00     8000.00
03836              25.00     8000.00
03837             -25.00     8000.00
03838               6.00     8800.00
03839              25.00     9600.00
03840             -25.00     9600.00
03841              25.00    11200.00
03842              25.00    11200.00
03843             -25.00    12000.00
03844              25.00    12800.00
03845             -25.00    12800.00
03846              -0.40    13600.00
03847              25.00    14400.00
03848             -25.00    14400.00
03849              25.00    15200.00
03850              14.60    16000.00
03851             -25.00    16000.00
03852              25.00    17600.00
03853               2.40    17600.00
03854             -25.00    18400.00
03855              14.80    18400.00
03856              21.80    19200.00
03857             -25.00    19200.00
03858              24.60    20000.00
03859              12.40    20800.00
03860             -25.00    21600.00
03861              25.00    21600.00
03862             -18.60    22400.00
03863              -9.80    22400.00
03864              14.00    22400.00
03865              -8.20    23200.00
03866              -6.60    24000.00
03867              16.00    24800.00
03868             -10.80    24000.00
03869              -9.20    25600.00
03870              14.80    25600.00
03871             -17.80    25600.00
03872               3.40    26400.00
03873               5.00    27200.00
03874              -9.00    27200.00
03875               1.80    27200.00
03876               0.40    28000.00
03877              -5.20    28000.00
03878              -2.20    28000.00
03879               3.80    28800.00
03880              -7.80    28800.00
03881              -0.40    28800.00
03882               1.20    28800.00
03883              -6.80    30400.00
03884               2.20    30400.00
03885              -0.40    30400.00
03886              -5.40    30400.00
03887               1.40    30400.00
03888              -2.80    31200.00
03889              -4.40    31200.00
03890               1.40    31200.00
03891              -3.80    31200.00
03892              -1.60    31200.00
03893               0.60    32800.00
03894              -3.40    32000.00
03895              -2.20    32800.00
03896              -2.00    32000.00
03897              -1.60    32800.00
03898              -2.60    32800.00
03899              -0.60    32800.00
03900              -2.40    32800.00
03901              -2.60    32800.00
03902              -0.60    32800.00
03903              -4.20    32800.00
03904              -1.00    32800.00
03905              -2.20    32800.00
03906              -3.40    32800.00
03907               0.40    32000.00
03908              -2.80    32800.00
03909              -2.20    32800.00
03910              -1.20    32800.00
03911              -2.20    32800.00
03912              -2.60    32000.00
03913              -2.20    32800.00
03914              -2.20    32000.00
03915              -2.80    32800.00
03916              -1.40    32000.00
03917              -1.40    31200.00
03918              -2.60    32000.00
03919              -2.20    32800.00
03920              -1.60    32000.00
03921              -1.80    32000.00
03922              -3.40    31200.00
03923              -2.60    31200.00
03924              -0.20    30400.00
03925              -1.80    30400.00
03926              -2.80    30400.00
03927              -1.40    30400.00
03928              -1.20    29600.00
03929              -3.80    29600.00
03930              -1.80    28800.00
03931              -0.20    28800.00
03932              -2.80    28800.00
03933              -1.40    28000.00
03934              -0.40    28000.00
03935              -3.80    28000.00
03936              -2.20    27200.00
03937              -0.40    27200.00
03938              -2.60    26400.00
03939              -1.20    27200.00
03940              -0.60    26400.00
03941              -3.40    25600.00
03942              -1.00    24800.00
03943              -1.20    25600.00
03944              -2.20    24800.00
03945              -0.60    24000.00
03946              -1.80    24000.00
03947              -2.20    24000.00
03948              -2.00    22400.00
03949              -1.20    22400.00
03950              -1.40    21600.00
03951              -1.00    21600.00
03952              -1.20    20800.00
03953              -2.20    20800.00
03954              -1.40    20800.00
03955              -1.80    19200.00
03956              -1.40    18400.00
03957              -0.20    19200.00
03958              -1.80    18400.00
03959              -1.40    17600.00
03960              -1.00    16800.00
03961              -1.80    16000.00
03962              -1.80    16000.00
03963              -1.20    15200.00
03964              -0.60    15200.00
03965              -1.80    14400.00
03966              -1.20    13600.00
03967              -0.60    12800.00
03968              -1.40    12800.00
03969              -1.80    12000.00
03970              -0.60    11200.00
03971              -1.20    11200.00
03972              -1.20    11200.00
03973              -1.00     9600.00
03974              -0.40     9600.00
03975              -1.20     8800.00
03976              -1.20     8000.00
03977              -0.60     7200.00
03978              -1.00     7200.00
03979              -1.00     6400.00
03980              -0.80     5600.00
03981              -1.00     4800.00
03982              -0.40     4800.00
03983              -1.20     4000.00
03984              -0.20     3200.00
03985              -0.20     2400.00
03986              -1.20     1600.00
03987              -1.00     1600.00
03988              -0.20        0.00
03989              -0.60        0.00
03990              -0.20     -800.00
03991               2.00     -800.00
03992               3.00    -1600.00
03993              -1.80    -1600.00
03994              -0.20    -1600.00
03995               1.20    -3200.00
03996               0.40    -3200.00
03997              -0.40    -3200.00
03998               4.60    -4000.00
03999              18.80    -4800.00
04000              18.00    -7200.00
04001             -25.00    -7200.00
04002             -16.00    -8000.00
04003              25.00    -8000.00
04004             -14.80    -8800.00
04005             -25.00    -8000.00
04006              25.00    -9600.00
04007              24.40   -10400.00
04008             -25.00   -10400.00
04009              25.00   -11200.00
04010               4.60   -11200.00
04011             -25.00   -12800.00
04012              25.00   -13600.00
04013             -25.00   -13600.00
04014              16.40   -14400.00
04015               3.40   -14400.00
04016             -25.00   -15200.00
04017              25.00   -16000.00
04018             -19.40   -16000.00
04019             -17.20   -16800.00
04020              25.00   -16800.00
04021              -9.20   -17600.00
04022             -24.80   -18400.00
04023              25.00   -18400.00
04024              -1.20   -19200.00
04025             -24.80   -19200.00
04026              25.00   -20000.00
04027              -9.20   -20800.00
04028             -10.40   -20800.00
04029              20.40   -20800.00
04030             -14.20   -22400.00
04031              -2.00   -22400.00
04032              13.40   -23200.00
04033              -7.00   -23200.00
04034              -1.00   -23200.00
04035              14.60   -24000.00
04036             -12.60   -24800.00
04037               3.40   -24000.00
04038               9.00   -25600.00
04039             -11.40   -25600.00
04040               7.20   -26400.00
04041               3.60   -26400.00
04042              -4.20   -27200.00
04043               3.60   -27200.00
04044               3.60   -27200.00
04045              -3.60   -28000.00
04046               3.40   -28000.00
04047               2.80   -28800.00
04048              -3.80   -28800.00
04049               4.80   -28800.00
04050               1.00   -29600.00
04051              -1.40   -29600.00
04052               4.80   -29600.00
04053               0.40   -29600.00
04054              -1.20   -30400.00
04055               4.00   -30400.00
04056              -0.60   -30400.00
04057              -0.20   -31200.00
04058               3.60   -31200.00
04059               0.20   -31200.00
04060               2.00   -32000.00
04061               2.00   -32000.00
04062               0.40   -32000.00
04063               1.00   -32000.00
04064               2.00   -32000.00
04065               1.00   -32000.00
04066               1.00   -32000.00
04067               2.80   -32000.00
04068               0.60   -32000.00
04069               2.00   -32800.00
04070               1.60   -32800.00
04071               0.20   -32000.00
04072               2.60   -32000.00
04073               1.00   -32000.00
04074               1.20   -32000.00
04075               2.20   -32000.00
04076               0.80   -32000.00
04077               1.80   -32000.00
04078               2.00   -32000.00
04079               1.20   -32000.00
04080               1.20   -32000.00
04081               1.40   -32000.00
04082               1.20   -32000.00
04083               1.40   -32000.00
04084               2.00   -32000.00
04085               1.20   -31200.00
04086               1.20   -30400.00
04087               1.80   -30400.00
04088               1.00   -31200.00
04089               1.20   -30400.00
04090               2.00   -30400.00
04091               1.00   -30400.00
04092               1.80   -29600.00
04093               1.80   -29600.00
04094               0.40   -28800.00
04095               1.40   -28800.00
04096               1.00   -28800.00
04097               1.20   -28800.00
04098               1.00   -28000.00
04099               1.00   -28000.00
04100               0.60   -28000.00
04101               1.20   -27200.00
04102               1.20   -27200.00
04103               0.40   -26400.00
04104               1.60   -26400.00
04105               1.00   -26400.00
04106               0.40   -25600.00
04107               1.40   -25600.00
04108               0.60   -25600.00
04109               1.20   -24800.00
04110               1.40   -24800.00
04111               0.60   -24000.00
04112               0.80   -24000.00
04113               1.00   -23200.00
04114               0.40   -22400.00
04115               0.60   -22400.00
04116               1.00   -22400.00
04117               0.60   -20800.00
04118               0.60   -20800.00
04119               0.80   -20000.00
04120               0.60   -20000.00
04121               0.60   -18400.00
04122               0.80   -19200.00
04123               0.60   -18400.00
04124               1.00   -17600.00
04125               0.40   -17600.00
04126               0.20   -16800.00
04127               0.80   -16000.00
04128               0.20   -16000.00
04129               0.40   -16000.00
04130               0.40   -14400.00
04131               0.20   -14400.00
04132               0.40   -13600.00
04133               0.40   -12800.00
04134               0.40   -13600.00
04135               0.20   -12800.00
04136               0.40   -11200.00
04137               0.60   -11200.00
04138               0.20   -10400.00
04139               0.20    -9600.00
04140               0.60    -9600.00
04141              -0.20    -8800.00
04142               0.40    -8000.00
04143               0.40    -7200.00
04144              -0.20    -7200.00
04145               0.20    -6400.00
04146               0.20    -5600.00
04147              -0.40    -4800.00
04148               0.20    -4800.00
04149              -0.20    -4000.00
04150              -0.60    -3200.00
04151               0.40    -3200.00
04152              -0.60    -2400.00
04153              -0.20    -1600.00
04154               0.20     -800.00
04155              -0.60        0.00
04156               0.40      800.00
04157               0.60      800.00
04158               1.20     1600.00
04159               2.60     1600.00
04160              -2.80     2400.00
04161               0.00     3200.00
04162               1.20     3200.00
04163              -1.60     4800.00
04164               2.00     4800.00
04165              17.80     5600.00
04166              25.00     7200.00
04167             -25.00     7200.00
04168             -20.40     8000.00
04169              25.00     8800.00
04170             -21.00     8800.00
04171             -22.00     8800.00
04172              25.00     9600.00
04173             -25.00     9600.00
04174             -11.40    11200.00
04175              25.00    11200.00
04176             -25.00    11200.00
04177              25.00    12800.00
04178               8.00    12800.00
04179             -25.00    13600.00
04180              25.00    14400.00
04181             -25.00    14400.00
04182              20.60    15200.00
04183              25.00    15200.00
04184             -25.00    16000.00
04185              25.00    16800.00
04186              21.80    17600.00
04187             -25.00    17600.00
04188              -1.20    18400.00
04189              25.00    19200.00
04190             -25.00    19200.00
04191               4.60    20800.00
04192              25.00    20800.00
04193             -25.00    20800.00
04194              21.20    21600.00
04195              -4.60    21600.00
04196             -21.80    22400.00
04197              15.60    23200.00
04198              -1.60    23200.00
04199             -10.20    24000.00
04200              13.20    24800.00
04201              -0.60    24800.00
04202             -18.00    24800.00
04203              16.20    25600.00
04204             -11.80    25600.00
04205              -5.80    26400.00
04206              10.00    26400.00
04207              -9.40    27200.00
04208              -0.20    27200.00
04209               2.20    28000.00
04210              -3.00    28000.00
04211              -4.40    28000.00
04212               4.20    28800.00
04213              -5.80    28000.00
04214              -4.20    28800.00
04215               2.60    28800.00
04216              -6.20    29600.00
04217               0.40    30400.00
04218               2.20    30400.00
04219              -5.20    30400.00
04220               0.40    30400.00
04221              -0.60    31200.00
04222              -6.00    31200.00
04223               0.20    31200.00
04224              -2.80    31200.00
04225              -3.20    31200.00
04226               1.20    31200.00
04227              -2.20    32800.00
04228              -2.60    32000.00
04229              -1.80    32800.00
04230              -2.20    32000.00
04231              -3.00    32800.00
04232              -1.80    32800.00
04233              -1.80    32000.00
04234              -3.40    32800.00
04235               0.40    32000.00
04236              -3.00    32800.00
04237              -2.20    32800.00
04238              -1.00    32800.00
04239              -4.20    32000.00
04240              -0.20    32800.00
04241              -2.80    32800.00
04242              -3.60    32800.00
04243              -1.00    32800.00
04244              -2.20    32800.00
04245              -2.20    32800.00
04246              -2.20    32800.00
04247              -2.00    32000.00
04248              -2.20    32800.00
04249              -2.00    32000.00
04250              -2.00    32000.00
04251              -2.80    32000.00
04252              -2.20    32000.00
04253              -0.80    31200.00
04254              -2.80    31200.00
04255              -1.80    31200.00
04256              -2.20    30400.00
04257              -2.20    31200.00
04258              -2.00    30400.00
04259              -2.00    30400.00
04260              -1.80    30400.00
04261              -2.20    29600.00
04262              -1.00    28800.00
04263              -1.80    28800.00
04264              -2.60    28800.00
04265              -1.20    29600.00
04266              -2.60    28000.00
04267              -1.40    28000.00
04268              -1.20    28000.00
04269              -2.20    27200.00
04270              -1.40    28000.00
04271              -1.80    27200.00
04272              -1.40    27200.00
04273              -1.80    25600.00
04274              -2.20    25600.00
04275              -1.20    25600.00
04276              -2.60    24800.00
04277              -1.20    24800.00
04278              -1.20    24000.00
04279              -2.60    24000.00
04280              -0.20    23200.00
04281              -2.00    23200.00
04282              -2.20    22400.00
04283              -0.40    22400.00
04284              -2.60    21600.00
04285              -1.60    21600.00
04286              -0.60    20800.00
04287              -2.20    19200.00
04288              -1.20    19200.00
04289              -1.20    19200.00
04290              -1.40    18400.00
04291              -1.00    18400.00
04292              -1.40    17600.00
04293              -1.40    16800.00
04294              -1.20    16800.00
04295              -1.00    16000.00
04296              -1.20    15200.00
04297              -1.40    15200.00
04298              -1.20    14400.00
04299              -1.20    13600.00
04300              -1.40    12800.00
04301              -1.20    12800.00
04302              -1.80    12000.00
04303              -0.60    12000.00
04304              -1.00    11200.00
04305              -1.20    11200.00
04306              -1.40     9600.00
04307              -0.40     8800.00
04308              -1.40     8800.00
04309              -1.20     8000.00
04310              -1.00     8000.00
04311              -1.20     7200.00
04312              -0.60     7200.00
04313              -0.60     5600.00
04314              -1.00     5600.00
04315              -0.40     4800.00
04316              -1.20     4000.00
04317              -0.20     3200.00
04318              -0.20     2400.00
04319              -1.00     2400.00
04320              -0.60     1600.00
04321              -0.40      800.00
04322              -0.40      800.00
04323               0.20        0.00
04324               0.60     -800.00
04325               3.60     -800.00
04326              -0.20    -1600.00
04327              -1.40    -1600.00
04328               1.40    -3200.00
04329               1.00    -3200.00
04330              -1.00    -4000.00
04331               2.80    -4000.00
04332              14.20    -4800.00
04333              24.60    -7200.00
04334             -25.00    -7200.00
04335             -25.00    -8000.00
04336              24.20    -8000.00
04337               1.40    -8800.00
04338             -25.00    -8800.00
04339              25.00    -9600.00
04340              25.00   -10400.00
04341             -25.00   -10400.00
04342              25.00   -11200.00
04343              25.00   -12000.00
04344             -25.00   -12800.00
04345              25.00   -12800.00
04346             -11.40   -13600.00
04347              -3.00   -13600.00
04348              22.20   -14400.00
04349             -25.00   -14400.00
04350              25.00   -16000.00
04351               1.40   -16000.00
04352             -25.00   -16000.00
04353              25.00   -16800.00
04354               5.60   -17600.00
04355             -25.00   -18400.00
04356              17.00   -17600.00
04357              15.40   -19200.00
04358             -25.00   -19200.00
04359              25.00   -20000.00
04360               6.20   -20800.00
04361             -20.60   -20800.00
04362              20.60   -22400.00
04363              -7.60   -21600.00
04364              -9.40   -22400.00
04365              13.40   -23200.00
04366              -1.60   -23200.00
04367              -6.60   -24000.00
04368              15.60   -24000.00
04369              -7.40   -24000.00
04370              -4.20   -24800.00
04371              13.00   -25600.00
04372             -10.20   -25600.00
04373               3.40   -26400.00
04374               6.80   -26400.00
04375              -4.20   -27200.00
04376               1.80   -27200.00
04377               4.60   -27200.00
04378              -2.60   -27200.00
04379               1.20   -28000.00
04380               5.00   -28800.00
04381              -3.80   -28800.00
04382               3.00   -28800.00
04383               2.60   -28800.00
04384              -2.20   -29600.00
04385               4.20   -29600.00
04386               2.20   -29600.00
04387              -1.80   -29600.00
04388               3.80   -30400.00
04389               0.80   -30400.00
04390              -1.20   -30400.00
04391               3.60   -31200.00
04392               1.00   -31200.00
04393               1.40   -32000.00
04394               2.60   -32000.00
04395               0.40   -32000.00
04396               0.60   -32000.00
04397               1.60   -32000.00
04398               1.40   -32000.00
04399               0.80   -32000.00
04400               2.80   -32800.00
04401               1.20   -32000.00
04402               1.40   -32000.00
04403               2.40   -32000.00
04404               0.20   -32000.00
04405               2.00   -32000.00
04406               1.60   -32000.00
04407               0.60   -32800.00
04408               2.20   -32000.00
04409               0.60   -32800.00
04410               1.20   -32800.00
04411               2.00   -32000.00
04412               1.20   -32000.00
04413               1.20   -32000.00
04414               1.60   -32000.00
04415               1.80   -32000.00
04416               1.20   -32000.00
04417               1.60   -32000.00
04418               1.40   -31200.00
04419               1.00   -30400.00
04420               1.80   -30400.00
04421               1.00   -30400.00
04422               1.00   -30400.00
04423               1.20   -30400.00
04424               1.20   -30400.00
04425               1.40   -30400.00
04426               1.00   -29600.00
04427               1.20   -29600.00
04428               1.40   -29600.00
04429               1.00   -28800.00
04430               1.40   -28800.00
04431               0.60   -28800.00
04432               1.00   -28800.00
04433               1.20   -28800.00
04434               1.00   -27200.00
04435               1.20   -28000.00
04436               1.00   -27200.00
04437               0.80   -26400.00
04438               1.20   -26400.00
04439               0.40   -26400.00
04440               1.20   -25600.00
04441               1.00   -25600.00
04442               1.00   -24800.00
04443               1.20   -24800.00
04444               1.00   -24000.00
04445               0.60   -24000.00
04446               1.00   -24000.00
04447               1.00   -22400.00
04448               1.00   -22400.00
04449               0.60   -22400.00
04450               1.00   -20800.00
04451               0.60   -20800.00
04452               1.00   -20800.00
04453               1.00   -20000.00
04454               0.20   -18400.00
04455               1.00   -18400.00
04456               0.60   -17600.00
04457               0.40   -17600.00
04458               0.40   -17600.00
04459               0.40   -16800.00
04460               1.00   -16800.00
04461               0.40   -16000.00
04462               0.60   -15200.00
04463               0.60   -14400.00
04464               0.60   -14400.00
04465               0.20   -13600.00
04466               0.40   -13600.00
04467               1.00   -12800.00
04468              -0.20   -12000.00
04469               0.40   -11200.00
04470               1.20   -11200.00
04471              -0.40   -10400.00
04472              -0.20   -10400.00
04473               1.00    -9600.00
04474              -0.40    -8800.00
04475              -0.20    -8000.00
04476               1.00    -7200.00
04477               0.00    -7200.00
04478              -0.40    -6400.00
04479               0.40    -5600.00
04480               0.20    -4800.00
04481               0.20    -4000.00
04482              -0.40    -4000.00
04483               0.20    -3200.00
04484               0.00    -2400.00
04485              -1.20    -2400.00
04486               0.40    -1600.00
04487              -0.20    -1600.00
04488              -1.60        0.00
04489               0.40        0.00
04490               1.00        0.00
04491              -0.20     1600.00
04492               3.40     1600.00
04493              -1.20     2400.00
04494              -1.60     3200.00
04495               1.00     3200.00
04496              -0.20     4000.00
04497              -0.80     4800.00
04498              11.60     5600.00
04499              25.00     7200.00
04500             -25.00     8000.00
04501             -25.00     8000.00
04502              24.60     8000.00
04503              -2.20     8800.00
04504             -25.00     8800.00
04505              25.00     9600.00
04506              -2.80     9600.00
04507             -25.00    11200.00
04508              25.00    12000.00
04509             -25.00    11200.00
04510              -3.80    12800.00
04511              25.00    12800.00
04512             -25.00    12800.00
04513              25.00    14400.00
04514             -25.00    15200.00
04515             -25.00    15200.00
04516              25.00    16000.00
04517             -25.00    16000.00
04518               7.60    17600.00
04519              25.00    16800.00
04520             -25.00    17600.00
04521             -16.20    18400.00
04522              25.00    19200.00
04523             -20.20    19200.00
04524             -18.20    20800.00
04525              25.00    20800.00
04526             -25.00    21600.00
04527               7.00    21600.00
04528              12.40    22400.00
04529             -25.00    22400.00
04530              13.00    23200.00
04531               3.60    24000.00
04532             -13.40    24000.00
04533               6.80    24000.00
04534               7.80    24800.00
04535             -21.40    24800.00
04536              13.00    25600.00
04537              -2.20    25600.00
04538             -13.40    26400.00
04539              12.40    26400.00
04540              -7.20    27200.00
04541              -3.60    27200.00
04542               2.60    27200.00
04543              -1.80    28000.00
04544              -5.80    27200.00
04545               3.60    28800.00
04546              -2.80    28800.00
04547              -6.40    28800.00
04548               3.60    29600.00
04549              -5.20    28800.00
04550              -2.20    28800.00
04551               3.40    30400.00
04552              -5.20    30400.00
04553              -2.00    30400.00
04554               1.00    31200.00
04555              -5.80    30400.00
04556              -0.60    31200.00
04557              -1.00    31200.00
04558              -4.20    32000.00
04559               0.80    32000.00
04560              -2.20    32800.00
04561              -3.40    32000.00
04562              -1.80    32000.00
04563              -2.00    32800.00
04564              -2.20    32800.00
04565              -1.80    32800.00
04566              -1.20    32800.00
04567              -3.80    32800.00
04568              -0.60    32000.00
04569              -2.20    32800.00
04570              -3.40    32800.00
04571              -0.20    32800.00
04572              -3.40    32800.00
04573              -1.20    32800.00
04574              -1.00    32800.00
04575              -4.20    32800.00
04576              -1.20    32800.00
04577              -2.00    32800.00
04578              -2.20    32000.00
04579              -2.60    32800.00
04580              -2.60    32800.00
04581              -1.80    32000.00
04582              -2.40    32000.00
04583              -1.40    32800.00
04584              -2.00    32000.00
04585              -2.60    32000.00
04586              -1.40    31200.00
04587              -2.60    32000.00
04588              -1.80    31200.00
04589              -1.60    31200.00
04590              -2.60    31200.00
04591              -1.20    30400.00
04592              -2.00    30400.00
04593              -2.60    30400.00
04594              -1.80    30400.00
04595              -1.40    28800.00
04596              -2.00    29600.00
04597              -2.20    28800.00
04598              -1.40    28800.00
04599              -2.20    28800.00
04600              -1.60    28000.00
04601              -1.20    28000.00
04602              -2.20    27200.00
04603              -1.40    27200.00
04604              -1.80    27200.00
04605              -1.80    26400.00
04606              -1.00    26400.00
04607              -2.60    26400.00
04608              -1.80    25600.00
04609              -0.80    24800.00
04610              -2.00    24800.00
04611              -1.80    24000.00
04612              -1.80    24000.00
04613              -1.60    24000.00
04614              -1.40    22400.00
04615              -1.40    22400.00
04616              -1.40    22400.00
04617              -1.80    21600.00
04618              -1.40    21600.00
04619              -1.60    20800.00
04620              -2.00    20000.00
04621              -1.80    20000.00
04622              -1.40    19200.00
04623              -0.60    19200.00
04624              -2.00    18400.00
04625              -2.00    17600.00
04626              -0.60    17600.00
04627              -2.20    16800.00
04628              -1.00    16000.00
04629              -1.00    15200.00
04630              -1.60    15200.00
04631              -1.20    14400.00
04632              -1.20    14400.00
04633              -1.00    14400.00
04634              -1.80    12800.00
04635              -1.00    12800.00
04636              -0.40    12000.00
04637              -1.80    11200.00
04638              -1.40    11200.00
04639              -1.00    10400.00
04640              -1.00     9600.00
04641              -0.80     9600.00
04642              -1.20     8800.00
04643               0.00     8000.00
04644              -1.80     7200.00
04645              -1.20     7200.00
04646               1.00     6400.00
04647              -1.40     5600.00
04648              -1.40     4800.00
04649               1.20     4000.00
04650              -1.80     3200.00
04651              -1.40     3200.00
04652               0.40     2400.00
04653              -1.80     1600.00
04654              -1.20     1600.00
04655               1.40      800.00
04656              -0.60        0.00
04657               0.20        0.00
04658               3.60     -800.00
04659              -0.20     -800.00
04660              -1.20    -2400.00
04661               1.80    -3200.00
04662               0.40    -3200.00
04663               0.60    -4000.00
04664               1.20    -4000.00
04665               9.00    -4800.00
04666              25.00    -6400.00
04667             -15.60    -7200.00
04668             -25.00    -8000.00
04669              16.40    -8000.00
04670              14.40    -8800.00
04671             -25.00    -8800.00
04672               6.20    -8800.00
04673              25.00   -10400.00
04674             -25.00   -10400.00
04675              -0.60   -11200.00
04676              25.00   -11200.00
04677             -25.00   -11200.00
04678              21.40   -12800.00
04679              14.80   -13600.00
04680             -22.60   -13600.00
04681              25.00   -14400.00
04682             -25.00   -14400.00
04683              17.40   -16000.00
04684              22.80   -16000.00
04685             -25.00   -16800.00
04686              18.60   -16800.00
04687              20.00   -16800.00
04688             -25.00   -18400.00
04689               2.60   -18400.00
04690              25.00   -19200.00
04691             -25.00   -18400.00
04692              11.80   -20000.00
04693              22.20   -20000.00
04694             -25.00   -20800.00
04695              14.60   -21600.00
04696               3.40   -22400.00
04697             -15.40   -22400.00
04698              10.80   -23200.00
04699               5.20   -22400.00
04700             -10.60   -24000.00
04701              13.20   -23200.00
04702               0.40   -24000.00
04703             -11.40   -24800.00
04704              14.20   -24800.00
04705              -5.40   -25600.00
04706              -2.60   -25600.00
04707               9.80   -26400.00
04708              -3.40   -26400.00
04709              -0.60   -27200.00
04710               5.80   -27200.00
04711              -0.60   -28000.00
04712              -1.00   -28000.00
04713               6.00   -28800.00
04714              -2.60   -28800.00
04715               0.00   -28800.00
04716               4.60   -28800.00
04717              -2.20   -29600.00
04718               2.60   -29600.00
04719               4.60   -29600.00
04720              -2.20   -30400.00
04721               1.00   -30400.00
04722               3.00   -29600.00
04723              -0.60   -30400.00
04724               2.40   -30400.00
04725               2.20   -31200.00
04726               1.00   -31200.00
04727               1.80   -32000.00
04728               1.00   -31200.00
04729               1.00   -31200.00
04730               1.00   -32000.00
04731               2.00   -32000.00
04732               1.00   -32000.00
04733               2.20   -32000.00
04734               1.80   -32000.00
04735               0.40   -32000.00
04736               2.60   -32000.00
04737               1.00   -32000.00
04738               2.00   -32000.00
04739               1.40   -32000.00
04740              -0.20   -32000.00
04741               2.80   -32000.00
04742               1.40   -32000.00
04743               1.00   -32000.00
04744               2.60   -32000.00
04745               0.60   -32000.00
04746               1.00   -31200.00
04747               2.00   -32000.00
04748               1.00   -32000.00
04749               1.00   -32000.00
04750               2.20   -31200.00
04751               1.20   -31200.00
04752               0.80   -32000.00
04753               2.20   -30400.00
04754               0.60   -31200.00
04755               0.60   -30400.00
04756               1.80   -30400.00
04757               0.60   -30400.00
04758               1.20   -29600.00
04759               1.80   -29600.00
04760               1.00   -29600.00
04761               1.20   -29600.00
04762               1.00   -28800.00
04763               1.80   -28800.00
04764               1.20   -28800.00
04765               0.00   -28000.00
04766               1.40   -28000.00
04767               1.40   -27200.00
04768               0.40   -27200.00
04769               1.00   -27200.00
04770               1.40   -26400.00
04771               0.60   -26400.00
04772               0.40   -26400.00
04773               2.00   -25600.00
04774               0.40   -25600.00
04775              -0.20   -25600.00
04776               2.40   -24000.00
04777               1.20   -24000.00
04778              -0.20   -24000.00
04779               1.20   -23200.00
04780               1.00   -23200.00
04781               0.40   -22400.00
04782               0.40   -21600.00
04783               2.00   -22400.00
04784               0.60   -20800.00
04785               0.20   -20000.00
04786               2.00   -20800.00
04787               0.60   -18400.00
04788              -0.60   -19200.00
04789               1.40   -18400.00
04790               1.40   -17600.00
04791              -0.20   -17600.00
04792               0.40   -17600.00
04793               1.40   -16800.00
04794              -0.60   -16000.00
04795               0.20   -16000.00
04796               2.00   -14400.00
04797               0.20   -14400.00
04798               0.00   -13600.00
04799               1.00   -13600.00
04800               0.00   -12800.00
04801              -0.20   -12800.00
04802               0.80   -12000.00
04803               1.00   -11200.00
04804              -0.20   -10400.00
04805              -0.40    -9600.00
04806               1.20    -9600.00
04807              -0.40    -8000.00
04808              -0.60    -8000.00
04809               1.40    -7200.00
04810               0.40    -7200.00
04811              -1.20    -6400.00
04812               0.00    -6400.00
04813               0.20    -4800.00
04814              -0.20    -4800.00
04815              -0.80    -4000.00
04816               0.00    -3200.00
04817               1.00    -2400.00
04818              -0.40    -1600.00
04819              -2.00    -1600.00
04820              -0.20     -800.00
04821               0.40     -800.00
04822              -0.60        0.00
04823              -0.20      800.00
04824               0.60     1600.00
04825               3.40     1600.00
04826              -1.20     2400.00
04827              -1.80     2400.00
04828               1.40     3200.00
04829               0.20     3200.00
04830              -1.80     4800.00
04831               7.60     5600.00
04832              25.00     6400.00
04833             -12.60     7200.00
04834             -25.00     8000.00
04835              16.00     8000.00
04836              12.60     8000.00
04837             -25.00     8800.00
04838              25.00     9600.00
04839              25.00     9600.00
04840             -25.00     9600.00
04841              25.00    11200.00
04842              -5.00    12000.00
04843             -25.00    12800.00
04844              25.00    12800.00
04845             -25.00    12800.00
04846              25.00    13600.00
04847              15.00    14400.00
04848             -25.00    15200.00
04849              25.00    16000.00
04850             -25.00    16000.00
04851             -25.00    16800.00
04852              25.00    17600.00
04853             -20.80    17600.00
04854             -25.00    18400.00
04855              25.00    19200.00
04856               0.60    19200.00
04857             -25.00    19200.00
04858              25.00    20800.00
04859             -15.80    21600.00
04860             -12.20    21600.00
04861              25.00    21600.00
04862             -25.00    22400.00
04863               4.20    22400.00
04864               8.60    24000.00
04865             -12.60    24000.00
04866              -0.20    24000.00
04867              14.20    24000.00
04868             -18.40    24800.00
04869               3.60    25600.00
04870               7.40    25600.00
04871             -18.80    25600.00
04872              10.00    27200.00
04873              -2.60    27200.00
04874              -6.00    27200.00
04875               2.80    27200.00
04876              -1.00    27200.00
04877              -6.20    28000.00
04878               0.80    28000.00
04879               0.20    28800.00
04880              -7.80    28800.00
04881               2.80    28800.00
04882              -2.80    29600.00
04883              -5.40    29600.00
04884               3.60    30400.00
04885              -3.60    30400.00
04886              -4.00    30400.00
04887               1.80    31200.00
04888              -4.40    30400.00
04889              -2.60    31200.00
04890               0.60    31200.00
04891              -4.80    32000.00
04892              -0.20    31200.00
04893              -0.60    32800.00
04894              -3.60    32000.00
04895              -2.00    32800.00
04896              -1.80    32800.00
04897              -2.20    32000.00
04898              -2.20    32800.00
04899              -0.60    32800.00
04900              -3.60    32800.00
04901              -1.40    32800.00
04902              -1.20    32800.00
04903              -4.20    33600.00
04904              -0.80    33600.00
04905              -2.80    32800.00
04906              -1.80    32800.00
04907              -0.20    33600.00
04908              -3.00    32800.00
04909              -1.80    32800.00
04910              -2.20    32000.00
04911              -2.80    32800.00
04912              -1.80    32800.00
04913              -2.00    32000.00
04914              -2.00    32800.00
04915              -2.60    32000.00
04916              -1.40    32800.00
04917              -2.00    32000.00
04918              -2.20    32800.00
04919              -1.60    32000.00
04920              -2.00    31200.00
04921              -1.80    31200.00
04922              -2.20    31200.00
04923              -2.00    31200.00
04924              -1.40    31200.00
04925              -2.60    30400.00
04926              -1.40    30400.00
04927              -1.20    30400.00
04928              -2.20    30400.00
04929              -2.00    28800.00
04930              -2.60    29600.00
04931              -2.20    28800.00
04932              -1.20    28800.00
04933              -2.00    28000.00
04934              -1.80    28000.00
04935              -1.20    28000.00
04936              -2.20    27200.00
04937              -2.00    27200.00
04938              -1.20    26400.00
04939              -2.00    26400.00
04940              -2.20    25600.00
04941              -1.40    25600.00
04942              -1.80    25600.00
04943              -2.20    24800.00
04944              -1.40    24000.00
04945              -2.20    24000.00
04946              -1.80    23200.00
04947              -1.60    24000.00
04948              -1.80    22400.00
04949              -1.40    21600.00
04950              -2.20    21600.00
04951              -1.20    21600.00
04952              -0.60    21600.00
04953              -2.20    20800.00
04954              -1.80    20000.00
04955              -1.40    20000.00
04956              -1.60    19200.00
04957              -1.80    18400.00
04958              -1.20    17600.00
04959              -1.80    17600.00
04960              -1.80    16800.00
04961              -0.60    16000.00
04962              -1.60    16000.00
04963              -1.80    15200.00
04964              -0.40    14400.00
04965              -2.00    14400.00
04966              -1.00    13600.00
04967              -0.60    12800.00
04968              -2.00    12800.00
04969              -0.60    12000.00
04970              -1.00    11200.00
04971              -1.20    11200.00
04972              -0.60    10400.00
04973              -1.40     9600.00
04974              -0.60     9600.00
04975              -1.40     8800.00
04976              -1.20     8000.00
04977              -0.60     7200.00
04978              -1.20     6400.00
04979              -0.60     6400.00
04980              -0.60     5600.00
04981              -1.00     4800.00
04982              -0.40     4000.00
04983              -1.00     3200.00
04984              -0.40     3200.00
04985              -0.60     2400.00
04986              -1.00     1600.00
04987              -0.40     1600.00
04988              -0.40      800.00
04989              -0.40        0.00
04990               0.40        0.00
04991               2.00     -800.00
04992               2.20    -1600.00
04993              -2.00    -1600.00
04994               0.80    -2400.00
04995               1.20    -3200.00
04996               0.20    -3200.00
04997               0.40    -4000.00
04998               7.00    -4800.00
04999              24.20    -5600.00
05000               2.00    -7200.00
