Unit:(mV)
                     CH1         CH2
Frequency              ? 299.806 kHz
00001             -25.00    -8000.00
00002              16.60    -8000.00
00003              16.60    -8800.00
00004             -25.00    -8800.00
00005              10.00    -9600.00
00006              25.00   -10400.00
00007             -25.00   -10400.00
00008              11.00   -11200.00
00009              25.00   -11200.00
00010             -25.00   -12000.00
00011              23.80   -13600.00
00012               3.00   -13600.00
00013              -5.40   -14400.00
00014              21.80   -14400.00
00015             -25.00   -14400.00
00016              25.00   -16000.00
00017              11.40   -16000.00
00018             -25.00   -16800.00
00019              25.00   -17600.00
00020              17.20   -17600.00
00021             -25.00   -17600.00
00022               7.80   -18400.00
00023              25.00   -19200.00
00024             -25.00   -20000.00
00025              13.00   -20000.00
00026              23.00   -20800.00
00027             -23.80   -20800.00
00028              10.00   -22400.00
00029               3.20   -22400.00
00030              -8.60   -23200.00
00031               4.80   -23200.00
00032               3.40   -24000.00
00033              -4.20   -24000.00
00034               9.80   -24800.00
00035              -4.60   -24800.00
00036              -3.60   -25600.00
00037              12.60   -25600.00
00038             -10.00   -25600.00
00039               2.60   -26400.00
00040               9.40   -27200.00
00041              -5.40   -27200.00
00042              -0.40   -27200.00
00043               7.40   -28000.00
00044              -1.80   -28800.00
00045              -1.00   -28800.00
00046               7.40   -28800.00
00047              -2.00   -29600.00
00048              -0.40   -28800.00
00049               5.20   -29600.00
00050              -0.60   -30400.00
00051               2.00   -30400.00
00052               4.60   -30400.00
00053              -0.60   -31200.00
00054               2.80   -31200.00
00055               2.80   -31200.00
00056              -0.40   -31200.00
00057               3.60   -31200.00
00058               2.20   -32000.00
00059               1.80   -32000.00
00060               3.00   -32000.00
00061               2.60   -32800.00
00062               1.20   -32000.00
00063               2.60   -32800.00
00064               3.00   -32800.00
00065               1.80   -32800.00
00066               3.00   -32800.00
00067               2.80   -32800.00
00068               2.00   -32800.00
00069               3.40   -32800.00
00070               1.80   -32800.00
00071               2.80   -32800.00
00072               3.40   -32800.00
00073               2.00   -32800.00
00074               3.60   -32800.00
00075               2.60   -32800.00
00076               2.60   -32800.00
00077               3.60   -32800.00
00078               2.80   -32800.00
00079               2.60   -32000.00
00080               2.60   -32800.00
00081               3.00   -32000.00
00082               2.60   -32800.00
00083               2.60   -32000.00
00084               2.60   -32000.00
00085               2.60   -32000.00
00086               2.80   -32000.00
00087               2.40   -31200.00
00088               2.20   -31200.00
00089               2.20   -31200.00
00090               2.00   -31200.00
00091               2.60   -30400.00
00092               2.60   -30400.00
00093               1.80   -30400.00
00094               2.60   -29600.00
00095               2.00   -29600.00
00096               1.80   -29600.00
00097               2.00   -28800.00
00098               1.80   -28800.00
00099               1.40   -28800.00
00100               2.00   -28800.00
00101               1.80   -28800.00
00102               1.20   -27200.00
00103               1.80   -27200.00
00104               1.60   -27200.00
00105               2.00   -27200.00
00106               1.40   -26400.00
00107               1.00   -25600.00
00108               1.20   -25600.00
00109               1.40   -24800.00
00110               1.20   -24800.00
00111               1.40   -24000.00
00112               1.20   -24000.00
00113               0.80   -23200.00
00114               1.20   -23200.00
00115               1.20   -22400.00
00116               1.00   -22400.00
00117               1.20   -22400.00
00118               1.40   -20800.00
00119               1.40   -20800.00
00120               0.60   -20000.00
00121               1.00   -20000.00
00122               1.20   -18400.00
00123               1.00   -18400.00
00124               1.00   -17600.00
00125               0.40   -17600.00
00126               1.20   -17600.00
00127               1.00   -16800.00
00128               0.40   -16000.00
00129               0.80   -16000.00
00130               0.80   -15200.00
00131               0.60   -14400.00
00132               1.00   -13600.00
00133               1.00   -13600.00
00134               0.60   -12800.00
00135               0.40   -12000.00
00136               1.00   -11200.00
00137               0.60   -11200.00
00138               0.40   -10400.00
00139               0.40   -10400.00
00140               0.20    -8800.00
00141               0.40    -8800.00
00142               0.60    -8000.00
00143               0.20    -8000.00
00144               0.40    -7200.00
00145               0.40    -6400.00
00146               0.20    -6400.00
00147               0.40    -4800.00
00148               0.20    -4000.00
00149               0.00    -4000.00
00150               0.40    -3200.00
00151               0.20    -2400.00
00152              -0.20    -2400.00
00153              -0.40    -1600.00
00154              -0.40     -800.00
00155               0.20        0.00
00156               0.40      800.00
00157               0.40        0.00
00158               2.80     1600.00
00159               1.60     1600.00
00160              -2.20     2400.00
00161               0.60     3200.00
00162               1.40     4000.00
00163              -1.40     3200.00
00164               5.80     4800.00
00165              25.00     6400.00
00166              -0.40     8000.00
00167             -25.00     8000.00
00168               7.80     8000.00
00169              22.80     8800.00
00170             -25.00     8000.00
00171              25.00     9600.00
00172              25.00     9600.00
00173             -25.00     9600.00
00174              25.00    11200.00
00175               1.20    12000.00
00176             -25.00    12000.00
00177              25.00    12800.00
00178             -25.00    12800.00
00179              25.00    14400.00
00180              25.00    14400.00
00181             -25.00    15200.00
00182              25.00    15200.00
00183             -23.60    16000.00
00184             -25.00    16800.00
00185              25.00    17600.00
00186              -7.40    17600.00
00187             -25.00    18400.00
00188              25.00    18400.00
00189              14.60    19200.00
00190             -25.00    20800.00
00191              25.00    20000.00
00192              -2.00    21600.00
00193             -18.80    21600.00
00194              23.80    22400.00
00195             -21.80    22400.00
00196               1.80    22400.00
00197               6.20    24000.00
00198             -11.00    24000.00
00199               1.80    24800.00
00200              14.80    24800.00
00201             -21.40    25600.00
00202               4.60    25600.00
00203              10.60    25600.00
00204             -23.00    26400.00
00205              10.40    27200.00
00206               3.80    27200.00
00207             -11.40    27200.00
00208               1.20    28000.00
00209               4.40    28800.00
00210              -9.80    28800.00
00211              -0.60    28800.00
00212               4.60    28800.00
00213              -9.20    29600.00
00214               0.20    29600.00
00215               0.40    30400.00
00216              -7.20    30400.00
00217               1.40    30400.00
00218              -1.80    30400.00
00219              -6.00    31200.00
00220               1.40    31200.00
00221              -4.60    31200.00
00222              -4.40    31200.00
00223               0.40    32800.00
00224              -5.00    32800.00
00225              -2.80    32000.00
00226              -0.60    32800.00
00227              -3.60    32000.00
00228              -4.60    32800.00
00229              -2.00    32800.00
00230              -2.80    33600.00
00231              -4.40    32800.00
00232              -1.20    33600.00
00233              -4.40    32800.00
00234              -3.80    33600.00
00235              -1.80    33600.00
00236              -5.00    33600.00
00237              -2.60    33600.00
00238              -3.60    33600.00
00239              -3.60    33600.00
00240              -1.80    32800.00
00241              -4.40    33600.00
00242              -3.60    33600.00
00243              -3.40    33600.00
00244              -3.00    33600.00
00245              -3.60    32800.00
00246              -4.00    32800.00
00247              -3.00    32800.00
00248              -3.80    33600.00
00249              -3.00    33600.00
00250              -3.20    32000.00
00251              -3.80    32800.00
00252              -2.60    32000.00
00253              -3.40    32800.00
00254              -3.00    32000.00
00255              -2.80    32000.00
00256              -3.20    32000.00
00257              -2.20    31200.00
00258              -2.80    31200.00
00259              -2.80    31200.00
00260              -2.60    30400.00
00261              -3.00    30400.00
00262              -2.20    29600.00
00263              -2.60    30400.00
00264              -2.60    29600.00
00265              -2.20    29600.00
00266              -2.60    28800.00
00267              -2.00    28000.00
00268              -2.80    28000.00
00269              -2.40    28800.00
00270              -2.00    28000.00
00271              -2.40    27200.00
00272              -2.00    27200.00
00273              -2.60    27200.00
00274              -2.80    25600.00
00275              -1.80    25600.00
00276              -1.80    25600.00
00277              -2.00    25600.00
00278              -2.40    24800.00
00279              -1.80    24000.00
00280              -2.20    24000.00
00281              -2.00    23200.00
00282              -1.20    22400.00
00283              -2.60    22400.00
00284              -2.00    22400.00
00285              -1.20    21600.00
00286              -2.20    21600.00
00287              -2.00    20800.00
00288              -1.80    20000.00
00289              -1.40    19200.00
00290              -1.80    19200.00
00291              -2.00    18400.00
00292              -1.40    18400.00
00293              -2.00    17600.00
00294              -1.80    16800.00
00295              -1.40    16000.00
00296              -1.40    16000.00
00297              -1.80    15200.00
00298              -1.80    14400.00
00299              -1.20    14400.00
00300              -1.40    13600.00
00301              -2.20    12800.00
00302              -1.00    12800.00
00303              -1.20    11200.00
00304              -1.20    11200.00
00305              -1.20    10400.00
00306              -1.20     9600.00
00307              -1.40     9600.00
00308              -1.20     8800.00
00309              -1.20     8000.00
00310              -1.20     8000.00
00311              -1.20     7200.00
00312              -1.20     6400.00
00313              -1.00     5600.00
00314              -0.60     4800.00
00315              -1.00     4800.00
00316              -1.00     4000.00
00317              -0.40     3200.00
00318              -0.80     2400.00
00319              -1.20     1600.00
00320              -0.60     1600.00
00321              -0.40     1600.00
00322              -0.40        0.00
00323              -0.20        0.00
00324               0.20     -800.00
00325               3.40    -1600.00
00326              -1.20    -1600.00
00327              -1.40    -2400.00
00328               1.40    -3200.00
00329               1.00    -3200.00
00330              -1.20    -3200.00
00331               4.20    -4000.00
00332              19.00    -4800.00
00333              18.60    -7200.00
00334             -25.00    -7200.00
00335             -18.60    -8000.00
00336              25.00    -8000.00
00337             -14.00    -8800.00
00338             -25.00    -8000.00
00339              25.00    -9600.00
00340              18.80   -10400.00
00341             -25.00   -10400.00
00342              25.00   -12000.00
00343              -2.20   -12000.00
00344             -25.00   -12800.00
00345              25.00   -12800.00
00346             -25.00   -13600.00
00347              23.80   -14400.00
00348             -13.80   -14400.00
00349             -17.80   -15200.00
00350              25.00   -16000.00
00351             -25.00   -16000.00
00352             -12.80   -16800.00
00353              25.00   -16800.00
00354             -13.00   -17600.00
00355             -25.00   -18400.00
00356              25.00   -19200.00
00357              -3.80   -20000.00
00358             -25.00   -20000.00
00359              25.00   -20800.00
00360              -6.00   -20800.00
00361             -12.40   -22400.00
00362              15.60   -22400.00
00363              -7.00   -22400.00
00364              -2.80   -23200.00
00365               6.80   -23200.00
00366              -2.20   -24000.00
00367               1.80   -24000.00
00368               8.20   -24800.00
00369             -10.80   -25600.00
00370               8.40   -25600.00
00371               3.00   -26400.00
00372             -10.20   -26400.00
00373              10.60   -26400.00
00374               2.00   -27200.00
00375              -5.00   -27200.00
00376               5.20   -28000.00
00377               4.60   -28000.00
00378              -4.60   -28800.00
00379               4.20   -28800.00
00380               5.00   -28800.00
00381              -3.60   -29600.00
00382               3.80   -29600.00
00383               3.00   -29600.00
00384              -0.80   -29600.00
00385               4.40   -30400.00
00386               2.20   -30400.00
00387               0.20   -30400.00
00388               4.40   -31200.00
00389               0.60   -31200.00
00390               1.20   -31200.00
00391               3.60   -32000.00
00392               1.40   -32000.00
00393               2.80   -32000.00
00394               3.40   -32000.00
00395               2.00   -32000.00
00396               1.80   -32000.00
00397               3.40   -32800.00
00398               2.60   -32800.00
00399               2.00   -32800.00
00400               3.60   -32000.00
00401               2.20   -32800.00
00402               3.00   -32800.00
00403               2.20   -32800.00
00404               2.00   -32800.00
00405               3.60   -32800.00
00406               2.20   -32800.00
00407               3.00   -32000.00
00408               3.00   -32800.00
00409               2.20   -32800.00
00410               3.40   -32800.00
00411               2.80   -32800.00
00412               2.80   -32800.00
00413               2.60   -32800.00
00414               2.60   -32000.00
00415               2.80   -32800.00
00416               2.20   -32000.00
00417               2.40   -32000.00
00418               2.60   -32800.00
00419               2.60   -32000.00
00420               2.20   -32000.00
00421               2.40   -32000.00
00422               2.60   -31200.00
00423               2.00   -32000.00
00424               2.20   -30400.00
00425               3.00   -31200.00
00426               1.80   -30400.00
00427               2.20   -30400.00
00428               2.00   -29600.00
00429               1.40   -29600.00
00430               1.80   -29600.00
00431               2.00   -29600.00
00432               1.40   -28800.00
00433               1.40   -28800.00
00434               1.80   -28000.00
00435               2.00   -28000.00
00436               1.40   -27200.00
00437               1.60   -27200.00
00438               1.80   -26400.00
00439               1.80   -26400.00
00440               1.40   -25600.00
00441               1.20   -25600.00
00442               2.00   -25600.00
00443               1.80   -24800.00
00444               1.00   -24000.00
00445               1.20   -24000.00
00446               1.00   -24000.00
00447               1.00   -23200.00
00448               1.40   -22400.00
00449               1.20   -23200.00
00450               1.00   -22400.00
00451               1.00   -20800.00
00452               1.80   -20800.00
00453               1.00   -20000.00
00454               0.60   -18400.00
00455               1.20   -18400.00
00456               1.00   -18400.00
00457               1.20   -17600.00
00458               0.60   -17600.00
00459               0.80   -17600.00
00460               1.00   -16800.00
00461               0.60   -16800.00
00462               1.00   -16000.00
00463               1.00   -16000.00
00464               0.60   -14400.00
00465               0.60   -13600.00
00466               0.60   -13600.00
00467               0.40   -12800.00
00468               0.40   -12800.00
00469               0.60   -11200.00
00470               0.60   -11200.00
00471               0.60   -11200.00
00472               0.40   -10400.00
00473               0.60    -9600.00
00474              -0.40    -8800.00
00475               0.60    -8000.00
00476               0.40    -8000.00
00477              -0.20    -7200.00
00478               0.40    -6400.00
00479               0.40    -6400.00
00480              -0.20    -5600.00
00481               0.20    -4000.00
00482               0.40    -4000.00
00483              -0.20    -3200.00
00484               0.20    -2400.00
00485               0.20    -2400.00
00486              -0.40    -1600.00
00487              -0.40     -800.00
00488               0.20        0.00
00489               0.20        0.00
00490               0.40        0.00
00491               0.60     1600.00
00492               3.60     1600.00
00493              -1.40     2400.00
00494              -1.40     3200.00
00495               2.00     3200.00
00496               0.20     3200.00
00497              -1.00     4800.00
00498              14.20     5600.00
00499              25.00     7200.00
00500             -25.00     8000.00
00501             -25.00     8000.00
00502              25.00     8800.00
00503              -7.80     8000.00
00504             -25.00     9600.00
00505              25.00    10400.00
00506             -25.00     9600.00
00507             -25.00    11200.00
00508              25.00    12000.00
00509             -25.00    11200.00
00510              25.00    12800.00
00511              14.00    12800.00
00512             -25.00    13600.00
00513              25.00    14400.00
00514             -25.00    14400.00
00515               3.60    16000.00
00516              25.00    16000.00
00517             -25.00    16000.00
00518              22.00    17600.00
00519              25.00    17600.00
00520             -25.00    18400.00
00521             -15.00    18400.00
00522              25.00    19200.00
00523             -25.00    19200.00
00524             -12.60    20800.00
00525              25.00    20800.00
00526             -25.00    21600.00
00527              11.40    21600.00
00528               2.80    22400.00
00529             -17.80    22400.00
00530              12.40    24000.00
00531              -2.60    24000.00
00532             -10.20    24800.00
00533              13.00    24800.00
00534              -1.00    24800.00
00535             -19.60    24800.00
00536              20.40    25600.00
00537             -10.80    25600.00
00538             -11.00    26400.00
00539              14.60    27200.00
00540              -7.80    27200.00
00541              -7.40    27200.00
00542               6.00    28000.00
00543              -1.80    28000.00
00544             -10.00    28800.00
00545               5.80    28800.00
00546              -3.00    29600.00
00547              -7.80    29600.00
00548               3.80    30400.00
00549              -4.20    30400.00
00550              -4.20    31200.00
00551               2.60    30400.00
00552              -6.00    30400.00
00553              -2.40    31200.00
00554               0.20    31200.00
00555              -6.80    32800.00
00556              -0.60    31200.00
00557              -2.00    32800.00
00558              -5.00    32800.00
00559              -0.80    32000.00
00560              -2.00    32800.00
00561              -4.60    32800.00
00562              -3.60    32800.00
00563              -1.40    32800.00
00564              -4.40    33600.00
00565              -3.40    32800.00
00566              -1.40    33600.00
00567              -5.00    33600.00
00568              -2.00    33600.00
00569              -3.00    33600.00
00570              -4.60    33600.00
00571              -2.20    33600.00
00572              -4.60    33600.00
00573              -2.00    33600.00
00574              -3.00    33600.00
00575              -4.40    33600.00
00576              -2.60    33600.00
00577              -3.60    33600.00
00578              -3.40    33600.00
00579              -4.00    33600.00
00580              -3.00    32800.00
00581              -3.40    32800.00
00582              -3.60    32800.00
00583              -2.20    33600.00
00584              -3.60    32800.00
00585              -3.20    32800.00
00586              -2.60    32800.00
00587              -3.00    32000.00
00588              -3.00    32800.00
00589              -3.40    32000.00
00590              -3.00    31200.00
00591              -2.60    31200.00
00592              -3.00    31200.00
00593              -2.60    31200.00
00594              -2.80    31200.00
00595              -2.60    30400.00
00596              -2.20    30400.00
00597              -2.80    30400.00
00598              -2.40    29600.00
00599              -2.40    28800.00
00600              -2.40    28800.00
00601              -2.20    28000.00
00602              -2.60    28000.00
00603              -2.40    28000.00
00604              -2.20    28000.00
00605              -2.00    27200.00
00606              -2.20    26400.00
00607              -2.80    26400.00
00608              -1.80    25600.00
00609              -2.20    25600.00
00610              -2.20    25600.00
00611              -1.80    24800.00
00612              -2.40    24000.00
00613              -1.80    24000.00
00614              -1.80    24000.00
00615              -2.00    24000.00
00616              -2.00    23200.00
00617              -2.20    21600.00
00618              -1.40    22400.00
00619              -2.00    21600.00
00620              -2.20    20800.00
00621              -2.00    19200.00
00622              -1.80    19200.00
00623              -1.20    19200.00
00624              -1.80    18400.00
00625              -2.00    18400.00
00626              -1.20    17600.00
00627              -1.80    16800.00
00628              -1.40    16000.00
00629              -1.40    16000.00
00630              -1.80    15200.00
00631              -1.40    14400.00
00632              -1.40    14400.00
00633              -1.60    14400.00
00634              -1.40    12800.00
00635              -1.40    12800.00
00636              -1.00    12000.00
00637              -1.40    12000.00
00638              -1.20    11200.00
00639              -1.20    10400.00
00640              -1.20     9600.00
00641              -1.60     8800.00
00642              -1.20     8800.00
00643              -0.60     8000.00
00644              -1.00     8000.00
00645              -1.40     7200.00
00646              -0.40     6400.00
00647              -1.00     5600.00
00648              -1.20     4800.00
00649              -1.00     4800.00
00650              -0.60     3200.00
00651              -0.60     3200.00
00652              -0.60     2400.00
00653              -1.00     2400.00
00654              -0.60     1600.00
00655              -0.40        0.00
00656              -0.20        0.00
00657              -0.20     -800.00
00658               1.40     -800.00
00659               2.40     -800.00
00660              -2.00    -2400.00
00661              -0.20    -2400.00
00662               1.20    -3200.00
00663              -0.20    -3200.00
00664               0.40    -4000.00
00665               9.00    -4800.00
00666              25.00    -6400.00
00667              -9.40    -7200.00
00668             -25.00    -8000.00
00669              11.40    -8000.00
00670              21.20    -8000.00
00671             -25.00    -8000.00
00672              -1.40    -8800.00
00673              25.00   -10400.00
00674             -25.00   -10400.00
00675              -6.80   -11200.00
00676              25.00   -11200.00
00677             -25.00   -12000.00
00678              14.20   -12800.00
00679              11.60   -12800.00
00680             -12.40   -14400.00
00681              25.00   -14400.00
00682             -25.00   -15200.00
00683              25.00   -15200.00
00684              21.40   -16000.00
00685             -25.00   -16000.00
00686              22.00   -16800.00
00687              22.80   -17600.00
00688             -25.00   -18400.00
00689               0.60   -18400.00
00690              25.00   -19200.00
00691             -25.00   -20000.00
00692               5.20   -20000.00
00693              25.00   -20800.00
00694             -23.80   -20800.00
00695               6.80   -22400.00
00696               6.00   -22400.00
00697              -9.20   -22400.00
00698               3.60   -23200.00
00699               4.40   -24000.00
00700              -4.40   -24000.00
00701               8.80   -24000.00
00702              -2.20   -24800.00
00703              -6.00   -25600.00
00704              13.40   -25600.00
00705              -8.40   -25600.00
00706              -0.20   -26400.00
00707              10.80   -26400.00
00708              -4.40   -26400.00
00709              -1.40   -27200.00
00710               7.40   -27200.00
00711              -0.40   -28000.00
00712              -2.20   -28000.00
00713               7.60   -28800.00
00714              -0.60   -29600.00
00715              -1.20   -28800.00
00716               5.20   -29600.00
00717               0.00   -30400.00
00718               1.40   -29600.00
00719               5.20   -30400.00
00720              -0.40   -30400.00
00721               2.60   -30400.00
00722               3.40   -31200.00
00723              -0.20   -31200.00
00724               2.80   -32000.00
00725               2.80   -32000.00
00726               1.60   -32000.00
00727               3.00   -32000.00
00728               2.40   -32000.00
00729               1.40   -32000.00
00730               2.60   -32800.00
00731               3.40   -32000.00
00732               1.80   -32800.00
00733               2.80   -32000.00
00734               2.80   -32800.00
00735               2.20   -32800.00
00736               3.40   -32800.00
00737               1.20   -32800.00
00738               2.80   -32800.00
00739               3.40   -32800.00
00740               1.40   -32800.00
00741               3.60   -32800.00
00742               2.60   -32800.00
00743               2.20   -32800.00
00744               3.60   -32800.00
00745               2.60   -32800.00
00746               3.00   -32800.00
00747               2.20   -32000.00
00748               2.80   -32000.00
00749               2.60   -32000.00
00750               2.00   -32000.00
00751               2.60   -32000.00
00752               2.80   -32000.00
00753               2.00   -32000.00
00754               2.20   -32000.00
00755               2.60   -31200.00
00756               1.60   -30400.00
00757               2.00   -31200.00
00758               2.60   -30400.00
00759               2.20   -30400.00
00760               1.60   -30400.00
00761               3.00   -29600.00
00762               1.80   -29600.00
00763               1.40   -29600.00
00764               2.40   -29600.00
00765               1.80   -28800.00
00766               1.80   -28800.00
00767               2.00   -28800.00
00768               1.40   -28000.00
00769               1.20   -27200.00
00770               1.40   -27200.00
00771               1.60   -26400.00
00772               2.60   -26400.00
00773               1.80   -26400.00
00774               1.00   -26400.00
00775               1.60   -26400.00
00776               1.80   -25600.00
00777               1.00   -24800.00
00778               1.80   -24000.00
00779               1.80   -24000.00
00780               1.00   -23200.00
00781               1.40   -23200.00
00782               1.00   -22400.00
00783               1.00   -22400.00
00784               1.80   -21600.00
00785               1.00   -20800.00
00786               1.40   -20800.00
00787               1.40   -20800.00
00788               0.40   -18400.00
00789               0.60   -18400.00
00790               1.40   -18400.00
00791               0.40   -17600.00
00792               1.00   -17600.00
00793               1.20   -16800.00
00794               0.40   -16800.00
00795               0.60   -16000.00
00796               1.40   -16000.00
00797               0.80   -14400.00
00798               1.00   -14400.00
00799               1.00   -13600.00
00800               0.00   -13600.00
00801               0.80   -12800.00
00802               0.20   -12800.00
00803               0.20   -12000.00
00804               1.00   -11200.00
00805               0.40   -10400.00
00806               0.20   -10400.00
00807               0.40    -9600.00
00808               0.20    -8800.00
00809              -0.20    -8000.00
00810               0.60    -8000.00
00811               0.20    -6400.00
00812               0.00    -6400.00
00813               0.60    -6400.00
00814               0.20    -5600.00
00815              -0.40    -4000.00
00816               0.40    -4000.00
00817              -0.40    -3200.00
00818              -0.60    -2400.00
00819               0.40    -2400.00
00820              -0.60    -1600.00
00821              -0.40     -800.00
00822               1.00        0.00
00823              -0.40        0.00
00824               0.60      800.00
00825               2.60     1600.00
00826               1.40     1600.00
00827              -1.80     2400.00
00828               0.40     3200.00
00829               1.00     3200.00
00830              -0.40     4800.00
00831               3.80     4800.00
00832              25.00     6400.00
00833               9.20     7200.00
00834             -25.00     8000.00
00835               0.60     8000.00
00836              25.00     8800.00
00837             -25.00     8800.00
00838              18.00     9600.00
00839              25.00     9600.00
00840             -25.00    11200.00
00841              25.00    11200.00
00842              20.80    11200.00
00843             -25.00    12000.00
00844              25.00    12800.00
00845             -25.00    12800.00
00846              25.00    14400.00
00847              25.00    14400.00
00848             -25.00    15200.00
00849              25.00    16000.00
00850              -4.40    16000.00
00851             -25.00    17600.00
00852              25.00    16800.00
00853               1.40    18400.00
00854             -25.00    18400.00
00855              21.80    19200.00
00856              23.40    19200.00
00857             -25.00    20000.00
00858              25.00    20800.00
00859               9.00    21600.00
00860             -25.00    21600.00
00861              24.40    22400.00
00862             -19.40    22400.00
00863              -2.20    23200.00
00864               8.40    22400.00
00865              -9.40    24000.00
00866              -1.00    24000.00
00867              15.80    24800.00
00868             -19.00    24800.00
00869              -1.00    25600.00
00870              14.40    25600.00
00871             -22.80    25600.00
00872               7.20    27200.00
00873               6.00    27200.00
00874             -11.80    27200.00
00875              -0.60    28000.00
00876               5.20    28000.00
00877              -9.00    28000.00
00878              -2.80    28800.00
00879               6.20    29600.00
00880              -9.20    28800.00
00881              -2.20    29600.00
00882               1.40    30400.00
00883              -7.80    30400.00
00884               0.60    30400.00
00885              -0.40    31200.00
00886              -6.20    31200.00
00887               1.20    31200.00
00888              -3.80    32000.00
00889              -5.40    32000.00
00890               0.20    32000.00
00891              -4.40    32800.00
00892              -2.80    32000.00
00893              -0.60    32800.00
00894              -3.40    32800.00
00895              -4.60    32800.00
00896              -2.00    32800.00
00897              -2.60    32800.00
00898              -4.80    33600.00
00899              -1.20    32800.00
00900              -3.80    33600.00
00901              -4.40    33600.00
00902              -1.20    33600.00
00903              -4.60    33600.00
00904              -2.20    33600.00
00905              -3.20    33600.00
00906              -3.60    33600.00
00907              -2.00    33600.00
00908              -4.40    33600.00
00909              -3.40    33600.00
00910              -3.00    33600.00
00911              -3.40    32800.00
00912              -3.40    33600.00
00913              -4.20    33600.00
00914              -2.60    33600.00
00915              -3.60    32800.00
00916              -3.00    32800.00
00917              -2.60    32800.00
00918              -3.80    32800.00
00919              -2.80    32800.00
00920              -3.00    32000.00
00921              -2.80    32800.00
00922              -3.00    32800.00
00923              -3.60    32000.00
00924              -2.20    31200.00
00925              -2.80    31200.00
00926              -3.40    31200.00
00927              -2.60    31200.00
00928              -2.80    30400.00
00929              -2.40    30400.00
00930              -2.60    29600.00
00931              -2.60    30400.00
00932              -2.60    28800.00
00933              -2.60    28800.00
00934              -2.00    28800.00
00935              -2.60    28800.00
00936              -2.60    28000.00
00937              -2.20    27200.00
00938              -2.60    27200.00
00939              -2.00    27200.00
00940              -2.80    27200.00
00941              -2.60    26400.00
00942              -1.80    25600.00
00943              -2.20    25600.00
00944              -1.80    24800.00
00945              -2.20    24800.00
00946              -2.20    24800.00
00947              -1.80    24000.00
00948              -2.20    23200.00
00949              -1.80    23200.00
00950              -2.20    22400.00
00951              -2.20    22400.00
00952              -1.60    21600.00
00953              -2.00    20800.00
00954              -2.00    20800.00
00955              -2.20    20000.00
00956              -1.60    19200.00
00957              -1.40    19200.00
00958              -2.00    18400.00
00959              -1.80    17600.00
00960              -1.80    17600.00
00961              -1.40    16800.00
00962              -1.40    16000.00
00963              -1.60    16000.00
00964              -1.20    15200.00
00965              -1.60    14400.00
00966              -1.40    14400.00
00967              -1.20    13600.00
00968              -2.00    12800.00
00969              -1.40    12800.00
00970              -0.60    12000.00
00971              -1.80    11200.00
00972              -1.20    11200.00
00973              -0.60     9600.00
00974              -1.80     9600.00
00975              -1.20     8800.00
00976              -0.60     8000.00
00977              -1.40     8000.00
00978              -1.40     7200.00
00979              -0.60     7200.00
00980              -0.60     5600.00
00981              -1.00     5600.00
00982              -0.80     4800.00
00983              -1.00     3200.00
00984              -0.60     3200.00
00985              -1.00     2400.00
00986              -1.00     2400.00
00987              -0.60     1600.00
00988              -0.60     1600.00
00989              -0.60        0.00
00990               0.20        0.00
00991               0.20     -800.00
00992               3.40     -800.00
00993              -0.40    -1600.00
00994              -1.80    -2400.00
00995               1.20    -3200.00
00996               0.80    -4000.00
00997              -1.00    -4000.00
00998               3.40    -4000.00
00999              16.60    -5600.00
01000              22.60    -7200.00
01001             -25.00    -8000.00
01002             -25.00    -8000.00
01003              25.00    -8000.00
01004              -6.80    -8000.00
01005             -25.00    -8800.00
01006              25.00    -9600.00
01007              25.00   -10400.00
01008             -25.00   -10400.00
01009              25.00   -11200.00
01010              14.00   -11200.00
01011             -25.00   -12800.00
01012              25.00   -12800.00
01013             -23.40   -13600.00
01014              19.00   -14400.00
01015              -5.20   -14400.00
01016             -25.00   -15200.00
01017              25.00   -16000.00
01018             -23.80   -16000.00
01019             -20.40   -16800.00
01020              25.00   -17600.00
01021              -6.60   -17600.00
01022             -25.00   -18400.00
01023              25.00   -18400.00
01024               5.00   -20000.00
01025             -25.00   -20000.00
01026              25.00   -20000.00
01027               0.20   -20800.00
01028             -16.20   -21600.00
01029              15.60   -22400.00
01030              -5.80   -22400.00
01031              -4.20   -23200.00
01032               6.60   -23200.00
01033              -1.40   -24000.00
01034               0.60   -24800.00
01035               9.20   -24000.00
01036             -10.20   -25600.00
01037               6.20   -25600.00
01038               6.20   -25600.00
01039             -11.00   -26400.00
01040               9.60   -27200.00
01041               3.80   -27200.00
01042              -5.40   -27200.00
01043               4.00   -28000.00
01044               5.80   -27200.00
01045              -4.40   -28800.00
01046               3.00   -28800.00
01047               5.80   -28800.00
01048              -3.80   -28800.00
01049               3.40   -29600.00
01050               3.60   -29600.00
01051              -1.20   -29600.00
01052               4.20   -30400.00
01053               2.60   -30400.00
01054               0.20   -30400.00
01055               4.40   -30400.00
01056               1.00   -31200.00
01057               1.00   -30400.00
01058               3.80   -31200.00
01059               1.80   -32000.00
01060               2.60   -32000.00
01061               3.00   -32000.00
01062               2.00   -32000.00
01063               1.00   -32800.00
01064               2.80   -32000.00
01065               2.80   -32800.00
01066               1.20   -32800.00
01067               3.80   -32800.00
01068               2.00   -32000.00
01069               2.40   -32000.00
01070               2.80   -32800.00
01071               1.00   -32800.00
01072               4.20   -32800.00
01073               2.60   -32800.00
01074               1.40   -32800.00
01075               4.40   -32800.00
01076               2.20   -32800.00
01077               1.80   -32800.00
01078               3.60   -32800.00
01079               3.00   -32800.00
01080               1.20   -32800.00
01081               3.80   -32000.00
01082               3.00   -32000.00
01083               0.60   -32000.00
01084               3.60   -32000.00
01085               2.00   -32800.00
01086               1.40   -32000.00
01087               3.80   -32000.00
01088               1.80   -31200.00
01089               2.20   -32000.00
01090               2.80   -30400.00
01091               1.20   -30400.00
01092               2.80   -30400.00
01093               3.40   -30400.00
01094               1.20   -29600.00
01095               1.80   -29600.00
01096               2.60   -29600.00
01097               1.00   -29600.00
01098               2.00   -28800.00
01099               2.60   -28800.00
01100               1.20   -28800.00
01101               2.00   -28800.00
01102               2.60   -28000.00
01103               1.00   -27200.00
01104               1.80   -27200.00
01105               1.80   -26400.00
01106               1.40   -26400.00
01107               2.00   -26400.00
01108               1.40   -25600.00
01109               1.40   -25600.00
01110               2.00   -24800.00
01111               0.60   -24000.00
01112               0.60   -24000.00
01113               2.00   -24000.00
01114               1.00   -23200.00
01115               0.40   -22400.00
01116               2.00   -22400.00
01117               1.00   -22400.00
01118               0.40   -21600.00
01119               2.40   -20800.00
01120               1.40   -20800.00
01121               0.20   -20000.00
01122               1.80   -20000.00
01123               1.20   -18400.00
01124               0.40   -18400.00
01125               1.20   -18400.00
01126               0.60   -17600.00
01127               0.20   -16800.00
01128               1.00   -16800.00
01129               1.00   -16000.00
01130              -0.20   -16000.00
01131               1.00   -14400.00
01132               1.00   -14400.00
01133               0.20   -13600.00
01134               0.80   -12800.00
01135               0.60   -12800.00
01136               0.20   -11200.00
01137               0.40   -11200.00
01138               0.20   -11200.00
01139               0.20   -10400.00
01140               0.20    -9600.00
01141               0.20    -9600.00
01142               0.40    -8000.00
01143               0.20    -8000.00
01144               0.20    -7200.00
01145               0.40    -6400.00
01146               0.20    -6400.00
01147               0.20    -4800.00
01148               0.20    -4800.00
01149              -0.40    -4000.00
01150              -0.20    -4000.00
01151               0.40    -2400.00
01152              -0.20    -2400.00
01153               0.20    -1600.00
01154              -0.20     -800.00
01155               0.00        0.00
01156               0.40        0.00
01157               0.40      800.00
01158               0.40     1600.00
01159               4.20     1600.00
01160              -0.80     2400.00
01161              -1.40     3200.00
01162               1.40     3200.00
01163               0.60     4000.00
01164              -0.60     4800.00
01165              12.20     5600.00
01166              25.00     7200.00
01167             -25.00     8000.00
01168             -25.00     8000.00
01169              25.00     8800.00
01170              -0.20     8800.00
01171             -25.00     8800.00
01172              25.00     9600.00
01173             -12.40    10400.00
01174             -25.00    11200.00
01175              25.00    11200.00
01176             -25.00    11200.00
01177              13.40    12800.00
01178              25.00    12800.00
01179             -25.00    13600.00
01180              25.00    14400.00
01181             -25.00    14400.00
01182             -17.80    15200.00
01183              25.00    16000.00
01184             -25.00    16000.00
01185              10.00    16000.00
01186              25.00    17600.00
01187             -25.00    17600.00
01188             -21.80    18400.00
01189              25.00    19200.00
01190             -22.00    19200.00
01191             -22.80    20800.00
01192              25.00    20800.00
01193             -25.00    21600.00
01194               5.40    21600.00
01195               8.60    22400.00
01196             -20.40    22400.00
01197              11.00    23200.00
01198              -0.80    24000.00
01199             -11.60    24000.00
01200              10.60    24800.00
01201               3.40    24800.00
01202             -21.80    25600.00
01203              18.20    25600.00
01204              -6.60    25600.00
01205             -14.80    26400.00
01206              14.60    26400.00
01207              -6.00    27200.00
01208              -8.20    28000.00
01209               5.20    28000.00
01210              -0.20    28000.00
01211             -10.80    28800.00
01212               4.80    28800.00
01213              -1.20    30400.00
01214              -8.60    28800.00
01215               3.20    30400.00
01216              -3.80    30400.00
01217              -5.20    30400.00
01218               2.80    30400.00
01219              -5.20    31200.00
01220              -3.40    31200.00
01221               1.20    32800.00
01222              -6.60    31200.00
01223              -1.40    32000.00
01224              -1.20    32800.00
01225              -4.60    32000.00
01226              -1.20    32000.00
01227              -1.40    32800.00
01228              -4.40    32800.00
01229              -3.80    32800.00
01230              -1.20    32800.00
01231              -4.00    33600.00
01232              -3.60    33600.00
01233              -1.00    33600.00
01234              -4.60    33600.00
01235              -2.20    33600.00
01236              -2.80    33600.00
01237              -4.60    33600.00
01238              -2.20    33600.00
01239              -4.20    33600.00
01240              -2.60    33600.00
01241              -2.80    33600.00
01242              -4.20    33600.00
01243              -2.80    33600.00
01244              -3.60    33600.00
01245              -3.00    33600.00
01246              -4.00    33600.00
01247              -3.80    33600.00
01248              -2.80    32800.00
01249              -3.80    32800.00
01250              -2.80    32800.00
01251              -3.40    32000.00
01252              -3.00    32000.00
01253              -2.80    32000.00
01254              -3.00    32800.00
01255              -2.80    32000.00
01256              -3.60    32000.00
01257              -3.00    31200.00
01258              -2.20    31200.00
01259              -3.40    31200.00
01260              -2.80    31200.00
01261              -2.80    31200.00
01262              -3.00    30400.00
01263              -2.20    30400.00
01264              -2.80    29600.00
01265              -2.80    29600.00
01266              -2.60    29600.00
01267              -2.60    28800.00
01268              -2.20    28000.00
01269              -2.80    28000.00
01270              -2.40    28000.00
01271              -2.80    28000.00
01272              -2.20    27200.00
01273              -2.40    27200.00
01274              -3.00    27200.00
01275              -2.00    25600.00
01276              -2.00    25600.00
01277              -2.20    25600.00
01278              -2.00    24800.00
01279              -2.20    24800.00
01280              -2.20    24000.00
01281              -2.00    24000.00
01282              -2.00    24000.00
01283              -2.00    22400.00
01284              -2.80    22400.00
01285              -1.20    21600.00
01286              -1.80    21600.00
01287              -2.20    20800.00
01288              -1.20    20000.00
01289              -2.00    20000.00
01290              -1.80    19200.00
01291              -1.40    18400.00
01292              -1.60    18400.00
01293              -1.80    17600.00
01294              -1.80    17600.00
01295              -1.20    16000.00
01296              -1.40    16000.00
01297              -1.60    15200.00
01298              -1.80    15200.00
01299              -1.40    14400.00
01300              -1.00    13600.00
01301              -1.80    12800.00
01302              -1.60    12800.00
01303              -0.60    12000.00
01304              -1.80    12000.00
01305              -1.00    11200.00
01306              -0.60    10400.00
01307              -1.60     9600.00
01308              -1.40     8800.00
01309              -0.60     8800.00
01310              -1.40     8000.00
01311              -0.80     8000.00
01312              -1.20     6400.00
01313              -1.00     6400.00
01314              -0.40     5600.00
01315              -1.20     4800.00
01316              -1.00     4000.00
01317              -0.60     3200.00
01318              -0.60     3200.00
01319              -1.00     2400.00
01320              -0.60     1600.00
01321              -0.60     1600.00
01322              -0.60        0.00
01323              -0.40        0.00
01324              -0.40     -800.00
01325               1.20     -800.00
01326               2.80    -1600.00
01327              -2.60    -1600.00
01328              -0.40    -2400.00
01329               1.40    -3200.00
01330              -0.60    -3200.00
01331               0.00    -4800.00
01332               7.80    -4800.00
01333              25.00    -6400.00
01334              -2.80    -7200.00
01335             -25.00    -8000.00
01336               5.20    -8000.00
01337              24.60    -8800.00
01338             -25.00    -8800.00
01339             -11.80    -8800.00
01340              25.00   -10400.00
01341             -25.00    -9600.00
01342             -24.20   -11200.00
01343              25.00   -11200.00
01344             -25.00   -12000.00
01345               3.80   -12800.00
01346              20.00   -12800.00
01347             -18.40   -13600.00
01348              25.00   -14400.00
01349             -25.00   -14400.00
01350              17.20   -16000.00
01351              25.00   -16000.00
01352             -25.00   -16800.00
01353              15.40   -16800.00
01354              25.00   -17600.00
01355             -25.00   -18400.00
01356              -6.20   -19200.00
01357              25.00   -19200.00
01358             -25.00   -19200.00
01359              -2.60   -20800.00
01360              25.00   -20800.00
01361             -22.00   -20800.00
01362               3.60   -21600.00
01363               9.00   -22400.00
01364              -9.20   -22400.00
01365               3.00   -23200.00
01366               5.20   -23200.00
01367              -4.20   -24000.00
01368               7.80   -24000.00
01369               0.20   -24800.00
01370              -7.60   -25600.00
01371              13.80   -25600.00
01372              -6.20   -25600.00
01373              -2.60   -26400.00
01374              11.40   -26400.00
01375              -3.40   -27200.00
01376              -2.20   -27200.00
01377               7.40   -27200.00
01378               0.40   -28000.00
01379              -3.00   -28800.00
01380               7.20   -28800.00
01381               0.40   -28800.00
01382              -2.20   -29600.00
01383               5.40   -29600.00
01384               0.60   -29600.00
01385               0.60   -30400.00
01386               5.00   -30400.00
01387               0.20   -30400.00
01388               2.00   -30400.00
01389               3.80   -31200.00
01390              -0.60   -31200.00
01391               2.60   -32000.00
01392               2.80   -32000.00
01393               1.60   -32000.00
01394               2.80   -32000.00
01395               2.60   -32000.00
01396               1.20   -32000.00
01397               1.80   -32000.00
01398               3.40   -32800.00
01399               1.80   -32800.00
01400               2.20   -32800.00
01401               3.40   -32800.00
01402               2.00   -32800.00
01403               2.60   -32800.00
01404               2.00   -32800.00
01405               2.60   -32800.00
01406               3.00   -33600.00
01407               2.00   -32800.00
01408               3.40   -32800.00
01409               2.60   -32000.00
01410               2.20   -32800.00
01411               3.00   -32800.00
01412               2.60   -32800.00
01413               2.80   -32800.00
01414               2.60   -32000.00
01415               2.80   -32800.00
01416               2.60   -32000.00
01417               2.20   -32000.00
01418               2.40   -32000.00
01419               2.60   -32000.00
01420               2.20   -32000.00
01421               2.20   -32000.00
01422               2.40   -31200.00
01423               2.00   -30400.00
01424               2.20   -30400.00
01425               2.60   -30400.00
01426               2.60   -30400.00
01427               2.00   -30400.00
01428               2.40   -29600.00
01429               2.20   -29600.00
01430               2.00   -29600.00
01431               2.00   -28800.00
01432               2.00   -28800.00
01433               1.80   -28000.00
01434               2.00   -28800.00
01435               1.40   -27200.00
01436               1.80   -28000.00
01437               1.40   -27200.00
01438               2.20   -27200.00
01439               2.00   -27200.00
01440               1.40   -26400.00
01441               1.80   -26400.00
01442               1.20   -25600.00
01443               1.80   -25600.00
01444               1.40   -24800.00
01445               1.20   -24000.00
01446               1.80   -24000.00
01447               1.40   -24000.00
01448               1.20   -23200.00
01449               1.00   -22400.00
01450               1.00   -22400.00
01451               1.00   -22400.00
01452               1.40   -21600.00
01453               1.20   -20800.00
01454               1.00   -20800.00
01455               1.00   -20000.00
01456               0.60   -20000.00
01457               1.00   -19200.00
01458               1.20   -17600.00
01459               0.60   -17600.00
01460               0.40   -17600.00
01461               1.00   -16800.00
01462               0.40   -16000.00
01463               0.40   -16000.00
01464               1.00   -14400.00
01465               0.40   -14400.00
01466               0.40   -14400.00
01467               0.60   -13600.00
01468               0.60   -12800.00
01469               0.20   -12800.00
01470               0.40   -12000.00
01471               0.60   -11200.00
01472               0.20   -10400.00
01473               0.20   -10400.00
01474               0.20    -9600.00
01475               0.40    -8800.00
01476               0.40    -8000.00
01477               0.20    -8000.00
01478               0.20    -7200.00
01479               0.20    -6400.00
01480              -0.20    -5600.00
01481               0.40    -4800.00
01482               0.20    -4000.00
01483              -0.20    -3200.00
01484               0.40    -3200.00
01485               0.20    -2400.00
01486              -0.40    -2400.00
01487              -0.20    -1600.00
01488               0.00     -800.00
01489               0.20        0.00
01490               0.40        0.00
01491               0.40     1600.00
01492               2.20     1600.00
01493               2.60     2400.00
01494              -2.20     1600.00
01495               0.40     3200.00
01496               1.80     3200.00
01497              -0.60     4000.00
01498               3.00     4800.00
01499              25.00     5600.00
01500              16.40     7200.00
01501             -25.00     8000.00
01502              -6.40     8800.00
01503              25.00     8000.00
01504             -25.00     8000.00
01505               5.80     8800.00
01506              25.00     9600.00
01507             -25.00    10400.00
01508              25.00    11200.00
01509              25.00    11200.00
01510             -25.00    12000.00
01511              25.00    12800.00
01512             -25.00    12800.00
01513              14.00    14400.00
01514              25.00    14400.00
01515             -25.00    15200.00
01516              25.00    16000.00
01517              14.20    16000.00
01518             -25.00    16800.00
01519              25.00    17600.00
01520               9.80    17600.00
01521             -25.00    18400.00
01522              14.00    18400.00
01523              25.00    19200.00
01524             -25.00    20000.00
01525              23.40    20800.00
01526              17.20    20800.00
01527             -25.00    21600.00
01528              24.40    22400.00
01529             -16.20    22400.00
01530              -6.00    23200.00
01531               9.80    23200.00
01532              -8.60    24000.00
01533              -3.40    24000.00
01534              16.60    24800.00
01535             -16.20    24800.00
01536              -5.80    25600.00
01537              17.20    25600.00
01538             -22.20    26400.00
01539               3.80    27200.00
01540               8.40    27200.00
01541             -12.00    27200.00
01542              -1.80    28000.00
01543               5.80    28000.00
01544              -7.60    28000.00
01545              -4.20    28800.00
01546               6.80    28800.00
01547              -8.40    29600.00
01548              -3.00    28800.00
01549               2.60    30400.00
01550              -7.00    30400.00
01551               0.00    30400.00
01552               0.40    31200.00
01553              -7.00    31200.00
01554               0.80    31200.00
01555              -2.80    31200.00
01556              -6.00    32000.00
01557               0.60    31200.00
01558              -3.80    32800.00
01559              -3.40    32800.00
01560              -0.40    32800.00
01561              -2.80    32800.00
01562              -4.60    32800.00
01563              -2.20    32800.00
01564              -2.20    33600.00
01565              -4.80    33600.00
01566              -1.20    33600.00
01567              -3.00    33600.00
01568              -4.40    33600.00
01569              -1.20    32800.00
01570              -4.60    32000.00
01571              -3.00    33600.00
01572              -2.60    33600.00
01573              -4.20    33600.00
01574              -1.80    33600.00
01575              -3.80    33600.00
01576              -3.60    33600.00
01577              -3.00    33600.00
01578              -3.00    33600.00
01579              -3.00    33600.00
01580              -4.40    33600.00
01581              -2.80    33600.00
01582              -3.40    32800.00
01583              -3.00    32800.00
01584              -2.80    32800.00
01585              -3.80    32800.00
01586              -3.00    32000.00
01587              -3.00    32800.00
01588              -3.00    32000.00
01589              -3.00    32000.00
01590              -3.80    31200.00
01591              -2.60    32000.00
01592              -2.60    31200.00
01593              -3.60    31200.00
01594              -2.80    31200.00
01595              -3.00    30400.00
01596              -2.20    30400.00
01597              -2.80    30400.00
01598              -2.60    29600.00
01599              -2.60    30400.00
01600              -3.60    28800.00
01601              -1.80    28800.00
01602              -2.60    28800.00
01603              -3.20    28000.00
01604              -2.00    28000.00
01605              -2.40    27200.00
01606              -2.20    27200.00
01607              -2.40    26400.00
01608              -2.80    25600.00
01609              -1.80    25600.00
01610              -2.00    25600.00
01611              -2.20    24800.00
01612              -2.00    24800.00
01613              -2.20    24000.00
01614              -2.00    24000.00
01615              -1.80    24000.00
01616              -1.60    24000.00
01617              -2.20    22400.00
01618              -2.00    22400.00
01619              -1.20    21600.00
01620              -2.20    20800.00
01621              -2.00    20800.00
01622              -1.80    20000.00
01623              -1.80    19200.00
01624              -1.20    19200.00
01625              -1.80    18400.00
01626              -1.60    17600.00
01627              -1.80    17600.00
01628              -1.20    17600.00
01629              -1.60    16800.00
01630              -1.40    16000.00
01631              -1.40    16000.00
01632              -1.80    14400.00
01633              -1.80    14400.00
01634              -1.20    14400.00
01635              -2.00    12800.00
01636              -1.20    12800.00
01637              -1.00    12000.00
01638              -1.20    11200.00
01639              -1.00    11200.00
01640              -1.00     9600.00
01641              -1.40     9600.00
01642              -1.00     9600.00
01643              -1.00     8800.00
01644              -1.20     8000.00
01645              -1.20     7200.00
01646              -1.20     6400.00
01647              -1.20     7200.00
01648              -0.60     5600.00
01649              -1.40     4800.00
01650              -1.00     4000.00
01651              -0.60     3200.00
01652              -1.00     3200.00
01653              -1.20     2400.00
01654              -1.00     1600.00
01655              -0.60      800.00
01656              -1.00      800.00
01657              -0.40        0.00
01658               0.20     -800.00
01659               2.80    -1600.00
01660              -0.40    -1600.00
01661              -2.20    -2400.00
01662               0.80    -3200.00
01663               0.60    -3200.00
01664              -1.20    -3200.00
01665               2.60    -4000.00
01666              14.60    -5600.00
01667              25.00    -6400.00
01668             -25.00    -7200.00
01669             -25.00    -8000.00
01670              25.00    -8000.00
01671               0.20    -9600.00
01672             -25.00    -8800.00
01673              25.00    -9600.00
01674              25.00   -11200.00
01675             -25.00   -10400.00
01676              25.00   -11200.00
01677              25.00   -11200.00
01678             -25.00   -12000.00
01679              25.00   -13600.00
01680             -18.20   -13600.00
01681              13.20   -14400.00
01682               3.60   -14400.00
01683             -25.00   -16000.00
01684              25.00   -16000.00
01685             -14.80   -16000.00
01686             -25.00   -16800.00
01687              25.00   -17600.00
01688               0.20   -17600.00
01689             -25.00   -18400.00
01690              25.00   -19200.00
01691              13.20   -18400.00
01692             -25.00   -20000.00
01693              25.00   -20000.00
01694               7.00   -20800.00
01695             -19.20   -21600.00
01696              15.00   -21600.00
01697              -3.60   -22400.00
01698              -5.40   -23200.00
01699               6.60   -22400.00
01700               0.20   -24000.00
01701              -0.60   -24000.00
01702              10.00   -24000.00
01703              -9.20   -25600.00
01704               3.60   -24800.00
01705               8.60   -25600.00
01706             -11.60   -25600.00
01707               8.00   -26400.00
01708               5.80   -27200.00
01709              -5.60   -27200.00
01710               2.80   -27200.00
01711               6.20   -28000.00
01712              -4.20   -28800.00
01713               1.80   -28800.00
01714               6.20   -28800.00
01715              -3.60   -28800.00
01716               2.00   -29600.00
01717               3.80   -30400.00
01718              -1.20   -29600.00
01719               3.40   -30400.00
01720               3.60   -30400.00
01721              -0.40   -30400.00
01722               4.20   -31200.00
01723               1.20   -31200.00
01724               0.40   -32000.00
01725               3.80   -32000.00
01726               1.80   -32000.00
01727               2.00   -32000.00
01728               2.80   -32800.00
01729               2.00   -32000.00
01730               1.20   -32000.00
01731               2.80   -32800.00
01732               2.60   -32800.00
01733               1.80   -32800.00
01734               3.60   -32800.00
01735               2.20   -32800.00
01736               2.20   -32800.00
01737               3.00   -32800.00
01738               1.60   -32800.00
01739               3.40   -32800.00
01740               2.20   -32800.00
01741               2.20   -32800.00
01742               3.60   -32800.00
01743               2.20   -32800.00
01744               2.80   -32800.00
01745               3.60   -32800.00
01746               2.80   -32800.00
01747               2.60   -32800.00
01748               2.60   -32800.00
01749               3.00   -32800.00
01750               2.20   -32000.00
01751               2.80   -32000.00
01752               2.60   -32000.00
01753               2.20   -32000.00
01754               2.60   -32000.00
01755               2.60   -32000.00
01756               2.20   -31200.00
01757               2.60   -30400.00
01758               2.00   -30400.00
01759               2.60   -29600.00
01760               2.20   -31200.00
01761               2.00   -30400.00
01762               2.60   -30400.00
01763               1.80   -29600.00
01764               2.40   -29600.00
01765               1.80   -28800.00
01766               1.80   -28800.00
01767               2.20   -28800.00
01768               1.80   -28800.00
01769               2.00   -28000.00
01770               1.20   -27200.00
01771               1.80   -27200.00
01772               2.20   -27200.00
01773               1.80   -26400.00
01774               1.80   -26400.00
01775               1.40   -26400.00
01776               1.20   -25600.00
01777               1.60   -24800.00
01778               1.40   -24800.00
01779               1.40   -24000.00
01780               1.20   -24000.00
01781               0.80   -23200.00
01782               1.00   -23200.00
01783               1.20   -22400.00
01784               1.20   -22400.00
01785               1.00   -20800.00
01786               1.20   -20800.00
01787               1.00   -20800.00
01788               0.60   -20000.00
01789               1.00   -20000.00
01790               1.00   -18400.00
01791               0.60   -18400.00
01792               0.60   -17600.00
01793               0.60   -17600.00
01794               1.00   -16800.00
01795               0.00   -16800.00
01796               0.40   -16000.00
01797               1.40   -16000.00
01798               0.20   -14400.00
01799               0.20   -14400.00
01800               1.40   -14400.00
01801               0.40   -12800.00
01802              -0.80   -12000.00
01803               0.60   -12000.00
01804               1.80   -11200.00
01805              -1.00   -10400.00
01806              -0.20   -10400.00
01807               2.00    -9600.00
01808              -0.60    -9600.00
01809              -0.20    -8800.00
01810               2.60    -8000.00
01811              -0.20    -7200.00
01812              -1.20    -7200.00
01813               1.80    -6400.00
01814               0.40    -6400.00
01815              -1.20    -4800.00
01816               1.20    -4800.00
01817               1.20    -4000.00
01818              -1.00    -3200.00
01819               0.20    -3200.00
01820               1.00    -1600.00
01821              -0.60     -800.00
01822              -0.40     -800.00
01823               1.00        0.00
01824               0.80      800.00
01825               0.40     1600.00
01826               4.20     1600.00
01827               0.40     2400.00
01828              -2.20     3200.00
01829               1.20     3200.00
01830               1.40     3200.00
01831              -1.20     4000.00
01832               9.40     4800.00
01833              25.00     7200.00
01834             -22.60     8000.00
01835             -25.00     8000.00
01836              23.40     8000.00
01837               7.40     8000.00
01838             -25.00     8800.00
01839              25.00    10400.00
01840               5.80     9600.00
01841             -25.00    11200.00
01842              25.00    11200.00
01843             -25.00    11200.00
01844              -3.60    12800.00
01845              25.00    12800.00
01846             -25.00    12800.00
01847              25.00    14400.00
01848             -25.00    14400.00
01849             -25.00    15200.00
01850              25.00    15200.00
01851             -25.00    16000.00
01852              -2.80    16800.00
01853              25.00    17600.00
01854             -25.00    17600.00
01855             -25.00    18400.00
01856              25.00    19200.00
01857             -11.80    19200.00
01858             -25.00    20800.00
01859              25.00    20800.00
01860             -24.20    20800.00
01861              -1.20    22400.00
01862              14.00    22400.00
01863             -21.80    22400.00
01864               9.00    22400.00
01865               0.40    24000.00
01866             -11.80    24000.00
01867               8.40    24800.00
01868               7.00    24800.00
01869             -22.80    25600.00
01870              15.40    25600.00
01871              -2.00    25600.00
01872             -17.60    26400.00
01873              14.40    27200.00
01874              -3.80    28000.00
01875              -9.20    27200.00
01876               4.40    28000.00
01877               0.60    28000.00
01878             -10.20    28000.00
01879               3.60    28800.00
01880               0.40    28800.00
01881              -8.60    29600.00
01882               3.00    30400.00
01883              -2.80    30400.00
01884              -6.00    30400.00
01885               3.40    30400.00
01886              -4.60    30400.00
01887              -3.60    31200.00
01888               2.20    31200.00
01889              -6.60    31200.00
01890              -2.20    32800.00
01891              -0.60    32000.00
01892              -5.40    32800.00
01893              -1.00    32800.00
01894              -0.80    32800.00
01895              -4.60    32800.00
01896              -3.60    32800.00
01897              -1.20    33600.00
01898              -4.20    33600.00
01899              -3.20    32800.00
01900              -0.60    33600.00
01901              -5.20    33600.00
01902              -2.20    33600.00
01903              -2.20    33600.00
01904              -5.20    33600.00
01905              -1.80    33600.00
01906              -4.00    33600.00
01907              -2.80    33600.00
01908              -2.60    32800.00
01909              -4.60    33600.00
01910              -2.80    33600.00
01911              -3.80    33600.00
01912              -3.00    33600.00
01913              -3.60    33600.00
01914              -3.80    32800.00
01915              -3.00    33600.00
01916              -3.80    32800.00
01917              -2.60    32800.00
01918              -3.40    32800.00
01919              -3.40    32800.00
01920              -2.60    32000.00
01921              -3.40    32800.00
01922              -3.00    32000.00
01923              -3.40    32000.00
01924              -3.40    31200.00
01925              -2.80    32800.00
01926              -3.00    31200.00
01927              -3.00    31200.00
01928              -3.00    31200.00
01929              -3.00    30400.00
01930              -2.60    30400.00
01931              -3.00    30400.00
01932              -2.60    29600.00
01933              -2.60    29600.00
01934              -2.20    28000.00
01935              -2.00    28800.00
01936              -3.00    28000.00
01937              -2.20    28000.00
01938              -2.20    27200.00
01939              -2.20    27200.00
01940              -2.20    27200.00
01941              -3.00    27200.00
01942              -2.00    25600.00
01943              -2.00    25600.00
01944              -2.20    25600.00
01945              -1.60    24800.00
01946              -2.20    24800.00
01947              -2.00    24800.00
01948              -2.00    24000.00
01949              -1.80    24000.00
01950              -2.00    22400.00
01951              -2.20    22400.00
01952              -1.40    22400.00
01953              -2.00    21600.00
01954              -2.20    20800.00
01955              -1.60    20000.00
01956              -2.00    20000.00
01957              -1.40    19200.00
01958              -1.20    18400.00
01959              -1.80    18400.00
01960              -1.60    17600.00
01961              -1.40    17600.00
01962              -1.00    16000.00
01963              -1.60    16000.00
01964              -1.40    15200.00
01965              -1.40    15200.00
01966              -1.60    14400.00
01967              -1.20    14400.00
01968              -1.20    13600.00
01969              -2.00    12800.00
01970              -0.60    12800.00
01971              -1.20    12000.00
01972              -1.20    11200.00
01973              -1.40     9600.00
01974              -1.20    10400.00
01975              -1.40     9600.00
01976              -1.20     8800.00
01977              -1.20     8000.00
01978              -1.20     8000.00
01979              -1.40     7200.00
01980              -1.20     6400.00
01981              -1.00     6400.00
01982              -1.20     4800.00
01983              -1.20     4800.00
01984              -0.60     3200.00
01985              -0.60     3200.00
01986              -1.20     2400.00
01987              -1.20     2400.00
01988              -1.00     1600.00
01989              -1.00      800.00
01990              -0.60     -800.00
01991               0.00     -800.00
01992               1.00     -800.00
01993               2.80    -1600.00
01994              -2.20    -1600.00
01995              -0.40    -1600.00
01996               1.00    -3200.00
01997               0.40    -4000.00
01998              -0.80    -4000.00
01999               6.60    -4800.00
02000              24.20    -5600.00
02001               3.80    -7200.00
02002             -25.00    -8000.00
02003              -0.60    -8000.00
02004              25.00    -8000.00
02005             -25.00    -8000.00
02006             -20.60    -8800.00
02007              25.00   -10400.00
02008             -25.00    -9600.00
02009             -25.00   -11200.00
02010              25.00   -12000.00
02011             -25.00   -12000.00
02012              -7.60   -12800.00
02013              25.00   -12800.00
02014             -23.00   -13600.00
02015              25.00   -14400.00
02016             -25.00   -15200.00
02017               8.40   -15200.00
02018              25.00   -16000.00
02019             -25.00   -16800.00
02020               8.20   -17600.00
02021              25.00   -17600.00
02022             -25.00   -17600.00
02023             -12.40   -18400.00
02024              25.00   -19200.00
02025             -24.40   -19200.00
02026             -10.20   -20000.00
02027              25.00   -20800.00
02028             -19.00   -21600.00
02029              -0.20   -21600.00
02030              11.20   -22400.00
02031              -9.20   -23200.00
02032               1.80   -22400.00
02033               5.80   -24000.00
02034              -4.20   -24000.00
02035               6.80   -24800.00
02036               2.60   -24800.00
02037              -9.20   -25600.00
02038              13.40   -25600.00
02039              -3.80   -25600.00
02040              -5.20   -26400.00
02041              12.40   -26400.00
02042              -2.20   -27200.00
02043              -3.80   -27200.00
02044               7.00   -27200.00
02045               1.40   -28800.00
02046              -4.20   -28800.00
02047               6.80   -28800.00
02048               1.20   -28800.00
02049              -3.00   -28800.00
02050               5.40   -29600.00
02051               0.80   -29600.00
02052              -0.20   -29600.00
02053               5.00   -30400.00
02054               0.40   -30400.00
02055               1.20   -31200.00
02056               4.20   -32000.00
02057              -0.40   -32000.00
02058               2.60   -31200.00
02059               3.40   -32000.00
02060               1.20   -32000.00
02061               2.80   -32000.00
02062               2.60   -32800.00
02063               1.20   -32000.00
02064               1.80   -32000.00
02065               3.60   -32800.00
02066               2.00   -32800.00
02067               2.60   -32800.00
02068               3.60   -32800.00
02069               2.00   -32800.00
02070               3.00   -32800.00
02071               2.00   -32800.00
02072               2.20   -32800.00
02073               3.40   -32800.00
02074               2.20   -32800.00
02075               3.60   -32800.00
02076               3.00   -32800.00
02077               2.40   -32800.00
02078               3.20   -32800.00
02079               3.00   -32800.00
02080               2.60   -32000.00
02081               2.00   -32800.00
02082               2.80   -32800.00
02083               2.80   -32000.00
02084               2.20   -32000.00
02085               2.80   -32000.00
02086               2.60   -32000.00
02087               2.60   -32000.00
02088               2.60   -31200.00
02089               2.20   -31200.00
02090               2.60   -32000.00
02091               2.20   -30400.00
02092               2.20   -31200.00
02093               2.80   -29600.00
02094               2.20   -30400.00
02095               2.00   -30400.00
02096               2.60   -29600.00
02097               2.40   -29600.00
02098               1.80   -29600.00
02099               2.00   -29600.00
02100               2.00   -28800.00
02101               1.40   -28800.00
02102               1.80   -28000.00
02103               2.00   -28000.00
02104               1.20   -27200.00
02105               1.80   -27200.00
02106               2.00   -26400.00
02107               1.00   -26400.00
02108               1.20   -26400.00
02109               1.20   -25600.00
02110               1.40   -25600.00
02111               1.20   -24800.00
02112               0.60   -24000.00
02113               1.80   -24000.00
02114               1.00   -24000.00
02115               0.60   -23200.00
02116               1.20   -22400.00
02117               1.40   -22400.00
02118               1.00   -22400.00
02119               1.20   -20800.00
02120               1.40   -20800.00
02121               0.60   -20000.00
02122               0.40   -20000.00
02123               1.00   -18400.00
02124               0.40   -18400.00
02125               1.20   -17600.00
02126               0.80   -17600.00
02127               0.40   -16800.00
02128               0.60   -16800.00
02129               0.60   -16000.00
02130               0.60   -16000.00
02131               0.60   -15200.00
02132               0.60   -14400.00
02133               0.60   -14400.00
02134               0.40   -12800.00
02135               0.80   -12800.00
02136               0.40   -12800.00
02137               0.40   -12000.00
02138               0.80   -10400.00
02139               0.20   -10400.00
02140               0.20   -10400.00
02141               0.20    -9600.00
02142               0.20    -8800.00
02143               0.60    -8000.00
02144               0.40    -7200.00
02145               0.40    -7200.00
02146               0.40    -6400.00
02147               0.20    -6400.00
02148               0.40    -4800.00
02149               0.60    -4800.00
02150               0.20    -4000.00
02151               0.00    -3200.00
02152               0.40    -3200.00
02153              -0.20    -1600.00
02154              -0.20    -1600.00
02155               0.20     -800.00
02156               0.20        0.00
02157               0.20        0.00
02158               0.60      800.00
02159               1.80     1600.00
02160               3.20     1600.00
02161              -2.00     2400.00
02162               0.00     3200.00
02163               2.00     4000.00
02164              -0.60     3200.00
02165               2.00     4800.00
02166              21.40     5600.00
02167              23.00     7200.00
02168             -25.00     8000.00
02169             -14.20     8000.00
02170              25.00     8000.00
02171             -25.00     8800.00
02172              -6.20     9600.00
02173              25.00     9600.00
02174             -25.00     9600.00
02175              25.00    11200.00
02176              25.00    11200.00
02177             -25.00    12000.00
02178              25.00    12800.00
02179             -25.00    12800.00
02180              -4.60    14400.00
02181              25.00    14400.00
02182             -25.00    15200.00
02183              25.00    16000.00
02184              25.00    16000.00
02185             -25.00    16000.00
02186              25.00    16800.00
02187              17.80    17600.00
02188             -25.00    18400.00
02189               6.60    18400.00
02190              25.00    19200.00
02191             -25.00    19200.00
02192              14.80    20800.00
02193              25.00    20800.00
02194             -25.00    21600.00
02195              23.00    22400.00
02196             -12.20    22400.00
02197              -9.20    22400.00
02198              11.40    23200.00
02199              -7.40    24000.00
02200              -5.40    24000.00
02201              16.20    24800.00
02202             -12.80    24800.00
02203              -9.80    25600.00
02204              19.60    25600.00
02205             -20.40    25600.00
02206               0.20    27200.00
02207              10.80    27200.00
02208             -11.20    27200.00
02209              -3.00    27200.00
02210               6.20    28000.00
02211              -6.20    28000.00
02212              -6.00    28800.00
02213               7.00    28800.00
02214              -6.80    29600.00
02215              -4.40    28800.00
02216               3.00    29600.00
02217              -6.60    30400.00
02218              -1.00    31200.00
02219               1.40    31200.00
02220              -6.60    31200.00
02221               0.20    30400.00
02222              -2.00    31200.00
02223              -6.20    32800.00
02224               0.40    32800.00
02225              -3.40    32000.00
02226              -3.40    32000.00
02227              -0.60    32800.00
02228              -2.40    32800.00
02229              -4.60    32000.00
02230              -3.00    32800.00
02231              -1.80    32800.00
02232              -4.60    33600.00
02233              -2.20    33600.00
02234              -2.80    32800.00
02235              -4.40    33600.00
02236              -1.60    33600.00
02237              -4.40    33600.00
02238              -3.40    32800.00
02239              -2.60    33600.00
02240              -4.40    33600.00
02241              -1.40    33600.00
02242              -3.60    33600.00
02243              -4.20    33600.00
02244              -3.00    33600.00
02245              -3.40    32800.00
02246              -3.40    32800.00
02247              -4.40    33600.00
02248              -3.00    32800.00
02249              -3.80    33600.00
02250              -3.40    32000.00
02251              -2.80    32800.00
02252              -3.80    32800.00
02253              -3.00    32000.00
02254              -2.80    32800.00
02255              -3.20    32000.00
02256              -3.00    32000.00
02257              -3.60    31200.00
02258              -2.60    31200.00
02259              -2.60    31200.00
02260              -3.40    31200.00
02261              -2.60    30400.00
02262              -2.80    31200.00
02263              -2.60    30400.00
02264              -2.20    30400.00
02265              -2.80    29600.00
02266              -2.60    29600.00
02267              -2.60    28800.00
02268              -2.20    28800.00
02269              -2.20    28000.00
02270              -2.60    28000.00
02271              -2.20    27200.00
02272              -2.20    28000.00
02273              -2.00    27200.00
02274              -2.20    27200.00
02275              -2.80    26400.00
02276              -1.80    26400.00
02277              -2.00    24800.00
02278              -2.20    24800.00
02279              -2.00    24800.00
02280              -2.00    24000.00
02281              -1.80    24000.00
02282              -2.20    24000.00
02283              -1.80    22400.00
02284              -2.00    22400.00
02285              -2.20    21600.00
02286              -1.00    21600.00
02287              -2.00    21600.00
02288              -2.20    21600.00
02289              -2.00    20800.00
02290              -1.40    19200.00
02291              -1.40    19200.00
02292              -2.00    18400.00
02293              -1.40    18400.00
02294              -1.40    17600.00
02295              -1.60    16800.00
02296              -1.20    16000.00
02297              -1.80    16000.00
02298              -1.40    15200.00
02299              -1.40    14400.00
02300              -1.80    14400.00
02301              -1.40    14400.00
02302              -1.60    12800.00
02303              -1.80    12800.00
02304              -1.00    12000.00
02305              -1.20    11200.00
02306              -1.80    11200.00
02307              -1.20     9600.00
02308              -1.00     9600.00
02309              -1.40     8800.00
02310              -1.40     8000.00
02311              -1.40     8000.00
02312              -1.20     7200.00
02313              -1.20     6400.00
02314              -1.00     6400.00
02315              -1.00     5600.00
02316              -1.20     4800.00
02317              -1.20     4800.00
02318              -1.00     3200.00
02319              -1.00     3200.00
02320              -1.00     2400.00
02321              -1.20     1600.00
02322              -1.00      800.00
02323              -0.60        0.00
02324              -0.20        0.00
02325               0.00     -800.00
02326               2.60    -1600.00
02327               0.20    -1600.00
02328              -2.20    -1600.00
02329               1.00    -2400.00
02330               1.00    -3200.00
02331              -1.00    -4000.00
02332               2.00    -4000.00
02333              13.40    -4800.00
02334              25.00    -6400.00
02335             -25.00    -7200.00
02336             -25.00    -8000.00
02337              23.60    -8000.00
02338               6.80    -8800.00
02339             -25.00    -8800.00
02340              25.00    -9600.00
02341              25.00   -10400.00
02342             -25.00    -9600.00
02343              25.00   -11200.00
02344              25.00   -12000.00
02345             -25.00   -12000.00
02346              25.00   -12800.00
02347             -11.80   -12800.00
02348               7.40   -14400.00
02349              11.60   -14400.00
02350             -25.00   -15200.00
02351              25.00   -16000.00
02352              -5.20   -16000.00
02353             -25.00   -16800.00
02354              25.00   -16800.00
02355               6.40   -17600.00
02356             -25.00   -17600.00
02357              19.40   -18400.00
02358              20.40   -19200.00
02359             -25.00   -20000.00
02360              24.20   -20000.00
02361              12.80   -20800.00
02362             -21.80   -20800.00
02363              14.00   -22400.00
02364              -1.40   -22400.00
02365              -6.60   -23200.00
02366               6.00   -23200.00
02367               1.00   -24000.00
02368              -2.00   -24000.00
02369              10.60   -24000.00
02370              -8.40   -24800.00
02371               1.00   -26400.00
02372              10.60   -25600.00
02373             -12.40   -25600.00
02374               6.20   -26400.00
02375               7.60   -27200.00
02376              -6.20   -27200.00
02377               2.00   -27200.00
02378               7.40   -27200.00
02379              -3.60   -28000.00
02380               0.60   -28800.00
02381               7.00   -28800.00
02382              -3.60   -28800.00
02383               1.20   -29600.00
02384               4.60   -29600.00
02385              -1.20   -29600.00
02386               3.00   -30400.00
02387               3.80   -31200.00
02388              -0.60   -30400.00
02389               3.80   -31200.00
02390               1.80   -32000.00
02391               0.00   -31200.00
02392               3.40   -32000.00
02393               2.00   -32000.00
02394               2.00   -32000.00
02395               2.80   -32000.00
02396               2.80   -32000.00
02397               1.20   -32000.00
02398               2.60   -32000.00
02399               2.60   -32800.00
02400               1.40   -32800.00
02401               3.40   -32800.00
02402               2.80   -32800.00
02403               2.60   -32000.00
02404               3.00   -32800.00
02405               2.00   -32800.00
02406               2.80   -32800.00
02407               3.00   -32800.00
02408               2.80   -32800.00
02409               3.40   -32800.00
02410               2.20   -32800.00
02411               3.00   -32800.00
02412               3.40   -32800.00
02413               3.00   -32800.00
02414               2.80   -32800.00
02415               2.60   -32800.00
02416               3.20   -32000.00
02417               2.60   -32000.00
02418               2.20   -32000.00
02419               2.80   -32000.00
02420               2.60   -32000.00
02421               2.60   -32000.00
02422               2.60   -30400.00
02423               2.60   -32000.00
02424               2.00   -30400.00
02425               2.40   -31200.00
02426               3.00   -30400.00
02427               2.00   -30400.00
02428               2.00   -30400.00
02429               2.20   -29600.00
02430               1.80   -29600.00
02431               2.00   -28800.00
02432               2.00   -28800.00
02433               1.40   -28800.00
02434               1.40   -28800.00
02435               1.80   -28000.00
02436               1.80   -28800.00
02437               1.40   -27200.00
02438               1.60   -27200.00
02439               1.60   -27200.00
02440               1.80   -26400.00
02441               1.20   -26400.00
02442               1.40   -26400.00
02443               1.40   -25600.00
02444               1.40   -24800.00
02445               1.00   -25600.00
02446               1.40   -24000.00
02447               1.00   -24000.00
02448               0.60   -24000.00
02449               1.40   -22400.00
02450               1.20   -22400.00
02451               0.60   -22400.00
02452               1.00   -21600.00
02453               1.20   -20800.00
02454               1.00   -20800.00
02455               1.20   -20000.00
02456               0.80   -18400.00
02457               1.00   -19200.00
02458               1.40   -18400.00
02459               1.00   -17600.00
02460               0.40   -17600.00
02461               1.00   -16800.00
02462               0.40   -16000.00
02463               0.40   -16000.00
02464               1.00   -15200.00
02465               0.40   -14400.00
02466               1.00   -14400.00
02467               1.00   -13600.00
02468               0.40   -13600.00
02469               0.40   -12800.00
02470               0.20   -12000.00
02471               0.40   -11200.00
02472               0.60   -11200.00
02473               0.20   -10400.00
02474               0.40   -10400.00
02475               0.60    -9600.00
02476               0.40    -8000.00
02477               0.20    -8000.00
02478               0.20    -7200.00
02479               0.40    -7200.00
02480               0.00    -6400.00
02481               0.40    -4800.00
02482               0.60    -5600.00
02483               0.20    -4000.00
02484               0.40    -4000.00
02485               0.60    -3200.00
02486               0.20    -2400.00
02487               0.20    -1600.00
02488               0.00    -1600.00
02489              -0.40     -800.00
02490               0.20        0.00
02491               0.40        0.00
02492               0.60     1600.00
02493               3.60     1600.00
02494               0.60     2400.00
02495              -2.00     2400.00
02496               1.00     3200.00
02497               0.80     3200.00
02498              -1.40     4000.00
02499               8.20     4800.00
02500              25.00     7200.00
02501             -15.00     8000.00
02502             -25.00     8000.00
02503              18.20     8000.00
02504              13.40     8000.00
02505             -25.00     8800.00
02506              25.00     9600.00
02507              21.80     9600.00
02508             -25.00    10400.00
02509              25.00    11200.00
02510             -25.00    11200.00
02511             -21.40    12800.00
02512              25.00    12800.00
02513             -25.00    12800.00
02514              25.00    14400.00
02515              -9.60    14400.00
02516             -25.00    15200.00
02517              25.00    16000.00
02518             -25.00    16000.00
02519             -15.80    17600.00
02520              25.00    16800.00
02521             -21.40    17600.00
02522             -25.00    18400.00
02523              25.00    19200.00
02524              -2.20    20000.00
02525             -25.00    20800.00
02526              25.00    20800.00
02527             -17.40    21600.00
02528              -7.60    21600.00
02529              18.60    22400.00
02530             -22.60    22400.00
02531               7.00    23200.00
02532               2.60    24000.00
02533             -11.80    24000.00
02534               6.00    24800.00
02535              10.60    24800.00
02536             -23.00    24800.00
02537              12.00    25600.00
02538               3.00    25600.00
02539             -20.80    27200.00
02540              13.20    27200.00
02541              -0.60    27200.00
02542             -10.20    27200.00
02543               3.40    28000.00
02544               2.80    28000.00
02545             -11.00    28800.00
02546               2.60    28800.00
02547               2.80    28800.00
02548             -10.20    28800.00
02549               2.20    29600.00
02550              -1.00    30400.00
02551              -7.00    30400.00
02552               2.80    30400.00
02553              -3.60    31200.00
02554              -4.80    31200.00
02555               2.20    31200.00
02556              -6.20    31200.00
02557              -2.80    31200.00
02558              -0.20    32000.00
02559              -5.40    32800.00
02560              -1.80    32000.00
02561              -0.60    32800.00
02562              -4.40    32800.00
02563              -4.40    32800.00
02564              -1.40    32800.00
02565              -3.80    32800.00
02566              -3.80    33600.00
02567              -1.00    33600.00
02568              -5.00    33600.00
02569              -2.80    32800.00
02570              -2.00    32800.00
02571              -5.20    33600.00
02572              -2.00    33600.00
02573              -4.20    33600.00
02574              -3.00    33600.00
02575              -2.00    32800.00
02576              -4.60    33600.00
02577              -3.00    33600.00
02578              -3.00    32800.00
02579              -3.20    33600.00
02580              -3.80    32800.00
02581              -3.80    33600.00
02582              -2.80    32800.00
02583              -3.60    32800.00
02584              -2.80    32800.00
02585              -3.00    32800.00
02586              -3.60    32800.00
02587              -2.60    32000.00
02588              -2.80    32800.00
02589              -3.00    32000.00
02590              -3.40    32000.00
02591              -2.80    31200.00
02592              -2.40    31200.00
02593              -3.00    31200.00
02594              -2.80    31200.00
02595              -2.80    30400.00
02596              -2.80    30400.00
02597              -2.20    30400.00
02598              -3.00    30400.00
02599              -2.20    29600.00
02600              -2.20    29600.00
02601              -3.00    28800.00
02602              -2.00    28800.00
02603              -2.20    28000.00
02604              -3.00    28000.00
02605              -1.80    27200.00
02606              -2.20    27200.00
02607              -2.20    27200.00
02608              -2.80    26400.00
02609              -2.00    26400.00
02610              -1.80    25600.00
02611              -2.20    24800.00
02612              -1.40    24800.00
02613              -2.00    24800.00
02614              -2.60    24000.00
02615              -1.80    24000.00
02616              -1.40    23200.00
02617              -2.20    22400.00
02618              -2.20    22400.00
02619              -1.60    21600.00
02620              -1.80    21600.00
02621              -2.00    20800.00
02622              -1.80    20800.00
02623              -1.80    19200.00
02624              -1.60    19200.00
02625              -1.40    19200.00
02626              -2.00    18400.00
02627              -1.40    17600.00
02628              -1.80    17600.00
02629              -1.20    16800.00
02630              -1.80    16000.00
02631              -2.00    15200.00
02632              -1.80    14400.00
02633              -1.20    14400.00
02634              -2.00    14400.00
02635              -1.40    14400.00
02636              -2.00    12800.00
02637              -1.20    12800.00
02638              -1.00    12000.00
02639              -0.60    11200.00
02640              -0.60    10400.00
02641              -0.60     9600.00
02642              -1.20     8800.00
02643              -1.40     8800.00
02644              -2.00     8000.00
02645              -1.80     8000.00
02646              -2.20     7200.00
02647              -2.00     5600.00
02648              -0.60     5600.00
02649              -0.60     4800.00
02650              -0.60     4800.00
02651               0.20     4000.00
02652              -0.60     3200.00
02653              -1.60     2400.00
02654              -1.80     1600.00
02655              -1.80     1600.00
02656              -1.40      800.00
02657              -0.40        0.00
02658               0.60        0.00
02659               2.00     -800.00
02660               3.60     -800.00
02661              -1.80    -1600.00
02662              -0.60    -2400.00
02663               0.00    -3200.00
02664              -0.80    -3200.00
02665              -0.60    -4000.00
02666               5.00    -4800.00
02667              22.00    -5600.00
02668              11.40    -7200.00
02669             -25.00    -8000.00
02670              -7.00    -8000.00
02671              25.00    -8000.00
02672             -25.00    -8800.00
02673             -25.00    -8800.00
02674              25.00   -10400.00
02675             -11.40   -10400.00
02676             -25.00   -11200.00
02677              25.00   -12000.00
02678             -25.00   -12800.00
02679             -19.80   -12800.00
02680              25.00   -13600.00
02681             -25.00   -13600.00
02682              25.00   -14400.00
02683             -25.00   -14400.00
02684              -2.00   -16000.00
02685              25.00   -16000.00
02686             -25.00   -16800.00
02687               0.20   -16800.00
02688              25.00   -17600.00
02689             -22.20   -17600.00
02690             -18.80   -18400.00
02691              25.00   -18400.00
02692             -17.40   -19200.00
02693             -18.40   -20000.00
02694              25.00   -20800.00
02695             -15.80   -20800.00
02696              -4.60   -21600.00
02697              13.20   -22400.00
02698              -9.00   -22400.00
02699               0.60   -23200.00
02700               6.80   -24000.00
02701              -4.20   -24000.00
02702               4.60   -24000.00
02703               4.60   -24800.00
02704             -11.00   -25600.00
02705              11.60   -25600.00
02706              -0.60   -25600.00
02707              -7.40   -26400.00
02708              11.80   -27200.00
02709              -0.40   -27200.00
02710              -4.60   -27200.00
02711               6.00   -27200.00
02712               3.20   -28800.00
02713              -5.00   -28800.00
02714               5.20   -28800.00
02715               3.00   -28800.00
02716              -3.00   -29600.00
02717               5.20   -29600.00
02718               2.20   -29600.00
02719               0.20   -30400.00
02720               5.00   -30400.00
02721               0.60   -31200.00
02722               0.60   -31200.00
02723               3.60   -30400.00
02724              -0.40   -32000.00
02725               2.00   -32000.00
02726               3.80   -31200.00
02727               1.40   -32000.00
02728               3.00   -32000.00
02729               3.40   -32000.00
02730               1.40   -32800.00
02731               1.80   -32000.00
02732               3.40   -32000.00
02733               2.00   -32800.00
02734               2.00   -32800.00
02735               4.20   -32800.00
02736               2.20   -32800.00
02737               3.60   -32800.00
02738               2.80   -32800.00
02739               2.00   -32800.00
02740               3.60   -33600.00
02741               1.80   -32800.00
02742               3.00   -32800.00
02743               2.80   -32800.00
02744               2.00   -32800.00
02745               3.60   -32800.00
02746               3.40   -32800.00
02747               3.40   -32800.00
02748               2.60   -32000.00
02749               2.60   -32800.00
02750               3.00   -32000.00
02751               2.20   -32000.00
02752               2.80   -32800.00
02753               2.80   -32000.00
02754               2.40   -32000.00
02755               2.40   -32000.00
02756               2.60   -32000.00
02757               2.20   -30400.00
02758               1.80   -31200.00
02759               2.60   -30400.00
02760               2.20   -30400.00
02761               1.40   -30400.00
02762               2.80   -29600.00
02763               1.80   -30400.00
02764               1.80   -29600.00
02765               2.20   -28800.00
02766               1.40   -28800.00
02767               2.20   -28800.00
02768               1.40   -28800.00
02769               1.20   -28000.00
02770               2.00   -28000.00
02771               0.60   -27200.00
02772               2.00   -27200.00
02773               2.00   -26400.00
02774               1.20   -26400.00
02775               1.40   -26400.00
02776               1.20   -25600.00
02777               1.20   -25600.00
02778               1.40   -24000.00
02779               1.40   -24000.00
02780               1.20   -24000.00
02781               0.40   -23200.00
02782               1.00   -23200.00
02783               1.00   -22400.00
02784               1.20   -21600.00
02785               1.20   -22400.00
02786               1.20   -20800.00
02787               1.20   -20800.00
02788               0.40   -20000.00
02789               0.60   -20000.00
02790               1.20   -18400.00
02791               1.20   -18400.00
02792               1.20   -17600.00
02793               1.00   -17600.00
02794               0.40   -17600.00
02795               0.40   -16800.00
02796               0.80   -16000.00
02797               1.00   -16000.00
02798               1.20   -15200.00
02799               1.20   -14400.00
02800               1.00   -14400.00
02801              -0.20   -13600.00
02802               0.40   -12800.00
02803               0.40   -12000.00
02804               0.40   -11200.00
02805               1.40   -11200.00
02806               0.40   -11200.00
02807              -0.40    -9600.00
02808               0.40    -9600.00
02809               0.20    -8800.00
02810               0.40    -8000.00
02811               0.60    -7200.00
02812               0.40    -7200.00
02813               0.00    -6400.00
02814               0.20    -5600.00
02815               0.40    -5600.00
02816               0.40    -4000.00
02817               0.20    -4000.00
02818               0.40    -3200.00
02819               0.20    -3200.00
02820              -0.60    -2400.00
02821              -0.60    -1600.00
02822              -0.20     -800.00
02823              -0.20        0.00
02824               0.40        0.00
02825               1.00      800.00
02826               1.40     1600.00
02827               3.40     1600.00
02828              -2.20     2400.00
02829              -0.60     3200.00
02830               1.80     3200.00
02831              -0.60     4000.00
02832               1.20     4800.00
02833              18.20     5600.00
02834              25.00     7200.00
02835             -25.00     8000.00
02836             -22.20     8000.00
02837              25.00     8000.00
02838             -21.40     8800.00
02839             -17.20     8800.00
02840              25.00     9600.00
02841             -25.00     9600.00
02842               6.80    11200.00
02843              25.00    12000.00
02844             -25.00    11200.00
02845              25.00    12800.00
02846             -15.60    12800.00
02847             -23.00    13600.00
02848              25.00    14400.00
02849             -25.00    15200.00
02850              25.00    16000.00
02851              25.00    15200.00
02852             -25.00    16000.00
02853              25.00    16800.00
02854              25.00    17600.00
02855             -25.00    18400.00
02856              -1.40    18400.00
02857              25.00    18400.00
02858             -25.00    19200.00
02859               5.00    20800.00
02860              25.00    20800.00
02861             -25.00    21600.00
02862              19.80    22400.00
02863              -6.60    22400.00
02864             -13.00    22400.00
02865              11.80    23200.00
02866              -5.20    24000.00
02867              -7.60    24000.00
02868              15.20    24800.00
02869              -8.20    25600.00
02870             -14.00    25600.00
02871              21.20    25600.00
02872             -17.20    26400.00
02873              -3.60    27200.00
02874              13.00    27200.00
02875             -10.80    27200.00
02876              -4.40    27200.00
02877               6.60    28000.00
02878              -5.20    28800.00
02879              -7.40    28000.00
02880               7.40    28800.00
02881              -6.00    28800.00
02882              -5.40    30400.00
02883               3.60    30400.00
02884              -6.20    30400.00
02885              -2.20    30400.00
02886               2.00    30400.00
02887              -6.80    31200.00
02888              -0.40    31200.00
02889              -1.20    32000.00
02890              -6.80    31200.00
02891               0.20    32800.00
02892              -3.40    32800.00
02893              -4.40    32800.00
02894              -0.20    32000.00
02895              -2.20    32800.00
02896              -4.80    32800.00
02897              -2.80    32800.00
02898              -1.80    32800.00
02899              -4.60    33600.00
02900              -2.20    32800.00
02901              -2.60    32800.00
02902              -5.20    33600.00
02903              -1.20    33600.00
02904              -3.80    33600.00
02905              -3.80    33600.00
02906              -2.20    33600.00
02907              -4.40    33600.00
02908              -2.00    33600.00
02909              -3.60    33600.00
02910              -4.40    33600.00
02911              -3.00    32800.00
02912              -3.40    33600.00
02913              -3.00    33600.00
02914              -4.40    33600.00
02915              -3.00    33600.00
02916              -3.40    33600.00
02917              -3.80    32800.00
02918              -2.80    32800.00
02919              -3.60    32800.00
02920              -3.00    32800.00
02921              -2.80    32000.00
02922              -2.80    32000.00
02923              -3.00    32800.00
02924              -3.60    32000.00
02925              -2.40    31200.00
02926              -2.60    31200.00
02927              -3.00    31200.00
02928              -2.60    31200.00
02929              -2.80    30400.00
02930              -2.20    30400.00
02931              -2.20    29600.00
02932              -2.80    29600.00
02933              -2.20    28800.00
02934              -2.60    28800.00
02935              -2.20    28800.00
02936              -2.00    28000.00
02937              -2.60    28000.00
02938              -2.20    27200.00
02939              -2.20    27200.00
02940              -2.00    27200.00
02941              -2.60    27200.00
02942              -2.80    26400.00
02943              -1.40    25600.00
02944              -2.20    24800.00
02945              -2.00    25600.00
02946              -1.40    24800.00
02947              -2.60    24000.00
02948              -2.00    24000.00
02949              -1.20    24000.00
02950              -2.20    22400.00
02951              -2.20    22400.00
02952              -2.20    22400.00
02953              -1.20    21600.00
02954              -2.60    21600.00
02955              -2.00    20800.00
02956              -1.80    20800.00
02957              -2.80    19200.00
02958              -0.60    19200.00
02959              -2.20    18400.00
02960              -2.60    18400.00
02961              -0.20    17600.00
02962              -3.00    17600.00
02963              -1.00    16000.00
02964               0.00    16000.00
02965              -3.00    15200.00
02966              -1.80    15200.00
02967              -0.40    14400.00
02968              -3.40    13600.00
02969              -1.20    12800.00
02970               0.20    12800.00
02971              -3.40    12000.00
02972              -0.60    11200.00
02973              -0.20    11200.00
02974              -3.80    10400.00
02975               0.00     9600.00
02976              -0.20     9600.00
02977              -2.80     8800.00
02978              -0.20     8000.00
02979              -0.60     7200.00
02980              -2.80     6400.00
02981              -0.40     7200.00
02982              -0.20     5600.00
02983              -2.60     4800.00
02984              -1.00     4000.00
02985              -0.40     3200.00
02986              -2.00     3200.00
02987              -0.20     2400.00
02988              -0.60     1600.00
02989              -1.40     1600.00
02990              -0.60        0.00
02991              -0.20        0.00
02992              -0.40     -800.00
02993               2.00     -800.00
02994               1.40    -1600.00
02995              -2.20    -2400.00
02996               0.80    -3200.00
02997               1.40    -3200.00
02998              -0.60    -4000.00
02999               1.00    -4000.00
03000              11.40    -4800.00
03001              25.00    -6400.00
03002             -22.60    -7200.00
03003             -25.00    -8000.00
03004              20.20    -8000.00
03005              12.60    -8800.00
03006             -25.00    -8000.00
03007              18.00    -8800.00
03008              25.00   -10400.00
03009             -25.00    -9600.00
03010              23.00   -11200.00
03011              25.00   -11200.00
03012             -25.00   -12000.00
03013              25.00   -12800.00
03014              -3.60   -13600.00
03015               0.20   -13600.00
03016              18.00   -14400.00
03017             -25.00   -14400.00
03018              25.00   -16000.00
03019               4.60   -16000.00
03020             -25.00   -16800.00
03021              25.00   -17600.00
03022              13.20   -17600.00
03023             -25.00   -17600.00
03024              12.20   -18400.00
03025              25.00   -19200.00
03026             -25.00   -20000.00
03027              17.00   -20000.00
03028              19.20   -20800.00
03029             -23.40   -21600.00
03030              11.60   -22400.00
03031               1.00   -22400.00
03032              -7.00   -23200.00
03033               5.20   -23200.00
03034               1.80   -24000.00
03035              -3.00   -24000.00
03036              10.20   -24000.00
03037              -6.40   -24800.00
03038              -2.20   -25600.00
03039              12.80   -26400.00
03040             -11.00   -25600.00
03041               3.60   -26400.00
03042               9.20   -26400.00
03043              -5.80   -27200.00
03044               0.20   -27200.00
03045               7.40   -28800.00
03046              -2.40   -28000.00
03047              -0.60   -28800.00
03048               7.40   -28800.00
03049              -2.40   -28800.00
03050               0.60   -28800.00
03051               5.00   -29600.00
03052              -0.80   -29600.00
03053               2.60   -29600.00
03054               4.60   -30400.00
03055              -0.40   -30400.00
03056               3.60   -31200.00
03057               2.60   -30400.00
03058              -0.40   -31200.00
03059               3.60   -32000.00
03060               2.00   -32000.00
03061               2.00   -32000.00
03062               3.40   -32000.00
03063               2.20   -32000.00
03064               0.80   -32000.00
03065               3.00   -32000.00
03066               3.40   -32800.00
03067               1.40   -32800.00
03068               3.40   -32800.00
03069               2.80   -32800.00
03070               2.20   -32000.00
03071               3.40   -32800.00
03072               2.00   -32800.00
03073               2.80   -32800.00
03074               3.00   -32800.00
03075               2.20   -32800.00
03076               3.40   -32800.00
03077               2.60   -32800.00
03078               2.80   -32000.00
03079               3.00   -32800.00
03080               2.80   -32800.00
03081               2.80   -32800.00
03082               2.60   -32800.00
03083               3.00   -32800.00
03084               2.40   -32800.00
03085               2.20   -32000.00
03086               2.80   -32000.00
03087               2.60   -32000.00
03088               2.60   -32000.00
03089               2.20   -31200.00
03090               2.20   -31200.00
03091               2.20   -30400.00
03092               1.80   -31200.00
03093               2.60   -32000.00
03094               2.00   -30400.00
03095               1.80   -30400.00
03096               2.60   -30400.00
03097               2.00   -29600.00
03098               1.80   -29600.00
03099               2.00   -29600.00
03100               1.80   -28800.00
03101               1.60   -28800.00
03102               2.00   -28800.00
03103               1.80   -27200.00
03104               1.20   -28000.00
03105               1.80   -27200.00
03106               1.60   -26400.00
03107               1.80   -26400.00
03108               1.60   -25600.00
03109               1.20   -25600.00
03110               1.40   -25600.00
03111               1.60   -25600.00
03112               1.00   -24000.00
03113               1.20   -24800.00
03114               1.20   -24000.00
03115               1.00   -24000.00
03116               1.20   -23200.00
03117               1.20   -22400.00
03118               1.00   -22400.00
03119               1.20   -21600.00
03120               1.20   -20800.00
03121               1.20   -20800.00
03122               1.20   -20000.00
03123               0.60   -20000.00
03124               1.00   -18400.00
03125               1.00   -18400.00
03126               0.80   -17600.00
03127               0.60   -17600.00
03128               0.80   -16800.00
03129               1.00   -16800.00
03130               0.20   -16000.00
03131               1.20   -16000.00
03132               0.80   -15200.00
03133               0.60   -14400.00
03134               1.00   -13600.00
03135               0.60   -13600.00
03136               0.40   -12800.00
03137               0.40   -12800.00
03138               0.80   -11200.00
03139               0.40   -11200.00
03140               0.20   -10400.00
03141               0.60    -9600.00
03142              -0.20    -9600.00
03143               0.20    -8800.00
03144               0.60    -8000.00
03145               0.20    -7200.00
03146               0.40    -7200.00
03147               0.40    -6400.00
03148               0.20    -4800.00
03149               0.40    -4800.00
03150               0.20    -4000.00
03151              -0.20    -4000.00
03152               0.40    -3200.00
03153               0.00    -1600.00
03154              -0.20    -1600.00
03155               0.20    -1600.00
03156              -0.60     -800.00
03157              -0.20        0.00
03158               0.40        0.00
03159               0.40      800.00
03160               3.00     1600.00
03161               1.20     1600.00
03162              -2.20     2400.00
03163               0.80     3200.00
03164               1.60     3200.00
03165              -1.40     4800.00
03166               6.80     4800.00
03167              25.00     7200.00
03168              -6.60     8000.00
03169             -25.00     8000.00
03170              12.40     8000.00
03171              19.00     8000.00
03172             -25.00     8800.00
03173              25.00     9600.00
03174              25.00    10400.00
03175             -25.00    10400.00
03176              25.00    11200.00
03177             -12.60    12000.00
03178             -25.00    12800.00
03179              25.00    12800.00
03180             -25.00    12800.00
03181              25.00    14400.00
03182              11.20    14400.00
03183             -25.00    15200.00
03184              25.00    16000.00
03185             -25.00    16000.00
03186             -25.00    16800.00
03187              25.00    17600.00
03188             -13.40    17600.00
03189             -25.00    18400.00
03190              25.00    19200.00
03191               8.20    19200.00
03192             -25.00    20800.00
03193              25.00    20800.00
03194              -8.40    21600.00
03195             -14.60    21600.00
03196              21.80    22400.00
03197             -22.00    22400.00
03198               3.80    22400.00
03199               4.60    23200.00
03200             -11.20    24000.00
03201               3.00    24000.00
03202              13.20    24800.00
03203             -22.60    24800.00
03204               7.60    25600.00
03205               7.60    25600.00
03206             -22.60    25600.00
03207              11.60    27200.00
03208               2.00    27200.00
03209             -11.00    27200.00
03210               2.00    28000.00
03211               3.80    28000.00
03212             -10.80    28800.00
03213               0.40    28800.00
03214               4.20    28800.00
03215              -9.80    28800.00
03216               0.60    30400.00
03217              -0.20    30400.00
03218              -7.40    30400.00
03219               2.00    31200.00
03220              -2.20    30400.00
03221              -5.80    31200.00
03222               1.80    31200.00
03223              -5.20    32000.00
03224              -3.80    32000.00
03225               0.00    32800.00
03226              -5.00    32800.00
03227              -2.20    32800.00
03228              -0.60    32000.00
03229              -3.80    33600.00
03230              -4.40    32800.00
03231              -2.20    32800.00
03232              -3.20    33600.00
03233              -4.40    32800.00
03234              -1.20    32800.00
03235              -4.40    33600.00
03236              -3.00    33600.00
03237              -2.20    33600.00
03238              -5.00    33600.00
03239              -1.80    33600.00
03240              -3.80    32800.00
03241              -3.60    33600.00
03242              -1.40    33600.00
03243              -4.80    33600.00
03244              -3.40    33600.00
03245              -2.80    33600.00
03246              -3.40    33600.00
03247              -3.80    32800.00
03248              -3.80    33600.00
03249              -2.80    33600.00
03250              -4.00    32800.00
03251              -2.80    32800.00
03252              -2.80    32800.00
03253              -3.80    32800.00
03254              -2.60    32800.00
03255              -2.80    32000.00
03256              -2.80    32800.00
03257              -2.80    32000.00
03258              -3.40    31200.00
03259              -2.20    31200.00
03260              -2.80    31200.00
03261              -2.80    31200.00
03262              -2.60    31200.00
03263              -2.40    30400.00
03264              -2.60    30400.00
03265              -2.80    30400.00
03266              -2.20    29600.00
03267              -2.60    28800.00
03268              -2.60    28800.00
03269              -1.80    28800.00
03270              -2.80    28000.00
03271              -2.20    28000.00
03272              -2.00    27200.00
03273              -2.40    27200.00
03274              -2.20    27200.00
03275              -2.20    26400.00
03276              -2.80    25600.00
03277              -1.80    25600.00
03278              -2.40    25600.00
03279              -1.80    24800.00
03280              -2.80    24000.00
03281              -2.00    24800.00
03282              -1.60    24000.00
03283              -2.00    23200.00
03284              -1.80    22400.00
03285              -2.40    22400.00
03286              -1.80    22400.00
03287              -1.60    21600.00
03288              -2.20    20000.00
03289              -2.00    20800.00
03290              -2.00    20000.00
03291              -1.40    19200.00
03292              -1.40    18400.00
03293              -2.00    18400.00
03294              -1.40    17600.00
03295              -2.00    17600.00
03296              -1.60    16800.00
03297              -1.40    16000.00
03298              -2.20    16000.00
03299              -0.60    15200.00
03300              -2.20    15200.00
03301              -1.80    14400.00
03302              -1.20    14400.00
03303              -2.00    12800.00
03304              -1.40    12800.00
03305              -1.00    12000.00
03306              -0.60    11200.00
03307              -1.80    11200.00
03308              -0.80    10400.00
03309              -1.20     9600.00
03310              -1.80     8800.00
03311              -0.80     8000.00
03312              -1.00     8000.00
03313              -1.80     7200.00
03314              -0.60     6400.00
03315              -0.60     5600.00
03316              -1.00     5600.00
03317              -1.00     4800.00
03318              -0.60     4000.00
03319              -1.00     3200.00
03320              -0.60     2400.00
03321              -1.20     2400.00
03322              -0.60     1600.00
03323              -0.40      800.00
03324              -0.60        0.00
03325              -0.20        0.00
03326               0.40     -800.00
03327               3.40    -1600.00
03328              -1.40    -1600.00
03329              -1.20    -2400.00
03330               1.00    -3200.00
03331               0.60    -3200.00
03332              -0.60    -4000.00
03333               4.40    -4800.00
03334              20.40    -5600.00
03335              15.60    -7200.00
03336             -25.00    -8000.00
03337             -14.00    -8000.00
03338              25.00    -8000.00
03339             -19.40    -8000.00
03340             -25.00    -8800.00
03341              25.00    -9600.00
03342               6.00   -10400.00
03343             -25.00   -10400.00
03344              25.00   -12000.00
03345             -15.00   -11200.00
03346             -25.00   -12800.00
03347              25.00   -13600.00
03348             -25.00   -13600.00
03349              25.00   -14400.00
03350             -20.20   -14400.00
03351             -11.80   -16000.00
03352              25.00   -15200.00
03353             -25.00   -16000.00
03354              -7.80   -17600.00
03355              25.00   -17600.00
03356             -17.40   -17600.00
03357             -24.20   -18400.00
03358              25.00   -19200.00
03359             -10.20   -19200.00
03360             -24.60   -20000.00
03361              25.00   -20800.00
03362             -10.40   -20800.00
03363              -8.80   -22400.00
03364              14.20   -22400.00
03365              -8.40   -23200.00
03366              -0.80   -23200.00
03367               6.20   -23200.00
03368              -3.40   -24000.00
03369               3.80   -24000.00
03370               6.60   -24800.00
03371             -11.20   -25600.00
03372              10.60   -25600.00
03373               1.20   -26400.00
03374              -9.40   -26400.00
03375              11.60   -26400.00
03376               0.60   -27200.00
03377              -5.00   -27200.00
03378               6.00   -27200.00
03379               3.80   -27200.00
03380              -4.60   -28800.00
03381               5.20   -28800.00
03382               3.80   -28800.00
03383              -3.60   -29600.00
03384               4.40   -29600.00
03385               2.20   -29600.00
03386              -0.60   -29600.00
03387               4.40   -30400.00
03388               2.00   -29600.00
03389               1.20   -31200.00
03390               4.40   -30400.00
03391              -0.20   -31200.00
03392               1.40   -32000.00
03393               3.80   -32000.00
03394               1.80   -32000.00
03395               3.00   -32000.00
03396               2.60   -32000.00
03397               1.80   -32800.00
03398               2.00   -32000.00
03399               3.00   -32000.00
03400               2.60   -32800.00
03401               2.00   -32800.00
03402               3.60   -32800.00
03403               2.20   -32800.00
03404               3.60   -32800.00
03405               2.00   -32800.00
03406               1.40   -32800.00
03407               4.20   -32800.00
03408               2.60   -32800.00
03409               3.00   -32800.00
03410               3.00   -32800.00
03411               1.40   -32800.00
03412               3.00   -32800.00
03413               3.60   -32800.00
03414               2.60   -32000.00
03415               2.60   -32800.00
03416               3.00   -32000.00
03417               2.20   -32800.00
03418               2.20   -32000.00
03419               3.00   -32000.00
03420               2.20   -32000.00
03421               2.20   -32000.00
03422               2.60   -32000.00
03423               2.00   -31200.00
03424               2.20   -31200.00
03425               2.60   -31200.00
03426               2.20   -30400.00
03427               2.60   -30400.00
03428               2.20   -30400.00
03429               2.00   -29600.00
03430               1.80   -30400.00
03431               1.60   -28800.00
03432               1.80   -28800.00
03433               1.80   -28800.00
03434               1.40   -28800.00
03435               1.80   -28000.00
03436               1.40   -27200.00
03437               2.00   -27200.00
03438               1.40   -27200.00
03439               2.00   -27200.00
03440               1.80   -27200.00
03441               1.80   -26400.00
03442               1.20   -26400.00
03443               1.20   -25600.00
03444               1.80   -25600.00
03445               1.80   -24800.00
03446               1.20   -24000.00
03447               1.80   -24000.00
03448               1.00   -24000.00
03449               1.00   -23200.00
03450               1.40   -22400.00
03451               1.20   -22400.00
03452               1.20   -22400.00
03453               1.20   -21600.00
03454               1.20   -20800.00
03455               1.20   -20000.00
03456               1.00   -19200.00
03457               1.00   -20000.00
03458               1.00   -18400.00
03459               1.20   -17600.00
03460               0.60   -17600.00
03461               0.60   -17600.00
03462               0.60   -16000.00
03463               0.60   -16000.00
03464               0.60   -16000.00
03465               0.80   -15200.00
03466               1.00   -14400.00
03467               1.00   -14400.00
03468               0.40   -13600.00
03469               0.40   -12800.00
03470               0.40   -12000.00
03471               0.60   -12000.00
03472               0.60   -11200.00
03473               0.40   -10400.00
03474               0.20   -10400.00
03475               0.20    -9600.00
03476               0.20    -9600.00
03477               0.40    -8000.00
03478              -0.20    -8000.00
03479               0.20    -7200.00
03480               0.40    -6400.00
03481              -0.20    -6400.00
03482               0.40    -6400.00
03483               0.40    -4800.00
03484              -0.20    -4000.00
03485               0.20    -3200.00
03486               0.20    -3200.00
03487              -0.20    -1600.00
03488               0.00    -1600.00
03489              -0.60     -800.00
03490              -0.20        0.00
03491               0.20        0.00
03492               0.20      800.00
03493               1.00     1600.00
03494               4.20     2400.00
03495              -2.60     2400.00
03496              -0.80     3200.00
03497               2.20     3200.00
03498              -0.60     4000.00
03499               0.40     4800.00
03500              16.20     5600.00
03501              25.00     7200.00
03502             -25.00     8000.00
03503             -25.00     8000.00
03504              25.00     8800.00
03505             -13.20     8000.00
03506             -25.00     9600.00
03507              25.00     9600.00
03508             -25.00    10400.00
03509             -13.40    11200.00
03510              25.00    12000.00
03511             -25.00    12000.00
03512              25.00    12800.00
03513               2.60    12800.00
03514             -25.00    14400.00
03515              25.00    14400.00
03516             -25.00    15200.00
03517              18.00    15200.00
03518              25.00    16000.00
03519             -25.00    16000.00
03520              25.00    17600.00
03521              25.00    17600.00
03522             -25.00    17600.00
03523              -9.40    18400.00
03524              25.00    19200.00
03525             -25.00    20800.00
03526              -5.20    20800.00
03527              25.00    21600.00
03528             -25.00    21600.00
03529              16.00    21600.00
03530              -1.40    22400.00
03531             -16.20    22400.00
03532              13.00    23200.00
03533              -4.40    24000.00
03534              -9.40    24000.00
03535              14.60    24800.00
03536              -4.20    24800.00
03537             -18.20    25600.00
03538              21.40    25600.00
03539             -14.00    25600.00
03540              -8.60    26400.00
03541              14.20    27200.00
03542              -9.40    27200.00
03543              -6.60    28000.00
03544               6.40    28000.00
03545              -3.00    28000.00
03546              -9.00    28800.00
03547               6.80    28800.00
03548              -4.60    28800.00
03549              -7.00    28800.00
03550               3.80    30400.00
03551              -5.40    30400.00
03552              -3.60    30400.00
03553               2.60    30400.00
03554              -6.20    31200.00
03555              -1.40    31200.00
03556              -0.60    31200.00
03557              -7.00    32800.00
03558              -0.60    32000.00
03559              -2.60    31200.00
03560              -4.40    32000.00
03561              -0.60    32800.00
03562              -2.20    32800.00
03563              -4.40    32800.00
03564              -3.00    32800.00
03565              -1.80    32800.00
03566              -4.40    33600.00
03567              -2.80    33600.00
03568              -2.00    33600.00
03569              -5.20    32800.00
03570              -1.60    33600.00
03571              -3.60    33600.00
03572              -3.80    33600.00
03573              -2.20    33600.00
03574              -4.40    33600.00
03575              -1.80    33600.00
03576              -3.60    33600.00
03577              -4.20    33600.00
03578              -2.40    33600.00
03579              -3.40    32800.00
03580              -3.00    33600.00
03581              -3.80    33600.00
03582              -3.00    33600.00
03583              -3.40    32800.00
03584              -3.40    33600.00
03585              -2.80    32800.00
03586              -3.60    32800.00
03587              -3.00    32000.00
03588              -2.60    32800.00
03589              -2.80    32800.00
03590              -2.80    32000.00
03591              -3.40    32000.00
03592              -2.60    31200.00
03593              -1.80    31200.00
03594              -3.60    31200.00
03595              -3.60    30400.00
03596              -2.00    30400.00
03597              -2.00    30400.00
03598              -3.00    29600.00
03599              -2.60    29600.00
03600              -2.80    28800.00
03601              -3.60    29600.00
03602              -1.80    28800.00
03603              -2.00    28000.00
03604              -3.40    28000.00
03605              -1.60    28000.00
03606              -2.20    27200.00
03607              -2.80    27200.00
03608              -1.80    27200.00
03609              -2.80    26400.00
03610              -2.60    25600.00
03611              -1.20    25600.00
03612              -1.40    25600.00
03613              -3.40    24800.00
03614              -2.80    24800.00
03615              -1.40    24000.00
03616              -2.20    23200.00
03617              -1.20    22400.00
03618              -1.80    22400.00
03619              -2.80    21600.00
03620              -1.40    21600.00
03621              -2.00    21600.00
03622              -2.60    20800.00
03623              -1.80    20000.00
03624              -1.40    19200.00
03625              -1.60    19200.00
03626              -1.60    18400.00
03627              -1.40    17600.00
03628              -1.40    17600.00
03629              -1.40    17600.00
03630              -1.20    16800.00
03631              -1.40    16000.00
03632              -1.20    15200.00
03633              -1.80    14400.00
03634              -2.00    14400.00
03635              -1.20    14400.00
03636              -1.80    12800.00
03637              -1.80    12800.00
03638              -0.40    12000.00
03639              -1.40    11200.00
03640              -1.40    11200.00
03641              -1.00     9600.00
03642              -0.80     9600.00
03643              -1.40     9600.00
03644              -1.20     8800.00
03645              -1.20     8000.00
03646              -1.20     7200.00
03647              -1.20     7200.00
03648              -0.60     6400.00
03649              -1.00     5600.00
03650              -1.20     4800.00
03651              -1.20     4800.00
03652              -0.60     4000.00
03653              -0.60     3200.00
03654              -0.60     2400.00
03655              -1.20     2400.00
03656              -0.40     1600.00
03657              -0.60        0.00
03658              -0.60        0.00
03659               0.40        0.00
03660               1.80     -800.00
03661               1.80    -1600.00
03662              -2.20    -1600.00
03663               0.40    -2400.00
03664               1.00    -3200.00
03665              -0.40    -3200.00
03666               0.40    -4800.00
03667              10.00    -5600.00
03668              25.00    -6400.00
03669             -15.20    -7200.00
03670             -25.00    -8000.00
03671              15.00    -8000.00
03672              18.00    -8800.00
03673             -25.00    -8000.00
03674               6.00    -9600.00
03675              25.00   -10400.00
03676             -25.00   -10400.00
03677               5.80   -11200.00
03678              25.00   -11200.00
03679             -25.00   -12800.00
03680              21.20   -12800.00
03681               5.60   -13600.00
03682              -7.60   -14400.00
03683              23.40   -14400.00
03684             -25.00   -14400.00
03685              25.00   -16000.00
03686              14.80   -16000.00
03687             -25.00   -16800.00
03688              25.00   -16800.00
03689              19.40   -17600.00
03690             -25.00   -18400.00
03691               5.40   -18400.00
03692              25.00   -19200.00
03693             -25.00   -20000.00
03694              10.60   -20000.00
03695              24.40   -20800.00
03696             -23.80   -20800.00
03697               9.40   -22400.00
03698               3.80   -22400.00
03699              -8.40   -23200.00
03700               4.40   -23200.00
03701               3.40   -24000.00
03702              -3.60   -24000.00
03703              10.00   -24000.00
03704              -3.80   -25600.00
03705              -4.20   -25600.00
03706              13.40   -25600.00
03707              -9.40   -26400.00
03708               1.40   -26400.00
03709              10.20   -26400.00
03710              -5.00   -27200.00
03711              -1.00   -27200.00
03712               7.60   -27200.00
03713              -1.40   -28000.00
03714              -1.80   -28800.00
03715               7.60   -28800.00
03716              -1.40   -28800.00
03717              -0.60   -29600.00
03718               5.20   -29600.00
03719              -0.40   -29600.00
03720               1.80   -29600.00
03721               4.40   -30400.00
03722              -0.40   -30400.00
03723               2.80   -30400.00
03724               2.80   -31200.00
03725              -0.40   -31200.00
03726               3.40   -32000.00
03727               2.60   -32000.00
03728               1.80   -32800.00
03729               3.00   -32800.00
03730               2.60   -32000.00
03731               1.20   -32000.00
03732               2.00   -32000.00
03733               3.80   -32800.00
03734               1.60   -32800.00
03735               2.20   -32000.00
03736               3.60   -32800.00
03737               2.80   -32800.00
03738               1.80   -32800.00
03739               1.80   -32800.00
03740               4.20   -32800.00
03741               2.00   -32800.00
03742               0.60   -32000.00
03743               5.00   -32800.00
03744               2.60   -32800.00
03745               1.00   -32800.00
03746               4.40   -32800.00
03747               3.00   -32800.00
03748               1.00   -32000.00
03749               2.80   -32000.00
03750               3.80   -32000.00
03751               1.20   -32800.00
03752               2.40   -32000.00
03753               4.20   -32000.00
03754               1.80   -32000.00
03755               2.00   -32000.00
03756               3.00   -32000.00
03757               2.20   -31200.00
03758               1.20   -30400.00
03759               2.20   -30400.00
03760               3.60   -30400.00
03761               2.00   -30400.00
03762               2.00   -29600.00
03763               3.40   -29600.00
03764               2.00   -29600.00
03765               1.40   -29600.00
03766               2.60   -28800.00
03767               1.80   -28800.00
03768               1.20   -28800.00
03769               2.60   -28800.00
03770               2.00   -28000.00
03771               1.40   -27200.00
03772               1.80   -27200.00
03773               1.80   -26400.00
03774               1.80   -27200.00
03775               1.60   -25600.00
03776               1.20   -25600.00
03777               1.80   -25600.00
03778               1.80   -24800.00
03779               1.20   -25600.00
03780               1.60   -24800.00
03781               1.60   -24000.00
03782               1.00   -24000.00
03783               1.40   -23200.00
03784               1.20   -23200.00
03785               0.60   -22400.00
03786               1.40   -21600.00
03787               1.40   -20800.00
03788               1.20   -20000.00
03789               1.00   -20000.00
03790               1.00   -18400.00
03791               1.00   -18400.00
03792               1.00   -18400.00
03793               1.20   -18400.00
03794               0.40   -17600.00
03795               0.60   -16800.00
03796               1.00   -16800.00
03797               0.40   -16000.00
03798               0.80   -16000.00
03799               0.80   -14400.00
03800               0.60   -14400.00
03801               0.40   -13600.00
03802               0.40   -13600.00
03803               0.40   -12800.00
03804               0.20   -12000.00
03805               0.60   -12000.00
03806               1.00   -11200.00
03807              -0.20   -10400.00
03808               0.60   -10400.00
03809               0.40    -9600.00
03810              -0.20    -8000.00
03811               0.40    -8000.00
03812               0.20    -8000.00
03813              -0.20    -7200.00
03814               0.20    -6400.00
03815               0.20    -5600.00
03816               0.20    -4800.00
03817               0.20    -4000.00
03818              -0.20    -4000.00
03819               0.20    -3200.00
03820               0.20    -3200.00
03821              -0.60    -1600.00
03822              -0.20    -1600.00
03823              -0.20     -800.00
03824              -0.40        0.00
03825               0.40        0.00
03826               1.00     1600.00
03827               2.60     1600.00
03828               2.00     2400.00
03829              -2.00     2400.00
03830               0.40     3200.00
03831               1.40     3200.00
03832              -1.20     4000.00
03833               5.40     5600.00
03834              25.00     6400.00
03835               2.60     7200.00
03836             -25.00     8000.00
03837               6.00     8000.00
03838              24.20     8000.00
03839             -25.00     8000.00
03840              25.00     9600.00
03841              25.00     9600.00
03842             -25.00    10400.00
03843              25.00    12000.00
03844               7.60    12000.00
03845             -25.00    12000.00
03846              25.00    12800.00
03847             -25.00    12800.00
03848              25.00    14400.00
03849              25.00    14400.00
03850             -25.00    15200.00
03851              25.00    16000.00
03852             -17.60    16000.00
03853             -25.00    16800.00
03854              25.00    16800.00
03855              -4.60    18400.00
03856             -25.00    18400.00
03857              25.00    19200.00
03858              17.40    19200.00
03859             -25.00    19200.00
03860              25.00    20800.00
03861               1.00    21600.00
03862             -21.00    21600.00
03863              24.20    22400.00
03864             -21.00    22400.00
03865               0.40    22400.00
03866               6.80    23200.00
03867             -10.60    24000.00
03868               0.40    24000.00
03869              15.20    24800.00
03870             -20.60    25600.00
03871               2.60    25600.00
03872              11.80    25600.00
03873             -23.40    26400.00
03874               9.20    26400.00
03875               4.40    27200.00
03876             -11.60    28000.00
03877               0.60    27200.00
03878               4.40    28000.00
03879             -10.20    28800.00
03880              -1.40    28800.00
03881               5.40    28800.00
03882              -9.40    28800.00
03883              -0.60    29600.00
03884               0.60    30400.00
03885              -7.60    30400.00
03886               1.40    30400.00
03887              -1.20    30400.00
03888              -6.00    31200.00
03889               1.80    31200.00
03890              -4.60    31200.00
03891              -4.40    32000.00
03892               0.60    32800.00
03893              -4.80    32000.00
03894              -2.80    32800.00
03895              -0.40    33600.00
03896              -3.80    32800.00
03897              -4.40    33600.00
03898              -2.00    32800.00
03899              -2.80    33600.00
03900              -4.40    32800.00
03901              -1.20    33600.00
03902              -3.80    33600.00
03903              -3.80    33600.00
03904              -1.80    33600.00
03905              -5.00    33600.00
03906              -2.60    33600.00
03907              -3.60    33600.00
03908              -3.60    33600.00
03909              -1.40    33600.00
03910              -4.20    33600.00
03911              -3.60    33600.00
03912              -2.80    33600.00
03913              -3.00    33600.00
03914              -3.80    33600.00
03915              -3.80    33600.00
03916              -2.80    33600.00
03917              -3.80    32800.00
03918              -2.80    32800.00
03919              -2.80    32000.00
03920              -3.60    32800.00
03921              -2.60    32000.00
03922              -2.80    32800.00
03923              -3.00    32000.00
03924              -2.80    32800.00
03925              -3.40    32000.00
03926              -2.60    31200.00
03927              -2.80    30400.00
03928              -3.00    31200.00
03929              -2.80    31200.00
03930              -2.80    30400.00
03931              -2.60    30400.00
03932              -2.80    30400.00
03933              -2.80    29600.00
03934              -2.60    29600.00
03935              -2.80    28800.00
03936              -2.00    28800.00
03937              -2.60    28800.00
03938              -2.80    28000.00
03939              -2.20    28000.00
03940              -2.60    27200.00
03941              -2.00    27200.00
03942              -2.60    26400.00
03943              -2.40    25600.00
03944              -2.00    25600.00
03945              -2.20    24800.00
03946              -1.80    25600.00
03947              -2.20    24000.00
03948              -2.20    24000.00
03949              -1.80    24000.00
03950              -2.20    24000.00
03951              -2.00    23200.00
03952              -2.20    22400.00
03953              -2.00    22400.00
03954              -1.60    21600.00
03955              -2.00    21600.00
03956              -2.00    20800.00
03957              -2.00    20000.00
03958              -1.60    19200.00
03959              -1.40    18400.00
03960              -2.00    18400.00
03961              -1.40    17600.00
03962              -1.40    17600.00
03963              -1.20    16800.00
03964              -1.40    16000.00
03965              -1.40    15200.00
03966              -1.20    16000.00
03967              -1.40    14400.00
03968              -1.40    14400.00
03969              -0.60    13600.00
03970              -2.00    12800.00
03971              -1.20    12000.00
03972              -0.60    12000.00
03973              -2.00    12000.00
03974              -1.40    11200.00
03975              -0.60     9600.00
03976              -1.00     9600.00
03977              -1.40     8800.00
03978              -0.60     8000.00
03979              -1.20     8000.00
03980              -1.00     7200.00
03981              -1.00     6400.00
03982              -1.00     5600.00
03983              -1.00     4800.00
03984              -1.00     4800.00
03985              -1.20     4800.00
03986              -0.40     3200.00
03987              -0.60     3200.00
03988              -1.60     2400.00
03989              -0.60     1600.00
03990              -0.60     1600.00
03991              -1.00        0.00
03992               0.00        0.00
03993               0.40     -800.00
03994               3.40     -800.00
03995              -1.00    -1600.00
03996              -1.60    -2400.00
03997               1.00    -3200.00
03998               0.40    -3200.00
03999              -1.20    -4000.00
04000               3.60    -4000.00
04001              18.00    -5600.00
04002              20.20    -7200.00
04003             -25.00    -7200.00
04004             -20.80    -8000.00
04005              25.00    -8000.00
04006             -11.60    -8800.00
04007             -25.00    -8800.00
04008              25.00    -9600.00
04009              23.40   -10400.00
04010             -25.00   -10400.00
04011              25.00   -12000.00
04012               2.60   -12000.00
04013             -25.00   -12800.00
04014              25.00   -12800.00
04015             -25.00   -13600.00
04016              22.80   -14400.00
04017             -11.00   -14400.00
04018             -20.80   -15200.00
04019              25.00   -16000.00
04020             -25.00   -16000.00
04021             -15.60   -16800.00
04022              25.00   -17600.00
04023             -11.00   -18400.00
04024             -25.00   -18400.00
04025              25.00   -19200.00
04026              -0.80   -20000.00
04027             -25.00   -20000.00
04028              25.00   -20000.00
04029              -3.80   -21600.00
04030             -13.00   -21600.00
04031              15.20   -22400.00
04032              -6.60   -22400.00
04033              -2.60   -22400.00
04034               6.60   -24000.00
04035              -2.00   -24000.00
04036               2.00   -24000.00
04037               8.20   -24800.00
04038             -10.80   -25600.00
04039               8.40   -25600.00
04040               4.20   -25600.00
04041             -10.80   -26400.00
04042              10.60   -27200.00
04043               2.60   -27200.00
04044              -5.60   -27200.00
04045               4.60   -27200.00
04046               5.20   -28000.00
04047              -4.60   -28800.00
04048               3.40   -28800.00
04049               5.40   -28800.00
04050              -3.80   -28800.00
04051               3.60   -29600.00
04052               3.40   -28800.00
04053              -0.60   -29600.00
04054               3.80   -30400.00
04055               2.60   -30400.00
04056               0.20   -30400.00
04057               4.00   -31200.00
04058               0.80   -31200.00
04059               1.00   -31200.00
04060               3.40   -31200.00
04061               1.20   -32000.00
04062               2.40   -32000.00
04063               2.60   -32000.00
04064               1.80   -32000.00
04065               1.40   -32000.00
04066               2.80   -32000.00
04067               2.60   -32800.00
04068               2.00   -32000.00
04069               3.40   -32800.00
04070               2.00   -32800.00
04071               2.60   -32800.00
04072               2.60   -32800.00
04073               1.80   -32800.00
04074               3.60   -32800.00
04075               2.20   -32800.00
04076               2.60   -33600.00
04077               3.40   -32800.00
04078               1.80   -32800.00
04079               2.80   -32800.00
04080               2.80   -32800.00
04081               2.60   -32800.00
04082               2.40   -32800.00
04083               2.60   -32800.00
04084               2.80   -32000.00
04085               2.60   -32000.00
04086               2.60   -32000.00
04087               2.60   -32000.00
04088               2.60   -32000.00
04089               2.60   -32000.00
04090               2.20   -31200.00
04091               2.60   -32000.00
04092               2.00   -30400.00
04093               2.00   -31200.00
04094               3.00   -30400.00
04095               1.80   -30400.00
04096               2.20   -30400.00
04097               2.20   -29600.00
04098               1.80   -29600.00
04099               2.00   -28800.00
04100               2.20   -28800.00
04101               1.40   -28800.00
04102               2.00   -28800.00
04103               1.80   -28000.00
04104               2.00   -27200.00
04105               1.80   -27200.00
04106               2.00   -27200.00
04107               1.40   -26400.00
04108               1.80   -26400.00
04109               1.40   -26400.00
04110               1.40   -25600.00
04111               2.00   -25600.00
04112               1.60   -24800.00
04113               1.40   -24000.00
04114               1.40   -24000.00
04115               1.20   -24000.00
04116               1.20   -23200.00
04117               1.20   -22400.00
04118               1.20   -22400.00
04119               1.20   -22400.00
04120               1.00   -21600.00
04121               1.20   -20800.00
04122               1.00   -20800.00
04123               0.40   -20000.00
04124               1.20   -19200.00
04125               0.60   -18400.00
04126               1.00   -18400.00
04127               1.00   -17600.00
04128               0.40   -17600.00
04129               0.60   -16800.00
04130               0.60   -16000.00
04131               0.40   -16000.00
04132               0.80   -15200.00
04133               0.20   -14400.00
04134               0.60   -14400.00
04135               0.60   -13600.00
04136               0.40   -12800.00
04137               0.40   -12800.00
04138               0.40   -11200.00
04139               0.60   -11200.00
04140               0.20   -11200.00
04141               0.20   -10400.00
04142               0.20    -9600.00
04143              -0.40    -9600.00
04144               0.60    -8800.00
04145               0.40    -7200.00
04146              -0.20    -7200.00
04147               0.60    -7200.00
04148               0.20    -5600.00
04149               0.20    -6400.00
04150               0.40    -4000.00
04151               0.20    -4000.00
04152               0.20    -3200.00
04153               0.20    -3200.00
04154              -0.20    -2400.00
04155               0.20    -1600.00
04156              -0.40     -800.00
04157              -0.40     -800.00
04158               0.40        0.00
04159               0.40      800.00
04160               1.00     1600.00
04161               4.20     1600.00
04162              -1.00     2400.00
04163              -1.00     2400.00
04164               1.80     3200.00
04165               0.20     3200.00
04166              -0.20     4800.00
04167              13.40     5600.00
04168              25.00     7200.00
04169             -25.00     8000.00
04170             -25.00     8000.00
04171              25.00     8000.00
04172              -4.60     8800.00
04173             -25.00     8800.00
04174              25.00     9600.00
04175             -25.00    10400.00
04176             -25.00    11200.00
04177              25.00    11200.00
04178             -25.00    11200.00
04179              25.00    12800.00
04180              20.20    12800.00
04181             -25.00    13600.00
04182              25.00    14400.00
04183             -25.00    15200.00
04184              -3.80    16000.00
04185              25.00    15200.00
04186             -25.00    16000.00
04187              18.00    16800.00
04188              25.00    17600.00
04189             -25.00    17600.00
04190             -17.40    19200.00
04191              25.00    19200.00
04192             -25.00    20000.00
04193             -16.20    20000.00
04194              25.00    20800.00
04195             -25.00    21600.00
04196               9.60    22400.00
04197               4.60    22400.00
04198             -18.80    22400.00
04199              12.00    23200.00
04200              -2.20    24000.00
04201             -10.80    24000.00
04202              11.80    24800.00
04203               0.40    24800.00
04204             -20.60    24800.00
04205              19.60    25600.00
04206              -9.20    25600.00
04207             -12.60    27200.00
04208              14.60    27200.00
04209              -7.40    27200.00
04210              -7.40    27200.00
04211               5.40    28000.00
04212              -1.20    28000.00
04213             -10.20    28000.00
04214               5.80    28800.00
04215              -2.60    28800.00
04216              -8.20    30400.00
04217               3.60    29600.00
04218              -4.20    30400.00
04219              -4.40    29600.00
04220               3.00    31200.00
04221              -5.80    31200.00
04222              -2.40    30400.00
04223               0.60    31200.00
04224              -7.00    32000.00
04225              -0.80    32000.00
04226              -1.40    32000.00
04227              -4.60    32800.00
04228              -1.00    32800.00
04229              -1.20    32800.00
04230              -4.60    32800.00
04231              -3.60    32800.00
04232              -1.40    32000.00
04233              -4.40    33600.00
04234              -3.40    32800.00
04235              -1.40    32800.00
04236              -5.00    33600.00
04237              -2.00    33600.00
04238              -3.00    33600.00
04239              -4.20    33600.00
04240              -2.20    32800.00
04241              -4.40    33600.00
04242              -2.00    33600.00
04243              -3.00    33600.00
04244              -4.40    33600.00
04245              -2.60    33600.00
04246              -3.40    33600.00
04247              -3.20    33600.00
04248              -4.00    32800.00
04249              -3.40    33600.00
04250              -3.40    32800.00
04251              -3.80    33600.00
04252              -2.60    32800.00
04253              -3.80    32000.00
04254              -3.40    32800.00
04255              -2.60    32800.00
04256              -3.00    32000.00
04257              -2.80    32000.00
04258              -3.40    31200.00
04259              -2.80    31200.00
04260              -2.20    31200.00
04261              -3.00    31200.00
04262              -2.80    31200.00
04263              -3.00    30400.00
04264              -2.80    30400.00
04265              -2.60    30400.00
04266              -2.80    29600.00
04267              -2.60    28800.00
04268              -2.80    28800.00
04269              -2.40    28800.00
04270              -2.00    28800.00
04271              -2.80    28000.00
04272              -2.20    28000.00
04273              -2.60    28000.00
04274              -2.20    27200.00
04275              -2.20    27200.00
04276              -3.00    26400.00
04277              -2.00    25600.00
04278              -2.00    25600.00
04279              -2.20    24800.00
04280              -2.00    24800.00
04281              -2.60    24000.00
04282              -1.40    24000.00
04283              -1.80    24000.00
04284              -2.20    23200.00
04285              -1.20    22400.00
04286              -2.20    22400.00
04287              -1.80    21600.00
04288              -1.60    20800.00
04289              -2.20    21600.00
04290              -1.80    20000.00
04291              -1.80    19200.00
04292              -1.00    19200.00
04293              -1.60    18400.00
04294              -1.80    18400.00
04295              -1.40    17600.00
04296              -1.60    17600.00
04297              -1.00    16800.00
04298              -1.80    16000.00
04299              -1.20    15200.00
04300              -1.40    15200.00
04301              -1.80    14400.00
04302              -0.80    14400.00
04303              -1.40    12800.00
04304              -2.00    12800.00
04305              -0.60    12000.00
04306              -1.20    12000.00
04307              -1.20    11200.00
04308              -1.20    10400.00
04309              -1.20     9600.00
04310              -1.60     8800.00
04311              -0.80     8800.00
04312              -1.00     8000.00
04313              -0.80     8000.00
04314              -1.20     6400.00
04315              -1.00     6400.00
04316              -1.00     5600.00
04317              -0.60     4800.00
04318              -1.20     4800.00
04319              -1.00     4000.00
04320              -0.60     3200.00
04321              -1.20     2400.00
04322              -1.00     1600.00
04323              -0.80     1600.00
04324              -0.60     1600.00
04325              -0.20        0.00
04326              -0.20     -800.00
04327               1.40     -800.00
04328               2.20    -1600.00
04329              -2.20    -2400.00
04330               0.00    -3200.00
04331               1.20    -3200.00
04332              -0.20    -3200.00
04333              -0.20    -4000.00
04334               8.40    -4800.00
04335              25.00    -5600.00
04336              -7.60    -7200.00
04337             -25.00    -8000.00
04338               9.40    -8000.00
04339              22.60    -8800.00
04340             -25.00    -8800.00
04341              -5.20    -9600.00
04342              25.00   -10400.00
04343             -25.00   -10400.00
04344             -12.60   -11200.00
04345              25.00   -11200.00
04346             -25.00   -12000.00
04347              10.80   -12800.00
04348              14.60   -13600.00
04349             -14.20   -13600.00
04350              25.00   -14400.00
04351             -25.00   -14400.00
04352              22.80   -16000.00
04353              24.40   -16000.00
04354             -25.00   -16800.00
04355              19.80   -16800.00
04356              25.00   -17600.00
04357             -25.00   -18400.00
04358              -1.80   -18400.00
04359              25.00   -19200.00
04360             -25.00   -18400.00
04361               2.60   -20000.00
04362              25.00   -20800.00
04363             -23.00   -20800.00
04364               6.00   -21600.00
04365               7.20   -22400.00
04366              -9.00   -22400.00
04367               3.40   -23200.00
04368               4.60   -24000.00
04369              -4.40   -24000.00
04370               9.00   -24000.00
04371              -1.60   -24800.00
04372              -6.60   -25600.00
04373              13.80   -25600.00
04374              -7.80   -25600.00
04375              -1.20   -26400.00
04376              11.60   -27200.00
04377              -4.20   -27200.00
04378              -2.20   -27200.00
04379               7.80   -28000.00
04380              -0.20   -28800.00
04381              -2.80   -28800.00
04382               7.60   -28800.00
04383              -0.60   -29600.00
04384              -1.80   -29600.00
04385               5.20   -29600.00
04386              -0.20   -30400.00
04387               1.00   -30400.00
04388               5.00   -30400.00
04389              -0.20   -30400.00
04390               2.20   -30400.00
04391               3.40   -32000.00
04392              -0.40   -31200.00
04393               2.80   -32000.00
04394               2.60   -32000.00
04395               1.20   -32000.00
04396               3.20   -32000.00
04397               2.20   -32000.00
04398               1.00   -32800.00
04399               2.20   -32800.00
04400               3.40   -32800.00
04401               1.40   -32800.00
04402               2.60   -32800.00
04403               3.00   -32800.00
04404               1.80   -32000.00
04405               3.00   -32800.00
04406               2.00   -32800.00
04407               2.60   -33600.00
04408               3.40   -32800.00
04409               2.00   -32800.00
04410               3.60   -32800.00
04411               2.20   -32800.00
04412               2.40   -32800.00
04413               3.20   -32800.00
04414               2.80   -32000.00
04415               2.80   -32800.00
04416               2.60   -32800.00
04417               2.60   -32800.00
04418               2.60   -32000.00
04419               2.60   -32000.00
04420               2.60   -32000.00
04421               2.40   -32000.00
04422               2.60   -31200.00
04423               2.60   -32000.00
04424               2.60   -32000.00
04425               2.60   -32000.00
04426               2.20   -31200.00
04427               2.60   -30400.00
04428               2.40   -30400.00
04429               1.80   -29600.00
04430               2.60   -29600.00
04431               2.00   -29600.00
04432               1.60   -29600.00
04433               2.60   -28800.00
04434               1.80   -28800.00
04435               1.80   -28800.00
04436               2.00   -28800.00
04437               1.80   -28000.00
04438               1.20   -27200.00
04439               1.80   -27200.00
04440               2.00   -27200.00
04441               1.40   -27200.00
04442               2.00   -25600.00
04443               1.60   -26400.00
04444               1.00   -25600.00
04445               2.00   -25600.00
04446               1.40   -24000.00
04447               1.20   -24000.00
04448               1.40   -24000.00
04449               0.80   -23200.00
04450               1.00   -23200.00
04451               1.20   -22400.00
04452               1.00   -22400.00
04453               1.20   -22400.00
04454               1.40   -21600.00
04455               1.20   -20800.00
04456               1.00   -20000.00
04457               0.40   -20000.00
04458               0.80   -18400.00
04459               1.00   -18400.00
04460               1.00   -17600.00
04461               0.60   -17600.00
04462               0.80   -17600.00
04463               0.40   -16800.00
04464               0.60   -16000.00
04465               0.60   -16000.00
04466               0.40   -15200.00
04467               0.40   -14400.00
04468               0.40   -14400.00
04469               0.20   -13600.00
04470               0.60   -12800.00
04471               0.40   -12800.00
04472               0.60   -11200.00
04473               0.40   -11200.00
04474               0.40   -10400.00
04475               0.60    -9600.00
04476              -0.20    -8800.00
04477               0.20    -8800.00
04478               1.00    -8000.00
04479              -0.20    -8000.00
04480               0.40    -7200.00
04481               0.40    -6400.00
04482              -0.20    -5600.00
04483               0.60    -5600.00
04484               0.20    -4000.00
04485              -0.20    -4000.00
04486               0.40    -3200.00
04487               0.20    -3200.00
04488              -0.20    -1600.00
04489               0.20     -800.00
04490              -0.20     -800.00
04491               0.20        0.00
04492               0.60        0.00
04493               0.40     1600.00
04494               2.40     1600.00
04495               2.60     2400.00
04496              -2.40     2400.00
04497               0.60     3200.00
04498               1.80     3200.00
04499              -1.00     4000.00
04500               4.20     4800.00
04501              25.00     6400.00
04502              11.20     7200.00
04503             -25.00     8000.00
04504              -1.20     8000.00
04505              25.00     8000.00
04506             -25.00     8800.00
04507              13.80     9600.00
04508              25.00     9600.00
04509             -25.00    10400.00
04510              25.00    11200.00
04511              25.00    11200.00
04512             -25.00    12000.00
04513              25.00    12800.00
04514             -25.00    13600.00
04515              25.00    14400.00
04516              25.00    14400.00
04517             -25.00    15200.00
04518              25.00    16000.00
04519               1.80    16000.00
04520             -25.00    16800.00
04521              25.00    17600.00
04522               4.20    17600.00
04523             -25.00    18400.00
04524              19.20    19200.00
04525              25.00    19200.00
04526             -25.00    19200.00
04527              25.00    20800.00
04528              11.00    20800.00
04529             -25.00    21600.00
04530              25.00    22400.00
04531             -18.20    22400.00
04532              -3.60    22400.00
04533               8.40    24000.00
04534              -9.40    24000.00
04535              -2.00    24000.00
04536              16.20    24800.00
04537             -18.00    24800.00
04538              -2.60    25600.00
04539              15.40    25600.00
04540             -23.00    26400.00
04541               6.20    27200.00
04542               7.40    27200.00
04543             -12.20    27200.00
04544              -0.60    28000.00
04545               5.20    28000.00
04546              -9.00    28800.00
04547              -3.40    28800.00
04548               6.40    28800.00
04549              -8.60    28800.00
04550              -2.20    30400.00
04551               2.00    29600.00
04552              -7.40    30400.00
04553               0.60    30400.00
04554               0.20    30400.00
04555              -6.60    31200.00
04556               1.20    31200.00
04557              -3.60    31200.00
04558              -5.40    32000.00
04559               0.20    32800.00
04560              -4.20    32000.00
04561              -3.00    32800.00
04562              -0.40    32800.00
04563              -3.00    32800.00
04564              -4.40    32800.00
04565              -2.20    32800.00
04566              -2.20    32800.00
04567              -4.40    33600.00
04568              -1.40    33600.00
04569              -3.60    33600.00
04570              -3.80    32800.00
04571              -1.40    33600.00
04572              -5.20    33600.00
04573              -2.20    33600.00
04574              -3.00    33600.00
04575              -4.20    33600.00
04576              -1.40    33600.00
04577              -4.00    32800.00
04578              -3.60    33600.00
04579              -3.00    32000.00
04580              -3.00    33600.00
04581              -3.40    33600.00
04582              -4.40    33600.00
04583              -3.00    32800.00
04584              -3.40    32800.00
04585              -3.40    32800.00
04586              -3.00    32800.00
04587              -3.40    32000.00
04588              -3.00    32800.00
04589              -3.60    32800.00
04590              -2.80    32000.00
04591              -3.00    31200.00
04592              -3.80    32000.00
04593              -2.00    32000.00
04594              -2.80    31200.00
04595              -3.40    31200.00
04596              -2.20    31200.00
04597              -3.60    30400.00
04598              -2.20    30400.00
04599              -2.80    30400.00
04600              -3.60    29600.00
04601              -2.60    29600.00
04602              -2.80    28800.00
04603              -2.20    28800.00
04604              -2.20    28800.00
04605              -2.20    28000.00
04606              -2.20    28000.00
04607              -2.20    27200.00
04608              -2.20    27200.00
04609              -2.60    26400.00
04610              -2.00    26400.00
04611              -2.20    25600.00
04612              -1.80    24800.00
04613              -1.40    25600.00
04614              -3.00    24800.00
04615              -2.00    24800.00
04616              -1.40    24000.00
04617              -2.20    24000.00
04618              -1.20    23200.00
04619              -1.60    22400.00
04620              -2.00    22400.00
04621              -1.40    21600.00
04622              -2.00    21600.00
04623              -2.00    20800.00
04624              -2.00    19200.00
04625              -1.20    19200.00
04626              -1.20    19200.00
04627              -1.80    18400.00
04628              -1.40    17600.00
04629              -1.40    17600.00
04630               0.20    16000.00
04631              -3.60    16000.00
04632              -3.60    16000.00
04633               4.20    15200.00
04634             -10.40    15200.00
04635               2.60    13600.00
04636              -1.40    14400.00
04637               2.60    12800.00
04638              -0.20    12800.00
04639              -4.40    12000.00
04640               4.20    11200.00
04641              -6.00    11200.00
04642              -2.60     9600.00
04643              -3.00     9600.00
04644              -0.40     8800.00
04645               1.00     8000.00
04646              -3.80     7200.00
04647               5.20     7200.00
04648              -5.20     7200.00
04649               1.40     5600.00
04650               0.60     4800.00
04651              -7.40     4800.00
04652               0.40     4000.00
04653              -1.60     3200.00
04654              -0.40     3200.00
04655              -1.80     2400.00
04656               0.40     1600.00
04657               2.00      800.00
04658              -1.20        0.00
04659               0.60     -800.00
04660              -3.00     -800.00
04661               3.40    -1600.00
04662              -2.20     -800.00
04663              -4.20    -2400.00
04664               2.80    -2400.00
04665               1.20    -3200.00
04666               0.20    -3200.00
04667               4.40    -4800.00
04668              16.20    -5600.00
04669              21.60    -7200.00
04670             -25.00    -7200.00
04671             -25.00    -8000.00
04672              25.00    -8000.00
04673              -3.60    -8800.00
04674             -25.00    -8000.00
04675              25.00    -9600.00
04676              25.00   -10400.00
04677             -25.00   -10400.00
04678              25.00   -11200.00
04679              19.60   -12000.00
04680             -25.00   -12000.00
04681              25.00   -12800.00
04682             -20.80   -13600.00
04683              16.80   -14400.00
04684               0.20   -14400.00
04685             -25.00   -15200.00
04686              25.00   -16000.00
04687             -19.80   -16800.00
04688             -23.00   -16800.00
04689              25.00   -17600.00
04690              -4.40   -17600.00
04691             -25.00   -18400.00
04692              25.00   -18400.00
04693               8.60   -20000.00
04694             -25.00   -20000.00
04695              25.00   -20000.00
04696               2.60   -20800.00
04697             -17.40   -21600.00
04698              15.60   -22400.00
04699              -5.20   -22400.00
04700              -4.60   -23200.00
04701               6.80   -24000.00
04702              -0.60   -23200.00
04703              -0.20   -24000.00
04704              11.00   -24000.00
04705             -10.20   -24800.00
04706               5.20   -25600.00
04707               6.80   -25600.00
04708             -12.40   -25600.00
04709               8.80   -27200.00
04710               3.80   -27200.00
04711              -5.80   -27200.00
04712               3.60   -27200.00
04713               5.80   -27200.00
04714              -3.80   -28800.00
04715               2.80   -28800.00
04716               6.40   -28800.00
04717              -4.20   -28800.00
04718               2.40   -29600.00
04719               3.40   -29600.00
04720              -2.00   -29600.00
04721               3.60   -30400.00
04722               3.40   -30400.00
04723              -0.40   -30400.00
04724               4.20   -32000.00
04725               1.40   -31200.00
04726               0.20   -32000.00
04727               3.40   -32000.00
04728               1.40   -32800.00
04729               2.00   -32000.00
04730               2.60   -32000.00
04731               2.20   -32000.00
04732               1.80   -32800.00
04733               3.40   -32800.00
04734               2.80   -32800.00
04735               1.80   -32800.00
04736               3.00   -32800.00
04737               2.00   -32800.00
04738               2.20   -32000.00
04739               3.00   -32800.00
04740               2.60   -32800.00
04741               3.60   -32800.00
04742               2.20   -32800.00
04743               2.20   -32800.00
04744               2.80   -32800.00
04745               2.00   -32800.00
04746               3.20   -32800.00
04747               3.40   -32800.00
04748               2.60   -32800.00
04749               2.60   -32800.00
04750               2.60   -32000.00
04751               3.00   -32800.00
04752               2.60   -32800.00
04753               2.80   -32800.00
04754               2.60   -32000.00
04755               1.80   -32000.00
04756               2.40   -32000.00
04757               2.00   -32000.00
04758               2.60   -31200.00
04759               2.80   -30400.00
04760               2.60   -31200.00
04761               2.60   -30400.00
04762               1.80   -30400.00
04763               2.00   -30400.00
04764               2.20   -30400.00
04765               1.80   -29600.00
04766               2.40   -29600.00
04767               2.20   -28800.00
04768               2.00   -28800.00
04769               1.80   -28000.00
04770               2.00   -28800.00
04771               1.40   -28000.00
04772               1.20   -27200.00
04773               1.40   -27200.00
04774               1.40   -27200.00
04775               1.40   -26400.00
04776               1.40   -26400.00
04777               1.40   -25600.00
04778               1.80   -25600.00
04779               1.60   -25600.00
04780               1.20   -24800.00
04781               1.40   -24000.00
04782               0.80   -24000.00
04783               1.20   -23200.00
04784               1.00   -23200.00
04785               0.80   -22400.00
04786               1.20   -22400.00
04787               0.80   -21600.00
04788               1.00   -20800.00
04789               1.20   -20800.00
04790               0.60   -20000.00
04791               0.80   -20000.00
04792               0.80   -18400.00
04793               1.20   -19200.00
04794               0.80   -17600.00
04795               0.40   -16800.00
04796               1.00   -16800.00
04797               0.40   -16800.00
04798               0.40   -16000.00
04799               0.60   -15200.00
04800               0.80   -14400.00
04801               0.60   -14400.00
04802               0.40   -14400.00
04803               1.00   -12800.00
04804               0.40   -12800.00
04805              -0.20   -12000.00
04806               1.00   -11200.00
04807               0.60   -11200.00
04808              -0.20   -10400.00
04809               1.00    -9600.00
04810               0.40    -8800.00
04811              -0.20    -8800.00
04812               0.80    -8000.00
04813               0.40    -7200.00
04814               0.20    -6400.00
04815               0.40    -6400.00
04816               0.40    -5600.00
04817               0.60    -4800.00
04818               0.20    -4000.00
04819              -0.40    -4000.00
04820               1.00    -3200.00
04821              -0.20    -2400.00
04822              -0.60    -1600.00
04823               0.60    -1600.00
04824               0.20     -800.00
04825              -0.60        0.00
04826               1.40      800.00
04827               1.00     1600.00
04828               2.80     1600.00
04829               0.20     2400.00
04830              -1.40     2400.00
04831               1.00     3200.00
04832               1.00     3200.00
04833              -0.20     4800.00
04834              11.20     4800.00
04835              25.00     7200.00
04836             -25.00     7200.00
04837             -25.00     8000.00
04838              25.00     8800.00
04839               4.40     8000.00
04840             -25.00     8800.00
04841              25.00     9600.00
04842              -3.60     9600.00
04843             -25.00    11200.00
04844              25.00    12000.00
04845             -25.00    12000.00
04846               6.40    12800.00
04847              25.00    12800.00
04848             -25.00    13600.00
04849              25.00    14400.00
04850             -25.00    14400.00
04851             -24.80    15200.00
04852              25.00    16000.00
04853             -25.00    16800.00
04854               5.80    17600.00
04855              25.00    17600.00
04856             -25.00    17600.00
04857             -24.20    19200.00
04858              25.00    19200.00
04859             -18.00    19200.00
04860             -25.00    20000.00
04861              25.00    20800.00
04862             -25.00    21600.00
04863               2.60    21600.00
04864              10.20    22400.00
04865             -20.40    22400.00
04866              10.60    23200.00
04867              -0.40    22400.00
04868             -11.00    24000.00
04869               9.20    24000.00
04870               4.60    24800.00
04871             -22.00    25600.00
04872              17.20    25600.00
04873              -4.40    25600.00
04874             -15.80    27200.00
04875              14.60    27200.00
04876              -5.00    27200.00
04877              -8.60    27200.00
04878               5.00    28000.00
04879               0.40    28800.00
04880             -10.60    28000.00
04881               4.20    28800.00
04882              -0.60    28800.00
04883              -9.00    29600.00
04884               2.80    30400.00
04885              -2.60    30400.00
04886              -5.20    30400.00
04887               2.80    30400.00
04888              -4.60    31200.00
04889              -3.60    31200.00
04890               1.40    31200.00
04891              -6.60    31200.00
04892              -1.40    32000.00
04893              -1.20    32800.00
04894              -5.00    32000.00
04895              -1.20    32800.00
04896              -1.40    32800.00
04897              -4.40    32800.00
04898              -3.80    32800.00
04899              -1.40    33600.00
04900              -3.80    32800.00
04901              -3.60    32800.00
04902              -1.20    33600.00
04903              -4.80    33600.00
04904              -2.60    33600.00
04905              -2.80    33600.00
04906              -4.60    32800.00
04907              -1.80    33600.00
04908              -5.00    33600.00
04909              -2.60    33600.00
04910              -2.60    32800.00
04911              -5.20    33600.00
04912              -2.80    33600.00
04913              -3.00    32800.00
04914              -3.80    33600.00
04915              -3.80    33600.00
04916              -3.60    32800.00
04917              -3.60    33600.00
04918              -3.80    32800.00
04919              -2.60    32000.00
04920              -3.60    32800.00
04921              -3.80    32000.00
04922              -3.00    32800.00
04923              -3.00    32800.00
04924              -2.80    32000.00
04925              -3.80    31200.00
04926              -3.00    32800.00
04927              -2.20    31200.00
04928              -3.60    31200.00
04929              -2.80    30400.00
04930              -2.60    31200.00
04931              -3.00    30400.00
04932              -2.20    30400.00
04933              -2.60    29600.00
04934              -2.80    29600.00
04935              -2.60    29600.00
04936              -2.20    28800.00
04937              -2.20    28800.00
04938              -2.80    28000.00
04939              -2.20    28000.00
04940              -2.20    27200.00
04941              -2.20    27200.00
04942              -2.00    26400.00
04943              -2.80    26400.00
04944              -2.20    25600.00
04945              -2.00    25600.00
04946              -2.00    25600.00
04947              -2.00    24800.00
04948              -2.40    24800.00
04949              -2.00    24000.00
04950              -2.00    24000.00
04951              -2.00    24000.00
04952              -1.80    22400.00
04953              -2.00    22400.00
04954              -1.40    22400.00
04955              -1.80    21600.00
04956              -2.20    21600.00
04957              -2.00    20000.00
04958              -1.80    20000.00
04959              -1.20    19200.00
04960              -1.60    18400.00
04961              -1.60    18400.00
04962              -1.20    17600.00
04963              -1.80    17600.00
04964              -1.00    16800.00
04965              -1.20    16000.00
04966              -1.20    16000.00
04967              -1.40    15200.00
04968              -1.40    14400.00
04969              -1.20    14400.00
04970              -1.40    13600.00
04971              -2.00    12800.00
04972              -1.00    12000.00
04973              -1.40    12000.00
04974              -1.40    11200.00
04975              -1.20    11200.00
04976              -1.20     9600.00
04977              -1.40     8800.00
04978              -1.20     8800.00
04979              -1.00     8000.00
04980              -1.00     8000.00
04981              -1.40     7200.00
04982              -1.00     7200.00
04983              -1.00     5600.00
04984              -1.00     4800.00
04985              -1.40     4800.00
04986              -0.60     4000.00
04987              -0.60     3200.00
04988              -1.00     2400.00
04989              -1.20     1600.00
04990              -0.60     1600.00
04991              -1.00      800.00
04992              -0.20        0.00
04993               0.20        0.00
04994               1.20     -800.00
04995               2.80    -1600.00
04996              -2.00    -1600.00
04997              -0.40    -3200.00
04998               1.20    -3200.00
04999               0.20    -3200.00
05000              -0.60    -4000.00
