Unit:(mV)
                     CH1         CH2
Frequency              ? 299.926 kHz
00001              25.00    -6400.00
00002              -4.60    -7200.00
00003             -25.00    -8000.00
00004               6.60    -8000.00
00005              23.80    -8800.00
00006             -25.00    -8800.00
00007             -16.60    -9600.00
00008              25.00   -10400.00
00009             -25.00   -10400.00
00010             -25.00   -11200.00
00011              25.00   -12800.00
00012             -25.00   -12800.00
00013              -8.20   -12800.00
00014              24.20   -13600.00
00015             -17.20   -13600.00
00016              25.00   -14400.00
00017             -25.00   -15200.00
00018              14.80   -16000.00
00019              25.00   -16000.00
00020             -25.00   -16800.00
00021              10.20   -17600.00
00022              25.00   -17600.00
00023             -25.00   -19200.00
00024             -12.40   -19200.00
00025              25.00   -20000.00
00026             -23.40   -20000.00
00027              -6.60   -20800.00
00028              25.00   -20800.00
00029             -16.60   -22400.00
00030               1.00   -23200.00
00031               7.80   -23200.00
00032              -6.20   -23200.00
00033               2.20   -24000.00
00034               5.20   -24000.00
00035              -2.80   -24000.00
00036               8.40   -24800.00
00037               0.60   -25600.00
00038              -8.20   -26400.00
00039              13.80   -26400.00
00040              -5.20   -26400.00
00041              -3.80   -27200.00
00042              11.80   -27200.00
00043              -2.20   -28000.00
00044              -3.40   -28800.00
00045               8.00   -28800.00
00046               1.40   -28800.00
00047              -3.80   -29600.00
00048               6.80   -29600.00
00049               1.20   -30400.00
00050              -3.00   -30400.00
00051               5.20   -30400.00
00052               1.40   -31200.00
00053               0.20   -31200.00
00054               4.60   -31200.00
00055               0.20   -32000.00
00056               1.20   -32000.00
00057               3.20   -32000.00
00058              -0.20   -32000.00
00059               2.20   -32800.00
00060               3.00   -32000.00
00061               1.20   -32800.00
00062               2.60   -32800.00
00063               2.00   -32800.00
00064               1.00   -32800.00
00065               1.60   -32800.00
00066               3.00   -33600.00
00067               1.40   -33600.00
00068               1.40   -33600.00
00069               3.20   -33600.00
00070               1.40   -33600.00
00071               2.60   -33600.00
00072               2.00   -34400.00
00073               2.00   -33600.00
00074               2.60   -33600.00
00075               1.40   -34400.00
00076               2.80   -33600.00
00077               2.00   -33600.00
00078               1.40   -33600.00
00079               2.80   -33600.00
00080               2.20   -33600.00
00081               1.80   -33600.00
00082               1.40   -33600.00
00083               2.60   -33600.00
00084               2.00   -33600.00
00085               2.00   -32800.00
00086               2.80   -33600.00
00087               2.00   -32800.00
00088               2.20   -32800.00
00089               2.60   -32000.00
00090               1.80   -32800.00
00091               2.00   -32800.00
00092               1.80   -32000.00
00093               2.20   -32000.00
00094               2.00   -32000.00
00095               1.80   -31200.00
00096               2.00   -30400.00
00097               2.20   -30400.00
00098               2.00   -30400.00
00099               2.00   -29600.00
00100               2.00   -29600.00
00101               2.20   -29600.00
00102               2.00   -29600.00
00103               2.00   -28800.00
00104               2.00   -28800.00
00105               1.80   -28000.00
00106               2.00   -28000.00
00107               1.60   -27200.00
00108               1.60   -27200.00
00109               2.00   -26400.00
00110               1.20   -25600.00
00111               1.80   -26400.00
00112               1.80   -25600.00
00113               1.20   -25600.00
00114               1.60   -24800.00
00115               1.40   -24000.00
00116               1.40   -24000.00
00117               1.20   -23200.00
00118               1.40   -22400.00
00119               1.40   -22400.00
00120               1.40   -22400.00
00121               1.40   -21600.00
00122               1.20   -20800.00
00123               1.00   -20000.00
00124               1.00   -19200.00
00125               1.20   -18400.00
00126               1.20   -18400.00
00127               0.80   -17600.00
00128               1.00   -18400.00
00129               1.20   -17600.00
00130               0.60   -16800.00
00131               1.40   -16000.00
00132               1.00   -16000.00
00133               0.60   -14400.00
00134               1.20   -14400.00
00135               1.00   -13600.00
00136               0.80   -13600.00
00137               0.60   -12800.00
00138               1.00   -12000.00
00139               0.60   -11200.00
00140               0.20   -10400.00
00141               0.60   -10400.00
00142               0.40   -10400.00
00143               0.40    -9600.00
00144               0.60    -8000.00
00145               0.40    -8000.00
00146               0.40    -7200.00
00147               0.40    -6400.00
00148               0.40    -6400.00
00149               0.60    -5600.00
00150               0.40    -4800.00
00151               0.20    -4000.00
00152               0.40    -3200.00
00153               0.40    -3200.00
00154              -0.20    -1600.00
00155               0.40    -1600.00
00156               0.00     -800.00
00157               0.20     -800.00
00158               0.40        0.00
00159               0.40      800.00
00160               2.20     1600.00
00161               2.60     1600.00
00162              -2.20     2400.00
00163               0.40     3200.00
00164               1.80     3200.00
00165              -1.20     4000.00
00166               4.20     4800.00
00167              25.00     6400.00
00168              10.00     8000.00
00169             -25.00     8000.00
00170              -0.20     8800.00
00171              25.00     9600.00
00172             -25.00     8800.00
00173               3.00     9600.00
00174              25.00    10400.00
00175             -25.00    10400.00
00176              25.00    11200.00
00177              25.00    11200.00
00178             -25.00    12800.00
00179              25.00    13600.00
00180             -25.00    13600.00
00181              19.00    14400.00
00182              25.00    15200.00
00183             -25.00    15200.00
00184              25.00    16000.00
00185              10.80    16000.00
00186             -25.00    17600.00
00187              25.00    17600.00
00188              14.20    18400.00
00189             -25.00    18400.00
00190               9.00    20000.00
00191              25.00    20000.00
00192             -25.00    20800.00
00193              22.20    21600.00
00194              14.80    21600.00
00195             -25.00    22400.00
00196              20.20    23200.00
00197             -16.40    23200.00
00198              -4.00    24000.00
00199               6.80    24000.00
00200              -7.00    24800.00
00201              -4.40    24800.00
00202              16.40    25600.00
00203             -17.00    25600.00
00204              -5.60    25600.00
00205              15.40    27200.00
00206             -21.00    27200.00
00207               2.60    27200.00
00208               8.20    28000.00
00209             -10.00    28000.00
00210              -3.40    28800.00
00211               5.80    28800.00
00212              -7.00    28800.00
00213              -4.60    30400.00
00214               5.80    30400.00
00215              -7.40    30400.00
00216              -3.60    30400.00
00217               1.80    31200.00
00218              -6.40    31200.00
00219              -0.20    31200.00
00220               0.40    32000.00
00221              -6.20    32000.00
00222               0.60    32800.00
00223              -2.80    32800.00
00224              -5.20    32800.00
00225               0.40    32800.00
00226              -3.40    32800.00
00227              -3.00    33600.00
00228              -0.20    33600.00
00229              -2.60    33600.00
00230              -4.40    33600.00
00231              -2.20    33600.00
00232              -1.40    33600.00
00233              -4.40    33600.00
00234              -1.20    34400.00
00235              -2.80    34400.00
00236              -3.80    34400.00
00237              -1.00    34400.00
00238              -4.40    33600.00
00239              -2.60    34400.00
00240              -2.60    34400.00
00241              -3.60    34400.00
00242              -1.00    34400.00
00243              -3.60    34400.00
00244              -3.20    34400.00
00245              -2.00    34400.00
00246              -2.60    33600.00
00247              -3.20    34400.00
00248              -3.60    34400.00
00249              -2.20    33600.00
00250              -3.40    33600.00
00251              -2.80    33600.00
00252              -2.40    33600.00
00253              -3.60    33600.00
00254              -2.20    33600.00
00255              -2.80    33600.00
00256              -2.80    33600.00
00257              -2.60    32800.00
00258              -3.40    32000.00
00259              -2.20    32000.00
00260              -2.20    32800.00
00261              -3.00    32000.00
00262              -2.20    32000.00
00263              -2.60    31200.00
00264              -2.80    31200.00
00265              -2.60    31200.00
00266              -3.00    31200.00
00267              -2.80    30400.00
00268              -2.20    30400.00
00269              -2.80    28800.00
00270              -2.60    28800.00
00271              -2.20    28800.00
00272              -2.80    28800.00
00273              -2.60    28000.00
00274              -1.60    28000.00
00275              -2.80    27200.00
00276              -2.60    27200.00
00277              -2.00    26400.00
00278              -2.60    25600.00
00279              -1.80    25600.00
00280              -2.80    25600.00
00281              -2.20    25600.00
00282              -2.00    24000.00
00283              -2.80    24000.00
00284              -2.20    24000.00
00285              -2.00    23200.00
00286              -2.40    23200.00
00287              -1.40    22400.00
00288              -2.00    21600.00
00289              -2.20    20800.00
00290              -2.20    20800.00
00291              -2.00    20000.00
00292              -1.80    19200.00
00293              -1.80    19200.00
00294              -2.20    18400.00
00295              -2.20    18400.00
00296              -1.40    17600.00
00297              -1.80    16800.00
00298              -2.60    16000.00
00299              -1.60    15200.00
00300              -2.00    15200.00
00301              -1.80    14400.00
00302              -1.20    14400.00
00303              -2.00    13600.00
00304              -1.80    12800.00
00305              -1.00    12000.00
00306              -2.00    11200.00
00307              -1.80    11200.00
00308              -1.40    11200.00
00309              -1.80     9600.00
00310              -2.00     9600.00
00311              -1.40     8800.00
00312              -1.20     8000.00
00313              -1.40     8000.00
00314              -1.80     6400.00
00315              -0.60     7200.00
00316              -1.80     5600.00
00317              -1.80     4800.00
00318              -0.20     4800.00
00319              -0.60     3200.00
00320              -1.40     3200.00
00321              -0.60     2400.00
00322              -1.00     1600.00
00323              -1.20     1600.00
00324              -0.20        0.00
00325               0.40     -800.00
00326              -0.20     -800.00
00327               3.40    -1600.00
00328              -0.40    -1600.00
00329              -2.00    -1600.00
00330               1.20    -3200.00
00331               1.80    -3200.00
00332              -0.80    -4000.00
00333               3.80    -4000.00
00334              18.20    -5600.00
00335              21.00    -7200.00
00336             -25.00    -8000.00
00337             -21.60    -8000.00
00338              25.00    -8800.00
00339              -8.40    -8800.00
00340             -25.00    -8000.00
00341              25.00   -10400.00
00342              25.00   -10400.00
00343             -25.00   -10400.00
00344              25.00   -12000.00
00345              23.80   -12800.00
00346             -25.00   -12800.00
00347              25.00   -13600.00
00348             -17.40   -13600.00
00349              16.80   -14400.00
00350              -5.20   -14400.00
00351             -24.20   -16000.00
00352              25.00   -16000.00
00353             -21.00   -16800.00
00354             -20.40   -17600.00
00355              25.00   -17600.00
00356              -1.80   -17600.00
00357             -25.00   -19200.00
00358              25.00   -19200.00
00359              10.60   -20000.00
00360             -25.00   -20000.00
00361              25.00   -20800.00
00362               2.60   -21600.00
00363             -15.40   -22400.00
00364              13.40   -23200.00
00365              -2.80   -23200.00
00366              -3.40   -23200.00
00367               6.00   -24000.00
00368               0.60   -24000.00
00369               0.40   -24800.00
00370               9.60   -25600.00
00371             -10.00   -25600.00
00372               5.80   -26400.00
00373               6.80   -26400.00
00374             -11.00   -27200.00
00375               8.60   -27200.00
00376               5.00   -28000.00
00377              -5.20   -28000.00
00378               3.60   -28800.00
00379               6.20   -28800.00
00380              -4.20   -29600.00
00381               2.60   -29600.00
00382               5.60   -29600.00
00383              -3.20   -30400.00
00384               3.00   -29600.00
00385               3.40   -30400.00
00386              -1.00   -30400.00
00387               3.60   -32000.00
00388               2.60   -32000.00
00389              -0.40   -32000.00
00390               4.20   -32000.00
00391               0.40   -32000.00
00392               0.40   -32000.00
00393               3.60   -32800.00
00394               1.00   -32000.00
00395               2.60   -32800.00
00396               2.80   -33600.00
00397               1.80   -33600.00
00398               1.00   -33600.00
00399               2.80   -32800.00
00400               1.40   -33600.00
00401               0.60   -33600.00
00402               3.00   -33600.00
00403               2.00   -33600.00
00404               2.20   -33600.00
00405               2.80   -33600.00
00406               2.00   -33600.00
00407               3.00   -33600.00
00408               2.00   -33600.00
00409               2.00   -33600.00
00410               2.00   -33600.00
00411               0.60   -33600.00
00412               1.20   -33600.00
00413               2.00   -33600.00
00414               2.60   -33600.00
00415               2.40   -33600.00
00416               3.60   -33600.00
00417               3.40   -32800.00
00418               1.20   -32800.00
00419               2.00   -32800.00
00420               1.20   -32800.00
00421               0.00   -32800.00
00422               2.20   -32800.00
00423               2.20   -32000.00
00424               2.60   -32800.00
00425               4.00   -32000.00
00426               2.60   -32000.00
00427               2.60   -32000.00
00428               2.00   -32000.00
00429               0.40   -32000.00
00430               1.00   -30400.00
00431               1.80   -30400.00
00432               1.40   -30400.00
00433               2.60   -29600.00
00434               2.80   -29600.00
00435               2.60   -28800.00
00436               3.00   -28800.00
00437               2.00   -28800.00
00438               0.60   -28000.00
00439               1.00   -28800.00
00440               0.60   -27200.00
00441               0.60   -26400.00
00442               2.20   -27200.00
00443               2.20   -26400.00
00444               2.60   -25600.00
00445               2.80   -25600.00
00446               1.20   -25600.00
00447               1.20   -24800.00
00448               1.00   -24000.00
00449               0.40   -24000.00
00450               0.60   -24000.00
00451               1.40   -22400.00
00452               1.80   -22400.00
00453               2.00   -22400.00
00454               2.00   -22400.00
00455               1.40   -20800.00
00456               1.20   -20800.00
00457               0.60   -20000.00
00458               1.00   -19200.00
00459               1.00   -18400.00
00460               1.00   -18400.00
00461               1.40   -17600.00
00462               1.40   -17600.00
00463               1.40   -16800.00
00464               1.40   -16000.00
00465               1.00   -16000.00
00466               0.40   -15200.00
00467               1.00   -14400.00
00468               0.60   -14400.00
00469               0.40   -13600.00
00470               0.80   -12800.00
00471               0.80   -12800.00
00472               1.00   -11200.00
00473               1.00   -11200.00
00474               0.60   -10400.00
00475               0.60    -9600.00
00476               0.40    -8800.00
00477               0.40    -8000.00
00478               0.40    -8000.00
00479               0.40    -7200.00
00480               0.60    -6400.00
00481               0.20    -6400.00
00482               0.40    -4800.00
00483               0.40    -4800.00
00484               0.20    -4000.00
00485               0.40    -4000.00
00486               0.40    -3200.00
00487               0.20    -1600.00
00488              -0.20    -1600.00
00489               0.20     -800.00
00490               0.20     -800.00
00491               0.40        0.00
00492               0.60        0.00
00493               1.20     1600.00
00494               3.60     2400.00
00495              -1.40     2400.00
00496              -1.20     3200.00
00497               1.20     3200.00
00498              -0.60     3200.00
00499              -0.20     4800.00
00500              14.20     5600.00
00501              25.00     7200.00
00502             -25.00     8000.00
00503             -25.00     8000.00
00504              25.00     8000.00
00505              -6.40     8800.00
00506             -25.00     9600.00
00507              25.00    11200.00
00508             -12.80    10400.00
00509             -25.00    11200.00
00510              25.00    12000.00
00511             -25.00    12000.00
00512              16.40    12800.00
00513              19.40    12800.00
00514             -25.00    14400.00
00515              25.00    15200.00
00516             -25.00    16000.00
00517              -7.20    16000.00
00518              25.00    16000.00
00519             -25.00    16800.00
00520              10.00    17600.00
00521              25.00    18400.00
00522             -25.00    19200.00
00523             -25.00    18400.00
00524              25.00    20000.00
00525             -23.80    20800.00
00526             -19.80    21600.00
00527              25.00    21600.00
00528             -25.00    22400.00
00529               7.40    22400.00
00530               2.40    23200.00
00531             -15.60    23200.00
00532               9.00    24000.00
00533              -1.20    24000.00
00534             -11.00    24800.00
00535              10.60    25600.00
00536               1.40    25600.00
00537             -21.40    25600.00
00538              18.00    27200.00
00539              -8.00    27200.00
00540             -13.00    27200.00
00541              12.40    28000.00
00542              -5.20    28000.00
00543              -8.20    28000.00
00544               4.40    28800.00
00545              -0.40    28800.00
00546             -10.20    29600.00
00547               4.20    29600.00
00548              -2.00    30400.00
00549              -8.20    30400.00
00550               2.60    30400.00
00551              -3.00    31200.00
00552              -4.40    31200.00
00553               2.60    31200.00
00554              -5.20    32000.00
00555              -2.80    32800.00
00556               0.60    32800.00
00557              -6.00    32800.00
00558              -1.40    33600.00
00559              -1.20    33600.00
00560              -4.60    33600.00
00561              -1.20    33600.00
00562              -1.20    33600.00
00563              -4.40    33600.00
00564              -3.40    33600.00
00565              -1.00    33600.00
00566              -3.80    33600.00
00567              -2.80    33600.00
00568              -0.60    34400.00
00569              -4.40    34400.00
00570              -1.60    34400.00
00571              -2.60    33600.00
00572              -4.00    34400.00
00573              -2.00    34400.00
00574              -3.80    34400.00
00575              -2.00    34400.00
00576              -2.60    34400.00
00577              -3.80    34400.00
00578              -2.60    35200.00
00579              -2.00    34400.00
00580              -2.80    34400.00
00581              -3.80    34400.00
00582              -1.80    33600.00
00583              -3.20    34400.00
00584              -3.40    33600.00
00585              -1.80    33600.00
00586              -3.60    33600.00
00587              -3.00    33600.00
00588              -2.20    33600.00
00589              -3.00    32800.00
00590              -2.20    32800.00
00591              -3.20    33600.00
00592              -2.80    32000.00
00593              -1.80    32800.00
00594              -3.40    32000.00
00595              -2.60    32800.00
00596              -2.00    31200.00
00597              -2.80    31200.00
00598              -2.60    31200.00
00599              -2.20    31200.00
00600              -2.80    30400.00
00601              -3.00    29600.00
00602              -2.20    30400.00
00603              -2.60    28800.00
00604              -3.00    28800.00
00605              -2.20    28800.00
00606              -2.80    28800.00
00607              -2.20    28000.00
00608              -2.20    27200.00
00609              -3.00    27200.00
00610              -1.80    27200.00
00611              -1.80    25600.00
00612              -2.60    26400.00
00613              -2.00    25600.00
00614              -2.60    25600.00
00615              -2.20    24800.00
00616              -2.20    24000.00
00617              -2.00    24000.00
00618              -2.20    23200.00
00619              -2.20    23200.00
00620              -1.80    22400.00
00621              -2.20    22400.00
00622              -2.00    21600.00
00623              -2.20    20800.00
00624              -2.20    20800.00
00625              -1.40    19200.00
00626              -2.20    19200.00
00627              -2.00    18400.00
00628              -1.80    18400.00
00629              -1.80    17600.00
00630              -2.00    16000.00
00631              -1.80    16800.00
00632              -1.80    16000.00
00633              -2.20    16000.00
00634              -2.00    14400.00
00635              -1.20    14400.00
00636              -2.00    12800.00
00637              -2.40    12800.00
00638              -1.20    12800.00
00639              -1.40    12000.00
00640              -1.40    12000.00
00641              -1.60    11200.00
00642              -0.80     9600.00
00643              -1.80     9600.00
00644              -1.80     8800.00
00645              -0.80     8800.00
00646              -1.80     7200.00
00647              -1.80     7200.00
00648              -0.60     6400.00
00649              -1.20     5600.00
00650              -1.20     5600.00
00651              -1.00     4000.00
00652              -1.20     4800.00
00653              -1.20     3200.00
00654              -1.20     2400.00
00655              -1.20     2400.00
00656              -0.40     1600.00
00657              -0.60      800.00
00658              -0.20        0.00
00659               0.40     -800.00
00660               2.00    -1600.00
00661               2.00    -1600.00
00662              -2.20    -2400.00
00663               0.40    -2400.00
00664               1.40    -3200.00
00665              -0.40    -4000.00
00666               1.00    -4800.00
00667              10.40    -4800.00
00668              25.00    -6400.00
00669             -16.00    -7200.00
00670             -25.00    -8000.00
00671              16.40    -8000.00
00672              18.20    -8800.00
00673             -25.00    -8800.00
00674              -0.40    -8800.00
00675              25.00   -10400.00
00676             -25.00   -10400.00
00677             -11.40   -11200.00
00678              25.00   -12000.00
00679             -25.00   -12000.00
00680              10.00   -13600.00
00681              12.80   -13600.00
00682              -9.40   -14400.00
00683              22.80   -15200.00
00684             -25.00   -14400.00
00685              25.00   -16000.00
00686              18.80   -16000.00
00687             -25.00   -17600.00
00688              21.00   -17600.00
00689              24.60   -18400.00
00690             -25.00   -19200.00
00691              -1.60   -20000.00
00692              25.00   -20000.00
00693             -25.00   -20000.00
00694               5.20   -20800.00
00695              25.00   -20800.00
00696             -20.60   -22400.00
00697               5.80   -23200.00
00698               5.80   -23200.00
00699              -7.00   -23200.00
00700               2.60   -24000.00
00701               5.40   -24000.00
00702              -3.60   -24800.00
00703               9.60   -24800.00
00704              -2.00   -25600.00
00705              -5.00   -25600.00
00706              13.00   -27200.00
00707              -8.00   -26400.00
00708               1.00   -27200.00
00709               9.60   -27200.00
00710              -4.20   -28000.00
00711              -0.80   -28000.00
00712               7.40   -28800.00
00713              -1.00   -29600.00
00714              -1.20   -28800.00
00715               7.20   -29600.00
00716              -1.20   -29600.00
00717              -0.60   -30400.00
00718               5.40   -30400.00
00719              -0.40   -30400.00
00720               1.60   -30400.00
00721               5.20   -31200.00
00722              -0.60   -32000.00
00723               2.00   -32000.00
00724               3.00   -32000.00
00725               0.00   -32000.00
00726               1.80   -32800.00
00727               3.60   -32800.00
00728               2.00   -32800.00
00729               1.40   -32800.00
00730               2.80   -33600.00
00731               1.60   -33600.00
00732               1.20   -33600.00
00733               3.00   -32800.00
00734               2.00   -33600.00
00735               1.80   -33600.00
00736               2.80   -33600.00
00737               2.00   -32800.00
00738               2.00   -33600.00
00739               1.20   -33600.00
00740               3.00   -33600.00
00741               2.80   -33600.00
00742               1.00   -33600.00
00743               3.00   -33600.00
00744               1.80   -33600.00
00745               1.20   -33600.00
00746               2.60   -33600.00
00747               3.00   -33600.00
00748               2.20   -33600.00
00749               1.00   -32800.00
00750               2.80   -33600.00
00751               2.60   -32800.00
00752               1.00   -32800.00
00753               2.60   -32800.00
00754               3.00   -32800.00
00755               1.40   -32800.00
00756               1.80   -32000.00
00757               2.60   -32000.00
00758               1.80   -32000.00
00759               1.40   -32000.00
00760               2.60   -32000.00
00761               2.20   -32000.00
00762               1.00   -31200.00
00763               2.20   -31200.00
00764               2.20   -30400.00
00765               1.40   -30400.00
00766               2.20   -29600.00
00767               2.00   -29600.00
00768               1.60   -28800.00
00769               1.80   -28800.00
00770               2.60   -28800.00
00771               1.40   -28800.00
00772               1.80   -28000.00
00773               1.80   -27200.00
00774               1.80   -27200.00
00775               1.20   -27200.00
00776               1.20   -26400.00
00777               2.00   -26400.00
00778               1.00   -25600.00
00779               2.00   -25600.00
00780               1.80   -24800.00
00781               1.20   -24000.00
00782               1.40   -24000.00
00783               2.00   -24000.00
00784               1.00   -23200.00
00785               1.40   -22400.00
00786               2.40   -22400.00
00787               0.60   -22400.00
00788               1.60   -20800.00
00789               2.00   -20000.00
00790               0.20   -20000.00
00791               1.00   -20000.00
00792               2.00   -18400.00
00793               1.00   -18400.00
00794               1.20   -18400.00
00795               2.00   -16800.00
00796               1.00   -16800.00
00797               1.00   -16000.00
00798               1.80   -16000.00
00799               0.60   -15200.00
00800               0.80   -14400.00
00801               1.20   -14400.00
00802               0.40   -14400.00
00803               1.00   -12800.00
00804               0.60   -12800.00
00805               1.00   -12000.00
00806               1.00   -11200.00
00807               0.40   -11200.00
00808               0.60   -10400.00
00809               0.40    -9600.00
00810               0.60    -8800.00
00811               1.00    -8000.00
00812               0.40    -7200.00
00813               0.60    -7200.00
00814               0.60    -6400.00
00815               0.40    -4800.00
00816               0.40    -4800.00
00817               0.20    -4800.00
00818               0.20    -4000.00
00819               0.20    -3200.00
00820               0.20    -3200.00
00821               0.20    -1600.00
00822               0.00    -1600.00
00823               0.20     -800.00
00824              -0.20        0.00
00825               0.20        0.00
00826               0.40     1600.00
00827               3.00     1600.00
00828               1.20     1600.00
00829              -2.20     2400.00
00830               1.00     3200.00
00831               1.20     4000.00
00832              -1.80     4800.00
00833               6.40     4800.00
00834              25.00     7200.00
00835              -3.80     8000.00
00836             -25.00     8000.00
00837              11.00     8000.00
00838              21.80     8800.00
00839             -25.00     8000.00
00840              24.60     9600.00
00841              25.00    10400.00
00842             -25.00    11200.00
00843              25.00    11200.00
00844              12.20    12000.00
00845             -25.00    12800.00
00846              25.00    12800.00
00847             -25.00    13600.00
00848              25.00    14400.00
00849              25.00    15200.00
00850             -25.00    15200.00
00851              25.00    16000.00
00852             -18.40    17600.00
00853             -25.00    17600.00
00854              25.00    18400.00
00855               1.40    18400.00
00856             -25.00    19200.00
00857              23.60    19200.00
00858              21.20    20800.00
00859             -25.00    20800.00
00860              25.00    21600.00
00861              -0.20    21600.00
00862             -17.40    22400.00
00863              19.20    22400.00
00864             -19.00    23200.00
00865               1.00    24000.00
00866               4.20    24000.00
00867              -9.40    24800.00
00868              -0.40    25600.00
00869              15.20    25600.00
00870             -21.20    25600.00
00871               2.60    26400.00
00872              10.60    27200.00
00873             -22.00    27200.00
00874               7.60    28000.00
00875               4.60    28000.00
00876             -10.20    28800.00
00877              -1.00    28800.00
00878               5.00    28800.00
00879              -9.40    29600.00
00880              -2.00    30400.00
00881               4.20    30400.00
00882              -8.40    30400.00
00883              -1.60    30400.00
00884               0.40    31200.00
00885              -6.40    31200.00
00886               1.00    31200.00
00887              -1.40    32000.00
00888              -5.80    32000.00
00889               1.20    32800.00
00890              -4.00    32800.00
00891              -4.40    32800.00
00892               0.40    33600.00
00893              -3.60    33600.00
00894              -2.80    33600.00
00895              -0.40    33600.00
00896              -2.80    33600.00
00897              -5.40    33600.00
00898              -1.40    33600.00
00899              -2.40    33600.00
00900              -4.60    33600.00
00901              -0.40    34400.00
00902              -3.60    33600.00
00903              -3.60    34400.00
00904              -0.60    33600.00
00905              -4.60    34400.00
00906              -2.20    33600.00
00907              -1.80    34400.00
00908              -4.20    34400.00
00909              -2.00    34400.00
00910              -2.60    34400.00
00911              -3.40    34400.00
00912              -3.40    34400.00
00913              -1.80    33600.00
00914              -2.80    34400.00
00915              -4.40    33600.00
00916              -2.00    34400.00
00917              -2.80    33600.00
00918              -2.60    33600.00
00919              -2.60    33600.00
00920              -2.80    33600.00
00921              -2.20    33600.00
00922              -2.80    32800.00
00923              -2.40    32800.00
00924              -2.80    33600.00
00925              -3.40    32800.00
00926              -2.20    32800.00
00927              -2.20    32000.00
00928              -3.00    32000.00
00929              -3.20    32000.00
00930              -2.00    31200.00
00931              -2.20    31200.00
00932              -3.40    31200.00
00933              -2.20    30400.00
00934              -2.40    30400.00
00935              -3.40    30400.00
00936              -2.20    29600.00
00937              -2.00    28800.00
00938              -3.00    28800.00
00939              -2.80    28000.00
00940              -1.40    28000.00
00941              -2.00    28000.00
00942              -3.00    27200.00
00943              -3.00    27200.00
00944              -1.60    26400.00
00945              -1.80    26400.00
00946              -2.60    25600.00
00947              -3.60    25600.00
00948              -1.20    24800.00
00949              -1.00    24800.00
00950              -4.60    24000.00
00951              -2.00    24000.00
00952              -0.40    22400.00
00953              -3.00    23200.00
00954              -3.00    21600.00
00955              -1.00    21600.00
00956              -2.20    21600.00
00957              -3.60    20000.00
00958              -0.80    20000.00
00959              -1.40    19200.00
00960              -3.80    19200.00
00961              -1.80    18400.00
00962              -0.60    17600.00
00963              -2.80    17600.00
00964              -2.80    16800.00
00965               0.20    16000.00
00966              -2.00    16000.00
00967              -3.80    15200.00
00968              -1.00    14400.00
00969              -0.40    13600.00
00970              -3.00    12800.00
00971              -1.20    12800.00
00972               0.00    12000.00
00973              -2.80    12000.00
00974              -2.60    10400.00
00975              -1.20     9600.00
00976              -2.00     9600.00
00977              -1.80     8800.00
00978              -0.40     8000.00
00979              -1.00     8000.00
00980              -1.80     7200.00
00981              -1.00     6400.00
00982              -0.40     6400.00
00983              -0.80     5600.00
00984              -1.20     4800.00
00985              -1.20     4000.00
00986              -0.40     3200.00
00987              -0.60     2400.00
00988              -2.00     1600.00
00989              -0.20     1600.00
00990              -0.40      800.00
00991              -1.20        0.00
00992               0.20        0.00
00993               1.40     -800.00
00994               3.00    -1600.00
00995              -1.40    -1600.00
00996              -0.40    -2400.00
00997               1.40    -3200.00
00998               0.60    -3200.00
00999              -0.20    -4000.00
01000               5.20    -4800.00
01001              21.20    -6400.00
01002              14.40    -7200.00
01003             -25.00    -8000.00
01004             -11.00    -8000.00
01005              25.00    -8800.00
01006             -19.80    -9600.00
01007             -25.00    -8800.00
01008              25.00   -10400.00
01009              18.60   -10400.00
01010             -25.00   -11200.00
01011              25.00   -12000.00
01012              -1.80   -12800.00
01013             -25.00   -12800.00
01014              25.00   -14400.00
01015             -21.80   -13600.00
01016              23.80   -14400.00
01017             -18.80   -14400.00
01018             -10.60   -16000.00
01019              25.00   -16800.00
01020             -25.00   -16800.00
01021              -9.40   -17600.00
01022              25.00   -17600.00
01023             -12.20   -19200.00
01024             -25.00   -18400.00
01025              25.00   -20000.00
01026              -3.40   -20000.00
01027             -25.00   -20800.00
01028              25.00   -21600.00
01029              -6.80   -22400.00
01030              -9.40   -22400.00
01031              13.00   -23200.00
01032              -5.40   -23200.00
01033              -1.80   -24000.00
01034               6.60   -24000.00
01035              -1.60   -25600.00
01036               2.80   -25600.00
01037               7.60   -25600.00
01038             -10.80   -26400.00
01039               9.60   -25600.00
01040               2.60   -27200.00
01041              -9.40   -27200.00
01042              10.80   -27200.00
01043               2.00   -28800.00
01044              -4.80   -28000.00
01045               5.40   -28800.00
01046               5.40   -28800.00
01047              -4.40   -29600.00
01048               4.20   -29600.00
01049               4.20   -29600.00
01050              -3.20   -29600.00
01051               4.20   -30400.00
01052               2.80   -30400.00
01053              -0.40   -31200.00
01054               4.40   -32000.00
01055               1.40   -32000.00
01056               0.40   -32000.00
01057               4.20   -32000.00
01058               0.20   -32000.00
01059               1.40   -32000.00
01060               4.00   -32000.00
01061               1.00   -32800.00
01062               2.80   -32800.00
01063               2.80   -32800.00
01064               1.20   -32800.00
01065               1.20   -33600.00
01066               2.60   -32800.00
01067               2.20   -33600.00
01068               1.20   -33600.00
01069               2.80   -33600.00
01070               1.80   -33600.00
01071               2.20   -33600.00
01072               2.20   -33600.00
01073               2.00   -33600.00
01074               3.00   -33600.00
01075               1.40   -33600.00
01076               3.00   -33600.00
01077               2.20   -33600.00
01078               1.00   -33600.00
01079               3.20   -33600.00
01080               2.20   -33600.00
01081               1.40   -33600.00
01082               2.00   -33600.00
01083               2.20   -32800.00
01084               2.20   -33600.00
01085               1.60   -33600.00
01086               2.20   -32800.00
01087               2.20   -32800.00
01088               2.00   -32800.00
01089               2.20   -32800.00
01090               2.20   -32000.00
01091               1.80   -32000.00
01092               2.00   -32000.00
01093               2.20   -32000.00
01094               2.00   -32000.00
01095               1.40   -31200.00
01096               2.20   -32000.00
01097               2.00   -30400.00
01098               1.40   -30400.00
01099               2.00   -30400.00
01100               1.80   -29600.00
01101               1.80   -29600.00
01102               2.20   -29600.00
01103               1.60   -28800.00
01104               1.80   -28800.00
01105               1.40   -28000.00
01106               2.00   -28000.00
01107               2.20   -27200.00
01108               1.20   -27200.00
01109               1.80   -27200.00
01110               1.80   -26400.00
01111               1.40   -25600.00
01112               1.80   -25600.00
01113               1.60   -25600.00
01114               1.40   -24000.00
01115               1.20   -24000.00
01116               1.80   -24000.00
01117               1.40   -23200.00
01118               1.20   -22400.00
01119               2.00   -22400.00
01120               1.40   -22400.00
01121               1.80   -20800.00
01122               1.80   -20800.00
01123               1.00   -20800.00
01124               1.20   -20000.00
01125               1.20   -20000.00
01126               1.40   -18400.00
01127               1.20   -17600.00
01128               1.20   -17600.00
01129               1.20   -16800.00
01130               1.00   -16800.00
01131               1.20   -16000.00
01132               1.00   -16000.00
01133               1.00   -15200.00
01134               1.80   -14400.00
01135               0.60   -13600.00
01136               1.00   -13600.00
01137               1.00   -12800.00
01138               0.40   -12800.00
01139               1.00   -11200.00
01140               1.20   -11200.00
01141               0.40   -10400.00
01142               0.40    -9600.00
01143               1.00    -9600.00
01144               0.40    -8800.00
01145               0.40    -8000.00
01146               0.60    -7200.00
01147               0.20    -7200.00
01148               0.40    -6400.00
01149               0.40    -5600.00
01150               0.20    -4800.00
01151               0.20    -4000.00
01152               0.40    -4000.00
01153               0.20    -3200.00
01154               0.20    -1600.00
01155               0.20    -1600.00
01156              -0.20     -800.00
01157              -0.20     -800.00
01158               0.20        0.00
01159               0.60     1600.00
01160               1.20     1600.00
01161               3.40     2400.00
01162              -2.20     2400.00
01163              -1.00     3200.00
01164               1.80     4000.00
01165              -0.40     4000.00
01166               1.00     4800.00
01167              18.60     5600.00
01168              25.00     7200.00
01169             -25.00     8000.00
01170             -22.20     8000.00
01171              25.00     8800.00
01172             -19.20     8800.00
01173             -25.00     8800.00
01174              25.00    10400.00
01175             -25.00    10400.00
01176             -16.20    12000.00
01177              25.00    12000.00
01178             -25.00    12000.00
01179              25.00    12800.00
01180              -6.20    13600.00
01181             -25.00    14400.00
01182              25.00    14400.00
01183             -25.00    15200.00
01184              25.00    16000.00
01185              25.00    16000.00
01186             -25.00    16800.00
01187              25.00    17600.00
01188              25.00    18400.00
01189             -25.00    19200.00
01190             -14.80    19200.00
01191              25.00    19200.00
01192             -25.00    20000.00
01193              -2.80    21600.00
01194              25.00    21600.00
01195             -25.00    22400.00
01196              14.80    22400.00
01197              -6.00    22400.00
01198             -11.40    24000.00
01199               9.40    24000.00
01200              -3.60    24800.00
01201              -9.20    24800.00
01202              14.00    25600.00
01203              -6.00    25600.00
01204             -16.80    25600.00
01205              19.60    26400.00
01206             -14.00    27200.00
01207              -7.00    27200.00
01208              11.80    28000.00
01209              -7.60    28000.00
01210              -7.00    28000.00
01211               5.80    28800.00
01212              -3.00    29600.00
01213              -8.20    28800.00
01214               5.80    29600.00
01215              -5.00    30400.00
01216              -7.00    30400.00
01217               3.40    31200.00
01218              -5.00    31200.00
01219              -3.40    32000.00
01220               2.60    32000.00
01221              -6.60    32000.00
01222              -2.00    32000.00
01223              -0.20    32800.00
01224              -6.60    32800.00
01225              -0.40    32800.00
01226              -1.80    33600.00
01227              -4.40    33600.00
01228              -0.60    33600.00
01229              -1.60    33600.00
01230              -4.60    33600.00
01231              -3.00    33600.00
01232              -1.20    33600.00
01233              -3.80    33600.00
01234              -2.00    34400.00
01235              -2.00    34400.00
01236              -4.60    34400.00
01237              -0.60    34400.00
01238              -3.80    34400.00
01239              -3.00    34400.00
01240              -1.40    34400.00
01241              -4.40    34400.00
01242              -1.20    33600.00
01243              -2.60    33600.00
01244              -3.80    34400.00
01245              -2.20    34400.00
01246              -2.20    33600.00
01247              -2.60    34400.00
01248              -4.00    33600.00
01249              -2.20    33600.00
01250              -2.60    33600.00
01251              -2.80    34400.00
01252              -2.20    33600.00
01253              -2.80    33600.00
01254              -2.60    33600.00
01255              -2.80    32800.00
01256              -2.80    33600.00
01257              -2.60    32800.00
01258              -3.60    32000.00
01259              -2.20    32800.00
01260              -2.00    32000.00
01261              -3.40    32800.00
01262              -2.20    32000.00
01263              -2.20    31200.00
01264              -2.80    31200.00
01265              -2.60    31200.00
01266              -2.80    31200.00
01267              -2.60    30400.00
01268              -2.80    30400.00
01269              -2.80    29600.00
01270              -2.20    29600.00
01271              -2.80    28800.00
01272              -2.20    28800.00
01273              -2.00    28800.00
01274              -2.00    28000.00
01275              -2.60    27200.00
01276              -2.80    27200.00
01277              -2.00    26400.00
01278              -2.20    25600.00
01279              -2.60    25600.00
01280              -2.20    25600.00
01281              -2.80    24800.00
01282              -2.20    24800.00
01283              -2.60    24000.00
01284              -2.20    24000.00
01285              -2.60    23200.00
01286              -2.80    23200.00
01287              -2.20    22400.00
01288              -2.20    21600.00
01289              -2.60    21600.00
01290              -2.00    20000.00
01291              -2.00    20000.00
01292              -1.40    19200.00
01293              -2.00    19200.00
01294              -2.60    18400.00
01295              -2.20    17600.00
01296              -2.20    17600.00
01297              -1.80    16800.00
01298              -2.00    16000.00
01299              -2.00    16000.00
01300              -1.80    15200.00
01301              -1.40    15200.00
01302              -1.80    14400.00
01303              -1.80    13600.00
01304              -1.80    12800.00
01305              -1.40    12800.00
01306              -1.20    12000.00
01307              -1.20    11200.00
01308              -2.00    11200.00
01309              -1.00     9600.00
01310              -1.20     9600.00
01311              -1.80     8800.00
01312              -1.20     8000.00
01313              -1.00     7200.00
01314              -1.80     7200.00
01315              -1.20     6400.00
01316              -1.00     5600.00
01317              -0.60     5600.00
01318              -1.00     4800.00
01319              -0.60     3200.00
01320              -0.20     3200.00
01321              -1.20     2400.00
01322              -1.00     1600.00
01323               0.20     1600.00
01324              -1.20      800.00
01325              -1.20        0.00
01326               1.40     -800.00
01327               3.00     -800.00
01328               0.20    -1600.00
01329              -1.40    -1600.00
01330               1.00    -3200.00
01331               0.40    -3200.00
01332               0.20    -4000.00
01333               2.20    -4000.00
01334              12.20    -4800.00
01335              25.00    -7200.00
01336             -25.00    -8000.00
01337             -25.00    -8000.00
01338              24.20    -8800.00
01339               9.80    -9600.00
01340             -25.00    -9600.00
01341              18.00    -9600.00
01342              25.00   -10400.00
01343             -25.00   -10400.00
01344              16.20   -12000.00
01345              25.00   -12000.00
01346             -25.00   -12000.00
01347              25.00   -12800.00
01348               0.00   -13600.00
01349              -0.40   -14400.00
01350              15.60   -14400.00
01351             -25.00   -16000.00
01352              25.00   -16000.00
01353               4.40   -16800.00
01354             -25.00   -17600.00
01355              25.00   -17600.00
01356              15.80   -17600.00
01357             -25.00   -19200.00
01358               9.40   -19200.00
01359              25.00   -20000.00
01360             -25.00   -20000.00
01361              16.40   -20000.00
01362              18.60   -22400.00
01363             -21.00   -21600.00
01364              10.00   -22400.00
01365               2.20   -23200.00
01366              -6.20   -24000.00
01367               4.60   -24000.00
01368               4.20   -25600.00
01369              -3.00   -24800.00
01370              11.00   -25600.00
01371              -5.80   -26400.00
01372              -1.40   -25600.00
01373              12.40   -26400.00
01374             -10.20   -27200.00
01375               3.60   -27200.00
01376               9.00   -27200.00
01377              -4.60   -27200.00
01378               0.40   -28800.00
01379               7.80   -28800.00
01380              -2.00   -28800.00
01381               0.00   -28800.00
01382               7.00   -29600.00
01383              -2.00   -29600.00
01384               0.60   -29600.00
01385               5.00   -31200.00
01386              -0.40   -30400.00
01387               2.60   -31200.00
01388               4.20   -31200.00
01389              -0.40   -32000.00
01390               3.00   -32000.00
01391               2.00   -32000.00
01392              -0.20   -32000.00
01393               3.00   -32800.00
01394               2.00   -32800.00
01395               2.20   -32800.00
01396               2.80   -32800.00
01397               2.00   -33600.00
01398               1.20   -33600.00
01399               2.60   -33600.00
01400               2.80   -32800.00
01401               1.20   -32800.00
01402               2.60   -33600.00
01403               2.40   -33600.00
01404               1.40   -33600.00
01405               2.80   -33600.00
01406               1.20   -33600.00
01407               2.20   -33600.00
01408               2.60   -33600.00
01409               1.40   -33600.00
01410               2.80   -33600.00
01411               1.60   -33600.00
01412               2.00   -33600.00
01413               2.60   -33600.00
01414               2.00   -33600.00
01415               1.80   -33600.00
01416               1.80   -33600.00
01417               2.40   -33600.00
01418               1.60   -32800.00
01419               2.00   -32800.00
01420               2.20   -32800.00
01421               1.80   -32800.00
01422               2.20   -32800.00
01423               2.00   -32000.00
01424               1.80   -32000.00
01425               2.20   -32800.00
01426               1.80   -32000.00
01427               2.60   -32000.00
01428               2.20   -32000.00
01429               1.80   -30400.00
01430               2.00   -30400.00
01431               1.80   -30400.00
01432               1.60   -29600.00
01433               2.00   -29600.00
01434               2.00   -29600.00
01435               2.00   -28800.00
01436               1.40   -28800.00
01437               2.00   -28800.00
01438               2.00   -28800.00
01439               1.80   -28800.00
01440               1.80   -27200.00
01441               1.80   -27200.00
01442               1.80   -27200.00
01443               1.20   -26400.00
01444               1.80   -26400.00
01445               2.20   -25600.00
01446               1.80   -25600.00
01447               1.20   -24800.00
01448               1.80   -24000.00
01449               2.00   -24000.00
01450               1.20   -24000.00
01451               1.40   -23200.00
01452               2.00   -22400.00
01453               1.00   -22400.00
01454               1.00   -21600.00
01455               2.20   -21600.00
01456               1.00   -20800.00
01457               0.40   -20000.00
01458               2.00   -19200.00
01459               1.80   -18400.00
01460               1.00   -18400.00
01461               1.00   -17600.00
01462               1.40   -17600.00
01463               1.40   -16800.00
01464               0.60   -16000.00
01465               1.20   -16000.00
01466               1.20   -16000.00
01467               1.00   -14400.00
01468               0.60   -14400.00
01469               1.00   -13600.00
01470               0.80   -13600.00
01471               0.00   -12800.00
01472               1.00   -12800.00
01473               1.00   -11200.00
01474               0.00   -11200.00
01475               0.60   -10400.00
01476               0.60    -9600.00
01477               0.40    -8800.00
01478               0.60    -8000.00
01479               0.20    -8000.00
01480               0.40    -7200.00
01481               0.20    -6400.00
01482               0.20    -6400.00
01483               0.20    -4800.00
01484              -0.20    -4000.00
01485               0.20    -3200.00
01486               0.20    -3200.00
01487              -0.20    -2400.00
01488              -0.20    -1600.00
01489              -0.20    -1600.00
01490              -0.20     -800.00
01491               0.20        0.00
01492               0.20      800.00
01493               0.60      800.00
01494               3.60     1600.00
01495               0.20     2400.00
01496              -2.00     3200.00
01497               1.20     3200.00
01498               0.40     4800.00
01499              -1.40     4800.00
01500               9.00     5600.00
01501              25.00     7200.00
01502             -18.00     8000.00
01503             -25.00     8000.00
01504              20.60     8800.00
01505              12.80     8800.00
01506             -25.00     8800.00
01507              25.00     9600.00
01508              25.00    11200.00
01509             -25.00    11200.00
01510              25.00    11200.00
01511             -18.00    12000.00
01512             -25.00    12800.00
01513              25.00    13600.00
01514             -25.00    14400.00
01515              25.00    14400.00
01516              -5.60    15200.00
01517             -25.00    16000.00
01518              25.00    16000.00
01519             -25.00    16000.00
01520             -22.60    17600.00
01521              25.00    17600.00
01522             -10.60    18400.00
01523             -25.00    19200.00
01524              25.00    20000.00
01525               5.80    20800.00
01526             -25.00    20800.00
01527              25.00    21600.00
01528             -14.00    21600.00
01529              -8.40    22400.00
01530              15.00    24000.00
01531             -19.80    24000.00
01532               4.60    24000.00
01533               2.20    24800.00
01534             -10.80    24800.00
01535               3.60    24800.00
01536              12.20    25600.00
01537             -23.60    25600.00
01538               9.80    25600.00
01539               3.80    27200.00
01540             -20.40    27200.00
01541              10.60    28000.00
01542               0.60    28000.00
01543             -10.20    28800.00
01544               1.80    28800.00
01545               3.60    28800.00
01546             -10.80    28800.00
01547               0.60    29600.00
01548               2.60    30400.00
01549              -9.20    30400.00
01550              -0.20    31200.00
01551              -0.20    31200.00
01552              -6.20    31200.00
01553               1.80    31200.00
01554              -2.20    32000.00
01555              -5.00    32800.00
01556               1.00    32800.00
01557              -4.80    32800.00
01558              -3.20    32800.00
01559               0.20    32800.00
01560              -5.20    33600.00
01561              -2.60    32800.00
01562               0.20    33600.00
01563              -4.00    33600.00
01564              -4.40    33600.00
01565              -0.60    34400.00
01566              -3.20    34400.00
01567              -4.20    33600.00
01568               0.20    34400.00
01569              -3.80    34400.00
01570              -2.60    34400.00
01571              -1.20    34400.00
01572              -4.40    34400.00
01573              -1.40    33600.00
01574              -3.00    34400.00
01575              -2.80    34400.00
01576              -1.40    34400.00
01577              -3.80    34400.00
01578              -2.80    34400.00
01579              -2.20    33600.00
01580              -2.60    33600.00
01581              -3.00    34400.00
01582              -2.20    34400.00
01583              -2.00    34400.00
01584              -3.80    33600.00
01585              -2.20    33600.00
01586              -2.60    33600.00
01587              -3.20    33600.00
01588              -2.00    33600.00
01589              -2.60    32800.00
01590              -2.60    32800.00
01591              -3.00    32800.00
01592              -3.60    32000.00
01593              -2.00    32800.00
01594              -2.60    32000.00
01595              -3.00    32000.00
01596              -2.60    32800.00
01597              -2.60    32000.00
01598              -2.80    31200.00
01599              -2.60    30400.00
01600              -2.20    30400.00
01601              -2.80    29600.00
01602              -2.80    29600.00
01603              -2.20    28800.00
01604              -3.00    28800.00
01605              -3.00    28800.00
01606              -2.60    28000.00
01607              -2.60    28000.00
01608              -2.20    28000.00
01609              -2.80    27200.00
01610              -2.40    26400.00
01611              -1.80    27200.00
01612              -2.80    26400.00
01613              -2.20    25600.00
01614              -2.60    24800.00
01615              -2.80    24800.00
01616              -2.00    24800.00
01617              -2.20    24000.00
01618              -2.20    24000.00
01619              -2.60    22400.00
01620              -2.20    22400.00
01621              -2.20    22400.00
01622              -2.80    21600.00
01623              -2.20    20800.00
01624              -2.80    20000.00
01625              -1.80    19200.00
01626              -1.80    19200.00
01627              -2.20    18400.00
01628              -1.40    18400.00
01629              -1.80    17600.00
01630              -2.00    17600.00
01631              -2.00    16800.00
01632              -2.00    16000.00
01633              -1.80    16000.00
01634              -2.00    15200.00
01635              -1.40    14400.00
01636              -2.00    14400.00
01637              -2.20    12800.00
01638              -1.20    12800.00
01639              -1.20    12000.00
01640              -1.40    11200.00
01641              -1.60    11200.00
01642              -1.40     9600.00
01643              -1.20     9600.00
01644              -1.80     8800.00
01645              -1.20     8000.00
01646              -1.20     8000.00
01647              -1.20     8000.00
01648              -1.20     6400.00
01649              -1.00     5600.00
01650              -1.20     4800.00
01651              -1.20     4800.00
01652              -1.00     4800.00
01653              -1.00     3200.00
01654              -0.80     3200.00
01655              -1.20     1600.00
01656              -0.60     1600.00
01657              -0.40      800.00
01658              -0.60        0.00
01659               0.20        0.00
01660               1.40     -800.00
01661               3.40    -1600.00
01662              -1.80    -1600.00
01663               0.20    -2400.00
01664               1.40    -3200.00
01665               0.40    -3200.00
01666              -0.20    -4000.00
01667               7.00    -4800.00
01668              24.20    -6400.00
01669               4.20    -8000.00
01670             -25.00    -8000.00
01671               0.20    -8000.00
01672              25.00    -8800.00
01673             -25.00    -9600.00
01674             -25.00    -9600.00
01675              25.00   -10400.00
01676              -9.40   -10400.00
01677             -25.00   -11200.00
01678              25.00   -12000.00
01679             -25.00   -12800.00
01680             -21.80   -13600.00
01681              25.00   -13600.00
01682             -21.40   -14400.00
01683              25.00   -15200.00
01684             -25.00   -15200.00
01685               4.20   -16000.00
01686              25.00   -16800.00
01687             -25.00   -17600.00
01688               1.80   -17600.00
01689              25.00   -17600.00
01690             -21.20   -18400.00
01691             -19.80   -19200.00
01692              25.00   -20000.00
01693             -16.80   -20000.00
01694             -15.80   -21600.00
01695              25.00   -21600.00
01696             -14.20   -21600.00
01697              -3.60   -22400.00
01698              11.40   -23200.00
01699              -6.80   -23200.00
01700               0.40   -24000.00
01701               6.60   -24000.00
01702              -3.20   -24000.00
01703               5.80   -24800.00
01704               4.60   -25600.00
01705              -9.60   -25600.00
01706              12.60   -26400.00
01707              -1.40   -26400.00
01708              -6.00   -27200.00
01709              11.80   -27200.00
01710              -0.20   -28800.00
01711              -3.80   -28800.00
01712               6.80   -28800.00
01713               3.00   -28800.00
01714              -3.80   -28800.00
01715               6.00   -29600.00
01716               2.60   -29600.00
01717              -2.80   -30400.00
01718               5.20   -30400.00
01719               1.80   -30400.00
01720               0.20   -30400.00
01721               5.00   -31200.00
01722               1.00   -31200.00
01723               1.20   -32000.00
01724               4.20   -32000.00
01725              -0.20   -32000.00
01726               2.00   -32800.00
01727               3.40   -32000.00
01728               1.00   -32800.00
01729               2.60   -32800.00
01730               2.20   -32800.00
01731               1.00   -33600.00
01732               1.20   -33600.00
01733               3.00   -33600.00
01734               1.60   -33600.00
01735               1.40   -33600.00
01736               3.60   -33600.00
01737               1.20   -33600.00
01738               2.20   -33600.00
01739               2.00   -33600.00
01740               1.40   -33600.00
01741               2.80   -33600.00
01742               1.20   -33600.00
01743               2.40   -33600.00
01744               2.20   -33600.00
01745               1.40   -33600.00
01746               2.60   -33600.00
01747               2.20   -33600.00
01748               2.00   -33600.00
01749               1.80   -33600.00
01750               2.40   -33600.00
01751               1.80   -32800.00
01752               1.20   -32800.00
01753               3.00   -32800.00
01754               2.20   -32800.00
01755               0.60   -32800.00
01756               3.40   -32800.00
01757               2.20   -32000.00
01758               1.00   -32000.00
01759               2.20   -32000.00
01760               2.20   -32000.00
01761               2.80   -30400.00
01762               1.20   -31200.00
01763               0.60   -31200.00
01764               4.40   -30400.00
01765               0.40   -30400.00
01766               0.40   -29600.00
01767               4.20   -30400.00
01768               1.20   -29600.00
01769               0.40   -28800.00
01770               5.00   -28800.00
01771               0.80   -28800.00
01772              -0.40   -28000.00
01773               4.60   -28000.00
01774               1.00   -27200.00
01775               1.00   -27200.00
01776               3.60   -26400.00
01777              -0.20   -25600.00
01778               1.80   -25600.00
01779               3.00   -25600.00
01780               0.00   -25600.00
01781               2.00   -24800.00
01782               2.80   -24000.00
01783               0.20   -24000.00
01784               1.40   -24000.00
01785               2.80   -23200.00
01786               1.00   -22400.00
01787               1.40   -21600.00
01788               2.60   -20800.00
01789               0.20   -20800.00
01790               0.80   -20800.00
01791               1.80   -20000.00
01792               0.60   -20000.00
01793               2.00   -18400.00
01794               1.40   -17600.00
01795               0.40   -17600.00
01796               1.60   -16800.00
01797               1.40   -16000.00
01798               0.20   -16000.00
01799               1.20   -16000.00
01800               1.80   -14400.00
01801               0.40   -14400.00
01802               1.00   -13600.00
01803               1.60   -13600.00
01804              -0.20   -12800.00
01805               0.40   -12000.00
01806               1.20   -11200.00
01807               0.20   -11200.00
01808              -0.20   -10400.00
01809               0.40    -9600.00
01810               0.40    -8800.00
01811               0.40    -8000.00
01812               0.20    -8000.00
01813               0.40    -7200.00
01814               0.20    -6400.00
01815               0.20    -6400.00
01816               0.40    -4800.00
01817               0.00    -4000.00
01818               0.20    -4000.00
01819               0.40    -3200.00
01820              -0.20    -3200.00
01821              -0.40    -2400.00
01822              -0.20     -800.00
01823              -0.40     -800.00
01824              -0.20     -800.00
01825               0.20      800.00
01826               0.40      800.00
01827               2.00     1600.00
01828               3.40     1600.00
01829              -2.20     2400.00
01830              -0.20     3200.00
01831               2.00     3200.00
01832              -1.40     4800.00
01833               2.60     4800.00
01834              23.60     6400.00
01835              19.00     7200.00
01836             -25.00     8000.00
01837              -8.60     8800.00
01838              25.00     8000.00
01839             -25.00     8800.00
01840             -10.80     9600.00
01841              25.00    11200.00
01842             -25.00    10400.00
01843              14.20    12000.00
01844              25.00    12000.00
01845             -25.00    12000.00
01846              25.00    13600.00
01847             -25.00    14400.00
01848              -0.60    14400.00
01849              25.00    15200.00
01850             -25.00    15200.00
01851              25.00    16800.00
01852              25.00    16000.00
01853             -25.00    17600.00
01854              25.00    17600.00
01855              22.80    18400.00
01856             -25.00    19200.00
01857              -0.80    18400.00
01858              25.00    20000.00
01859             -25.00    20800.00
01860              12.20    21600.00
01861              23.60    21600.00
01862             -25.00    22400.00
01863              18.60    22400.00
01864             -12.40    24000.00
01865              -7.00    24000.00
01866               7.60    24000.00
01867              -5.80    24800.00
01868              -6.60    24800.00
01869              15.60    25600.00
01870             -13.00    25600.00
01871             -10.60    26400.00
01872              18.00    26400.00
01873             -19.00    27200.00
01874              -1.00    27200.00
01875               9.40    28000.00
01876              -9.20    28000.00
01877              -4.60    28800.00
01878               5.40    28800.00
01879              -5.20    28800.00
01880              -6.60    30400.00
01881               5.60    30400.00
01882              -6.20    31200.00
01883              -5.00    31200.00
01884               2.20    31200.00
01885              -6.00    31200.00
01886              -1.20    31200.00
01887               1.00    32000.00
01888              -6.20    32000.00
01889              -0.20    32800.00
01890              -2.00    32800.00
01891              -5.60    32800.00
01892               0.40    32800.00
01893              -2.60    32800.00
01894              -3.40    33600.00
01895              -0.20    33600.00
01896              -2.20    33600.00
01897              -4.80    33600.00
01898              -2.20    33600.00
01899              -1.20    33600.00
01900              -4.40    33600.00
01901              -1.60    34400.00
01902              -2.00    34400.00
01903              -4.20    34400.00
01904              -0.60    34400.00
01905              -3.60    34400.00
01906              -2.80    34400.00
01907              -2.00    34400.00
01908              -3.60    34400.00
01909              -1.20    34400.00
01910              -3.00    34400.00
01911              -3.20    34400.00
01912              -2.20    34400.00
01913              -2.40    34400.00
01914              -3.00    34400.00
01915              -3.40    34400.00
01916              -1.80    34400.00
01917              -3.40    33600.00
01918              -3.40    33600.00
01919              -1.00    33600.00
01920              -3.00    32800.00
01921              -3.60    33600.00
01922              -1.20    33600.00
01923              -2.20    32800.00
01924              -3.80    33600.00
01925              -2.80    32800.00
01926              -1.20    32800.00
01927              -3.60    32800.00
01928              -3.00    32000.00
01929              -2.20    32000.00
01930              -3.40    31200.00
01931              -2.60    31200.00
01932              -2.80    31200.00
01933              -3.00    31200.00
01934              -2.60    30400.00
01935              -3.80    30400.00
01936              -1.80    29600.00
01937              -2.00    28800.00
01938              -4.00    28800.00
01939              -2.00    28800.00
01940              -1.80    28000.00
01941              -3.80    28000.00
01942              -2.20    27200.00
01943              -1.40    27200.00
01944              -3.80    27200.00
01945              -2.20    27200.00
01946              -1.20    25600.00
01947              -3.60    25600.00
01948              -2.80    25600.00
01949              -1.00    24000.00
01950              -3.40    24000.00
01951              -2.20    24000.00
01952              -1.40    23200.00
01953              -3.40    22400.00
01954              -2.20    22400.00
01955              -1.40    21600.00
01956              -3.00    21600.00
01957              -2.60    20800.00
01958              -1.20    20000.00
01959              -2.20    19200.00
01960              -2.80    19200.00
01961              -1.20    18400.00
01962              -2.20    17600.00
01963              -2.60    17600.00
01964              -1.20    17600.00
01965              -1.80    16000.00
01966              -2.00    15200.00
01967              -2.00    15200.00
01968              -1.00    14400.00
01969              -1.40    13600.00
01970              -2.20    14400.00
01971              -1.20    12800.00
01972              -1.00    12800.00
01973              -2.00    12000.00
01974              -1.40    11200.00
01975              -1.20    11200.00
01976              -1.20    10400.00
01977              -1.60     9600.00
01978              -1.40     8800.00
01979              -1.60     8000.00
01980              -1.20     8000.00
01981              -1.20     7200.00
01982              -0.80     5600.00
01983              -1.00     5600.00
01984              -0.60     4800.00
01985              -1.20     4800.00
01986              -0.60     3200.00
01987              -0.60     3200.00
01988              -1.00     2400.00
01989              -1.00     1600.00
01990              -0.60     1600.00
01991              -1.20        0.00
01992              -0.20        0.00
01993               0.40     -800.00
01994               2.80    -1600.00
01995               0.20    -1600.00
01996              -1.80    -2400.00
01997               1.00    -2400.00
01998               0.60    -3200.00
01999              -0.80    -4000.00
02000               2.80    -4000.00
02001              15.80    -4800.00
02002              25.00    -7200.00
02003             -25.00    -8000.00
02004             -25.00    -8000.00
02005              25.00    -8800.00
02006              -0.80    -9600.00
02007             -25.00    -8800.00
02008              25.00    -9600.00
02009              25.00   -10400.00
02010             -25.00   -10400.00
02011              25.00   -12000.00
02012              25.00   -12800.00
02013             -25.00   -12800.00
02014              25.00   -14400.00
02015             -11.40   -13600.00
02016              10.60   -14400.00
02017               4.20   -14400.00
02018             -25.00   -16000.00
02019              25.00   -16000.00
02020             -11.00   -16800.00
02021             -25.00   -17600.00
02022              25.00   -17600.00
02023               6.00   -18400.00
02024             -25.00   -19200.00
02025              20.60   -19200.00
02026              19.60   -20000.00
02027             -25.00   -20000.00
02028              25.00   -20800.00
02029              10.00   -21600.00
02030             -18.20   -22400.00
02031              12.80   -22400.00
02032              -0.60   -22400.00
02033              -5.00   -24000.00
02034               5.40   -24000.00
02035               2.20   -24800.00
02036              -1.20   -24800.00
02037              10.80   -25600.00
02038              -8.60   -25600.00
02039               2.60   -26400.00
02040               9.40   -26400.00
02041             -10.80   -27200.00
02042               7.00   -27200.00
02043               6.80   -27200.00
02044              -4.60   -28800.00
02045               2.00   -28800.00
02046               7.40   -28800.00
02047              -3.40   -28800.00
02048               1.40   -28800.00
02049               6.60   -29600.00
02050              -2.60   -29600.00
02051               2.00   -30400.00
02052               4.20   -30400.00
02053              -0.60   -30400.00
02054               3.40   -31200.00
02055               3.40   -31200.00
02056              -0.40   -32000.00
02057               3.80   -32000.00
02058               1.40   -32000.00
02059               0.20   -32800.00
02060               3.60   -32000.00
02061               1.60   -32800.00
02062               2.20   -32800.00
02063               2.80   -32800.00
02064               1.80   -33600.00
02065               0.60   -33600.00
02066               2.60   -33600.00
02067               2.40   -33600.00
02068               1.00   -33600.00
02069               3.00   -33600.00
02070               2.20   -33600.00
02071               1.40   -33600.00
02072               2.60   -33600.00
02073               1.20   -33600.00
02074               2.60   -33600.00
02075               2.00   -33600.00
02076               2.00   -33600.00
02077               2.80   -33600.00
02078               1.40   -33600.00
02079               2.00   -33600.00
02080               2.60   -33600.00
02081               2.20   -33600.00
02082               2.00   -33600.00
02083               1.80   -32800.00
02084               2.20   -33600.00
02085               1.80   -32800.00
02086               2.00   -32800.00
02087               2.20   -32800.00
02088               2.00   -32800.00
02089               2.60   -32800.00
02090               1.40   -32000.00
02091               2.00   -32800.00
02092               2.60   -32000.00
02093               2.00   -32000.00
02094               2.20   -32000.00
02095               2.20   -32000.00
02096               2.60   -32000.00
02097               2.00   -30400.00
02098               1.60   -29600.00
02099               2.60   -30400.00
02100               2.00   -29600.00
02101               1.40   -30400.00
02102               2.20   -29600.00
02103               1.80   -28800.00
02104               2.00   -28800.00
02105               1.40   -28800.00
02106               2.00   -28000.00
02107               2.80   -27200.00
02108               1.40   -27200.00
02109               1.60   -27200.00
02110               2.00   -26400.00
02111               1.40   -26400.00
02112               1.80   -25600.00
02113               2.00   -25600.00
02114               2.00   -24800.00
02115               1.00   -24000.00
02116               1.20   -24000.00
02117               1.80   -23200.00
02118               2.00   -22400.00
02119               1.20   -22400.00
02120               1.40   -21600.00
02121               2.60   -21600.00
02122               1.00   -20800.00
02123               0.60   -20000.00
02124               2.20   -20000.00
02125               0.60   -20000.00
02126               0.20   -18400.00
02127               2.20   -18400.00
02128               1.00   -17600.00
02129               0.40   -17600.00
02130               1.20   -17600.00
02131               1.20   -16000.00
02132               0.40   -16000.00
02133               0.60   -15200.00
02134               1.40   -14400.00
02135               0.60   -13600.00
02136               0.20   -12800.00
02137               0.40   -12800.00
02138               0.40   -12800.00
02139               1.00   -12000.00
02140               0.40   -11200.00
02141               0.80   -10400.00
02142               0.40   -10400.00
02143               0.20    -9600.00
02144               0.60    -8800.00
02145               0.40    -8000.00
02146               0.40    -7200.00
02147               0.40    -7200.00
02148               0.40    -6400.00
02149               0.20    -5600.00
02150               0.40    -4800.00
02151               0.20    -4000.00
02152               0.80    -4000.00
02153               0.20    -3200.00
02154              -0.20    -1600.00
02155               0.20    -1600.00
02156              -0.40    -1600.00
02157              -0.40        0.00
02158               0.20        0.00
02159               0.60      800.00
02160               1.00     1600.00
02161               3.60     1600.00
02162              -1.20     2400.00
02163              -1.00     2400.00
02164               1.00     3200.00
02165              -0.20     3200.00
02166              -0.40     4800.00
02167              11.80     5600.00
02168              25.00     7200.00
02169             -25.00     8000.00
02170             -25.00     8000.00
02171              25.00     8800.00
02172               1.80     8800.00
02173             -25.00     8800.00
02174              25.00    11200.00
02175               8.40    10400.00
02176             -25.00    11200.00
02177              25.00    12000.00
02178             -25.00    12000.00
02179              -2.00    12800.00
02180              25.00    12800.00
02181             -25.00    14400.00
02182              25.00    14400.00
02183             -25.00    15200.00
02184             -25.00    16000.00
02185              25.00    16000.00
02186             -25.00    16800.00
02187              -3.60    17600.00
02188              25.00    18400.00
02189             -22.00    18400.00
02190             -25.00    19200.00
02191              25.00    19200.00
02192             -10.80    20800.00
02193             -25.00    20800.00
02194              25.00    21600.00
02195             -24.40    22400.00
02196               1.20    22400.00
02197               7.40    23200.00
02198             -17.60    24000.00
02199               8.20    24000.00
02200              -0.20    24800.00
02201             -11.00    24800.00
02202               7.80    24800.00
02203               6.20    25600.00
02204             -23.40    26400.00
02205              15.20    26400.00
02206              -3.00    27200.00
02207             -17.00    27200.00
02208              11.60    28000.00
02209              -2.60    28000.00
02210              -9.00    28000.00
02211               2.80    28800.00
02212               1.40    28800.00
02213             -10.20    28800.00
02214               2.60    30400.00
02215               0.20    30400.00
02216              -8.20    31200.00
02217               1.80    30400.00
02218              -1.80    31200.00
02219              -5.20    31200.00
02220               2.60    31200.00
02221              -4.20    32000.00
02222              -3.80    32000.00
02223               0.80    32800.00
02224              -6.00    32800.00
02225              -2.40    32000.00
02226              -0.60    32800.00
02227              -3.80    33600.00
02228              -1.20    33600.00
02229              -0.60    33600.00
02230              -3.80    33600.00
02231              -3.60    34400.00
02232              -1.00    33600.00
02233              -3.20    33600.00
02234              -2.80    34400.00
02235              -0.60    34400.00
02236              -4.40    34400.00
02237              -1.80    34400.00
02238              -2.20    34400.00
02239              -4.40    34400.00
02240              -1.20    34400.00
02241              -3.60    34400.00
02242              -2.00    34400.00
02243              -1.40    33600.00
02244              -3.80    34400.00
02245              -2.20    33600.00
02246              -2.00    34400.00
02247              -2.20    34400.00
02248              -3.40    34400.00
02249              -2.40    34400.00
02250              -2.60    33600.00
02251              -3.40    33600.00
02252              -1.80    33600.00
02253              -2.80    33600.00
02254              -2.80    33600.00
02255              -2.20    33600.00
02256              -3.00    32800.00
02257              -2.80    33600.00
02258              -3.00    32800.00
02259              -2.80    32000.00
02260              -2.00    32800.00
02261              -3.00    32000.00
02262              -2.80    32000.00
02263              -2.60    31200.00
02264              -2.80    31200.00
02265              -2.20    31200.00
02266              -2.80    31200.00
02267              -3.00    30400.00
02268              -2.60    30400.00
02269              -2.80    29600.00
02270              -2.60    28800.00
02271              -2.80    28800.00
02272              -2.60    28800.00
02273              -3.00    28000.00
02274              -2.20    28800.00
02275              -2.20    28000.00
02276              -3.40    27200.00
02277              -2.00    27200.00
02278              -2.20    27200.00
02279              -2.60    26400.00
02280              -2.00    25600.00
02281              -2.60    24800.00
02282              -2.40    24800.00
02283              -2.60    24800.00
02284              -2.20    24000.00
02285              -2.20    24000.00
02286              -2.60    22400.00
02287              -2.20    23200.00
02288              -2.20    21600.00
02289              -2.20    21600.00
02290              -2.60    20800.00
02291              -2.00    20800.00
02292              -1.20    20000.00
02293              -1.80    19200.00
02294              -2.20    19200.00
02295              -1.40    18400.00
02296              -2.20    17600.00
02297              -1.80    17600.00
02298              -1.60    16800.00
02299              -2.00    15200.00
02300              -2.20    16000.00
02301              -1.40    14400.00
02302              -1.80    14400.00
02303              -2.20    14400.00
02304              -2.00    12800.00
02305              -1.20    12800.00
02306              -1.40    12000.00
02307              -1.40    11200.00
02308              -1.80    11200.00
02309              -1.20    10400.00
02310              -1.40     9600.00
02311              -1.20     8800.00
02312              -0.80     8000.00
02313              -1.20     8000.00
02314              -1.40     7200.00
02315              -1.20     6400.00
02316              -1.00     5600.00
02317              -1.00     5600.00
02318              -1.40     4800.00
02319              -1.00     4000.00
02320              -0.60     3200.00
02321              -1.20     3200.00
02322              -1.20     2400.00
02323              -0.20     1600.00
02324              -1.00      800.00
02325              -0.60        0.00
02326               0.20     -800.00
02327               1.40     -800.00
02328               2.20    -1600.00
02329              -2.20    -1600.00
02330               0.20    -2400.00
02331               1.20    -3200.00
02332              -0.20    -3200.00
02333               0.40    -4000.00
02334               8.80    -4800.00
02335              25.00    -6400.00
02336              -7.80    -8000.00
02337             -25.00    -8000.00
02338              10.00    -8000.00
02339              23.40    -8000.00
02340             -25.00    -9600.00
02341             -12.60    -9600.00
02342              25.00   -10400.00
02343             -25.00   -10400.00
02344             -25.00   -11200.00
02345              25.00   -12000.00
02346             -25.00   -12800.00
02347              -3.60   -12800.00
02348              21.60   -13600.00
02349             -15.40   -14400.00
02350              25.00   -15200.00
02351             -25.00   -14400.00
02352              18.80   -16000.00
02353              25.00   -16000.00
02354             -25.00   -16800.00
02355              13.20   -17600.00
02356              25.00   -18400.00
02357             -25.00   -19200.00
02358              -9.80   -19200.00
02359              25.00   -20000.00
02360             -25.00   -20000.00
02361              -2.80   -20800.00
02362              25.00   -20800.00
02363             -14.20   -22400.00
02364              -1.00   -22400.00
02365               3.60   -23200.00
02366              -1.20   -23200.00
02367              -0.60   -24000.00
02368              16.00   -24000.00
02369              -8.20   -24800.00
02370               7.60   -25600.00
02371               4.40   -25600.00
02372             -15.80   -26400.00
02373              14.80   -26400.00
02374              -6.20   -26400.00
02375              -0.80   -27200.00
02376              12.20   -27200.00
02377              -1.80   -27200.00
02378               0.60   -28800.00
02379               6.20   -28800.00
02380               1.40   -28800.00
02381              -4.40   -29600.00
02382               4.20   -29600.00
02383               0.40   -29600.00
02384              -2.00   -30400.00
02385               4.20   -30400.00
02386               2.40   -30400.00
02387               4.40   -30400.00
02388               5.40   -31200.00
02389              -0.20   -32000.00
02390              -0.20   -32000.00
02391               0.00   -32000.00
02392               0.20   -32000.00
02393               0.60   -32800.00
02394               2.80   -32800.00
02395               4.40   -32800.00
02396               3.80   -32800.00
02397               2.20   -33600.00
02398               2.40   -33600.00
02399               0.40   -33600.00
02400               0.20   -33600.00
02401               1.20   -33600.00
02402               1.00   -33600.00
02403               2.80   -33600.00
02404               3.40   -33600.00
02405               3.80   -33600.00
02406               2.60   -33600.00
02407               1.60   -34400.00
02408               1.40   -33600.00
02409               1.40   -33600.00
02410               1.00   -34400.00
02411               1.00   -33600.00
02412               2.60   -33600.00
02413               3.40   -33600.00
02414               3.40   -33600.00
02415               3.60   -33600.00
02416               1.20   -33600.00
02417               1.40   -33600.00
02418               2.00   -32800.00
02419               0.40   -32800.00
02420               1.40   -32800.00
02421               3.40   -32800.00
02422               2.60   -32800.00
02423               2.60   -32800.00
02424               2.00   -32800.00
02425               1.80   -32000.00
02426               2.80   -32000.00
02427               2.60   -32000.00
02428               1.20   -32000.00
02429               2.00   -32000.00
02430               2.00   -32000.00
02431               1.80   -30400.00
02432               3.40   -30400.00
02433               2.60   -30400.00
02434               1.20   -29600.00
02435               2.60   -29600.00
02436               1.80   -28800.00
02437               1.20   -28800.00
02438               2.20   -28800.00
02439               1.80   -28000.00
02440               1.20   -27200.00
02441               3.40   -27200.00
02442               2.00   -27200.00
02443               0.40   -26400.00
02444               2.20   -25600.00
02445               2.40   -25600.00
02446               1.40   -25600.00
02447               2.40   -24800.00
02448               1.80   -24000.00
02449               0.40   -24000.00
02450               2.00   -24000.00
02451               1.20   -23200.00
02452               0.60   -22400.00
02453               2.00   -22400.00
02454               1.80   -21600.00
02455               1.00   -20800.00
02456               1.60   -20800.00
02457               0.80   -20800.00
02458               0.80   -20000.00
02459               1.60   -19200.00
02460               1.00   -18400.00
02461               0.40   -18400.00
02462               1.60   -17600.00
02463               1.00   -17600.00
02464               1.00   -16800.00
02465               1.40   -16000.00
02466               0.60   -16000.00
02467               1.00   -15200.00
02468               1.00   -14400.00
02469               0.40   -14400.00
02470               0.40   -13600.00
02471               0.60   -12800.00
02472               0.80   -12000.00
02473               1.00   -11200.00
02474               0.20   -10400.00
02475               0.40   -10400.00
02476               0.40    -9600.00
02477              -0.20    -8800.00
02478               0.60    -8000.00
02479               1.00    -8000.00
02480               0.60    -7200.00
02481               0.40    -7200.00
02482               0.40    -6400.00
02483               0.40    -4800.00
02484              -0.20    -4800.00
02485               0.40    -4000.00
02486               0.20    -3200.00
02487               0.20    -3200.00
02488               0.00    -1600.00
02489               0.00    -1600.00
02490              -0.20     -800.00
02491               0.20        0.00
02492               0.40      800.00
02493               0.60      800.00
02494               2.60     1600.00
02495               2.20     1600.00
02496              -2.20     2400.00
02497               0.40     3200.00
02498               1.40     4000.00
02499              -1.20     4800.00
02500               5.00     4800.00
02501              25.00     7200.00
02502               6.00     8000.00
02503             -25.00     8000.00
02504               3.00     8800.00
02505              25.00     8800.00
02506             -25.00     8800.00
02507               9.20     9600.00
02508              25.00    11200.00
02509             -25.00    10400.00
02510              25.00    11200.00
02511              25.00    12000.00
02512             -25.00    12800.00
02513              25.00    12800.00
02514             -25.00    14400.00
02515              25.00    14400.00
02516              25.00    15200.00
02517             -25.00    16000.00
02518              25.00    16800.00
02519               2.80    17600.00
02520             -25.00    17600.00
02521              25.00    17600.00
02522              11.40    18400.00
02523             -25.00    19200.00
02524              13.00    19200.00
02525              25.00    20800.00
02526             -25.00    21600.00
02527              25.00    21600.00
02528              10.20    21600.00
02529             -23.40    22400.00
02530              19.80    22400.00
02531             -17.80    22400.00
02532              -2.80    24000.00
02533               6.20    24800.00
02534              -7.80    24800.00
02535              -3.60    24800.00
02536              16.60    24800.00
02537             -18.60    25600.00
02538              -3.40    26400.00
02539              14.80    27200.00
02540             -21.40    27200.00
02541               4.20    28000.00
02542               7.00    27200.00
02543             -10.20    28800.00
02544              -2.60    28800.00
02545               5.80    28800.00
02546              -8.20    30400.00
02547              -4.00    29600.00
02548               5.20    30400.00
02549              -7.80    30400.00
02550              -3.00    30400.00
02551               1.80    32000.00
02552              -6.60    31200.00
02553               0.40    31200.00
02554               0.20    32800.00
02555              -6.00    32000.00
02556               1.00    32800.00
02557              -3.40    32800.00
02558              -5.00    32800.00
02559               0.40    32800.00
02560              -3.60    33600.00
02561              -2.80    33600.00
02562               0.40    33600.00
02563              -2.80    33600.00
02564              -4.40    33600.00
02565              -1.80    34400.00
02566              -2.00    33600.00
02567              -4.40    34400.00
02568              -0.80    33600.00
02569              -2.60    34400.00
02570              -3.80    34400.00
02571              -0.40    35200.00
02572              -3.80    34400.00
02573              -2.20    33600.00
02574              -2.20    35200.00
02575              -3.40    34400.00
02576              -1.20    35200.00
02577              -3.80    34400.00
02578              -3.00    34400.00
02579              -2.00    34400.00
02580              -2.20    34400.00
02581              -3.40    34400.00
02582              -3.60    33600.00
02583              -1.80    33600.00
02584              -3.60    34400.00
02585              -3.00    33600.00
02586              -1.40    33600.00
02587              -3.00    33600.00
02588              -3.00    33600.00
02589              -2.00    33600.00
02590              -2.20    32800.00
02591              -3.40    32800.00
02592              -3.40    32800.00
02593              -1.20    32000.00
02594              -3.20    32800.00
02595              -3.40    32000.00
02596              -2.20    32000.00
02597              -2.80    32000.00
02598              -2.80    31200.00
02599              -2.20    31200.00
02600              -2.20    30400.00
02601              -3.40    30400.00
02602              -2.80    29600.00
02603              -1.40    29600.00
02604              -3.00    28800.00
02605              -3.40    29600.00
02606              -0.60    28000.00
02607              -3.00    28000.00
02608              -3.20    28000.00
02609              -2.00    28000.00
02610              -2.80    27200.00
02611              -3.00    26400.00
02612              -1.80    26400.00
02613              -1.40    25600.00
02614              -3.60    25600.00
02615              -2.60    24800.00
02616              -1.20    24800.00
02617              -3.00    24800.00
02618              -2.00    24000.00
02619              -1.20    23200.00
02620              -2.40    22400.00
02621              -2.20    21600.00
02622              -2.00    22400.00
02623              -2.60    20800.00
02624              -3.00    20800.00
02625              -1.40    20000.00
02626              -1.20    19200.00
02627              -2.80    19200.00
02628              -2.00    18400.00
02629              -1.40    17600.00
02630              -1.80    17600.00
02631              -2.20    16000.00
02632              -1.00    16000.00
02633              -1.40    15200.00
02634              -2.80    15200.00
02635              -1.20    14400.00
02636              -1.20    14400.00
02637              -2.20    13600.00
02638              -1.00    12800.00
02639              -0.60    12800.00
02640              -1.80    11200.00
02641              -2.00    11200.00
02642              -1.80    11200.00
02643              -1.00     9600.00
02644              -2.00     9600.00
02645              -1.20     8800.00
02646              -0.60     8000.00
02647              -1.80     7200.00
02648              -1.40     6400.00
02649              -0.60     6400.00
02650              -1.40     5600.00
02651              -1.20     4800.00
02652              -0.60     4000.00
02653              -1.40     3200.00
02654              -1.20     3200.00
02655              -0.60     2400.00
02656              -1.20     1600.00
02657              -0.80     1600.00
02658              -0.20        0.00
02659              -0.40        0.00
02660               0.20     -800.00
02661               3.20     -800.00
02662              -1.00    -1600.00
02663              -1.00    -1600.00
02664               1.40    -3200.00
02665               0.60    -3200.00
02666              -0.80    -4000.00
02667               4.40    -4800.00
02668              18.80    -5600.00
02669              19.60    -7200.00
02670             -25.00    -8000.00
02671             -18.20    -8000.00
02672              25.00    -8800.00
02673             -11.80    -8800.00
02674             -25.00    -8800.00
02675              25.00    -9600.00
02676              25.00   -10400.00
02677             -25.00   -10400.00
02678              25.00   -12800.00
02679              17.20   -11200.00
02680             -25.00   -12800.00
02681              25.00   -13600.00
02682             -19.00   -13600.00
02683              19.00   -14400.00
02684              -9.00   -15200.00
02685             -20.80   -16000.00
02686              25.00   -16000.00
02687             -24.60   -16000.00
02688             -17.40   -17600.00
02689              25.00   -17600.00
02690              -4.40   -19200.00
02691             -25.00   -18400.00
02692              25.00   -19200.00
02693               7.40   -20000.00
02694             -25.00   -20800.00
02695              25.00   -20800.00
02696               0.80   -21600.00
02697             -14.00   -22400.00
02698              13.80   -22400.00
02699              -3.20   -23200.00
02700              -3.20   -23200.00
02701               6.20   -24000.00
02702               0.40   -24800.00
02703               0.40   -24800.00
02704               9.40   -25600.00
02705             -10.00   -25600.00
02706               6.80   -26400.00
02707               5.80   -26400.00
02708             -10.20   -26400.00
02709               9.00   -27200.00
02710               4.20   -28000.00
02711              -5.00   -28000.00
02712               3.80   -28800.00
02713               6.60   -28800.00
02714              -4.40   -29600.00
02715               2.80   -28800.00
02716               5.40   -30400.00
02717              -3.60   -29600.00
02718               3.00   -30400.00
02719               3.00   -30400.00
02720              -0.80   -30400.00
02721               3.80   -31200.00
02722               2.60   -32000.00
02723              -0.40   -32000.00
02724               3.60   -32000.00
02725               0.80   -32000.00
02726               0.60   -32000.00
02727               3.60   -32800.00
02728               1.20   -32800.00
02729               2.20   -33600.00
02730               2.60   -32800.00
02731               1.00   -33600.00
02732               1.00   -32800.00
02733               2.80   -33600.00
02734               2.00   -33600.00
02735               1.20   -32800.00
02736               3.60   -33600.00
02737               1.40   -33600.00
02738               2.00   -33600.00
02739               2.60   -33600.00
02740               1.20   -33600.00
02741               2.80   -32800.00
02742               2.00   -33600.00
02743               2.20   -33600.00
02744               2.60   -33600.00
02745               1.40   -33600.00
02746               2.40   -33600.00
02747               2.60   -33600.00
02748               2.00   -33600.00
02749               2.00   -33600.00
02750               2.20   -33600.00
02751               2.20   -33600.00
02752               1.40   -32800.00
02753               2.40   -32800.00
02754               2.20   -32800.00
02755               2.20   -32800.00
02756               2.40   -32000.00
02757               2.00   -32800.00
02758               2.60   -32000.00
02759               2.00   -32800.00
02760               2.00   -32000.00
02761               2.80   -32000.00
02762               1.80   -32000.00
02763               2.00   -30400.00
02764               3.60   -30400.00
02765               1.00   -30400.00
02766               2.00   -30400.00
02767               3.00   -29600.00
02768               1.80   -29600.00
02769               1.00   -29600.00
02770               2.60   -28800.00
02771               2.40   -28800.00
02772               0.80   -28800.00
02773               2.00   -28000.00
02774               2.80   -27200.00
02775               1.00   -26400.00
02776               1.80   -27200.00
02777               2.00   -26400.00
02778               1.20   -26400.00
02779               1.80   -25600.00
02780               2.00   -25600.00
02781               1.40   -24800.00
02782               1.00   -24000.00
02783               1.40   -24000.00
02784               1.80   -23200.00
02785               0.80   -23200.00
02786               1.20   -22400.00
02787               2.00   -22400.00
02788               1.80   -20800.00
02789               1.00   -20800.00
02790               1.20   -20000.00
02791               2.00   -20000.00
02792               0.40   -19200.00
02793               1.80   -18400.00
02794               1.20   -17600.00
02795               0.20   -17600.00
02796               1.40   -17600.00
02797               1.40   -16800.00
02798               0.40   -16000.00
02799               1.00   -16000.00
02800               1.00   -15200.00
02801               0.60   -14400.00
02802               1.20   -14400.00
02803               1.00   -12800.00
02804               0.60   -12800.00
02805               1.00   -12800.00
02806               0.80   -11200.00
02807               0.20   -11200.00
02808               0.60   -10400.00
02809               0.60    -9600.00
02810               0.20    -9600.00
02811               0.80    -8000.00
02812               0.40    -8000.00
02813               0.40    -7200.00
02814               0.40    -6400.00
02815               0.20    -6400.00
02816               0.40    -4800.00
02817               0.60    -4000.00
02818               0.20    -4000.00
02819               0.20    -3200.00
02820               0.60    -3200.00
02821              -0.20    -1600.00
02822               0.20    -1600.00
02823               0.20     -800.00
02824              -0.20     -800.00
02825               0.20      800.00
02826               0.60      800.00
02827               1.00     1600.00
02828               3.60     1600.00
02829              -1.80     2400.00
02830              -0.60     2400.00
02831               2.00     3200.00
02832              -1.20     4800.00
02833               0.60     4800.00
02834              16.60     6400.00
02835              25.00     7200.00
02836             -25.00     8000.00
02837             -25.00     8000.00
02838              25.00     8800.00
02839             -12.20     8800.00
02840             -25.00     8800.00
02841              25.00    10400.00
02842             -20.20    10400.00
02843             -25.00    11200.00
02844              25.00    12000.00
02845             -25.00    12800.00
02846              21.20    12800.00
02847              13.20    12800.00
02848             -25.00    13600.00
02849              25.00    15200.00
02850             -25.00    15200.00
02851               3.40    16000.00
02852              25.00    16000.00
02853             -25.00    16800.00
02854              15.40    17600.00
02855              25.00    18400.00
02856             -25.00    18400.00
02857             -24.40    19200.00
02858              25.00    20000.00
02859             -25.00    20800.00
02860             -16.00    21600.00
02861              25.00    21600.00
02862             -25.00    21600.00
02863               8.40    23200.00
02864              -0.20    24000.00
02865             -14.60    23200.00
02866               8.40    24000.00
02867              -1.40    24000.00
02868             -10.20    24800.00
02869              11.00    25600.00
02870              -1.00    25600.00
02871             -19.80    26400.00
02872              19.00    27200.00
02873             -10.60    27200.00
02874             -11.80    27200.00
02875              12.20    28000.00
02876              -5.60    28000.00
02877              -8.40    28800.00
02878               5.00    28800.00
02879               0.20    28800.00
02880             -10.20    29600.00
02881               4.40    30400.00
02882              -2.20    30400.00
02883              -7.60    30400.00
02884               2.00    31200.00
02885              -3.00    31200.00
02886              -3.80    31200.00
02887               2.20    31200.00
02888              -4.80    32000.00
02889              -2.20    32800.00
02890              -0.40    32000.00
02891              -6.00    32800.00
02892              -1.00    32800.00
02893              -1.80    32800.00
02894              -4.20    33600.00
02895              -0.40    33600.00
02896              -1.20    33600.00
02897              -3.80    33600.00
02898              -3.00    33600.00
02899              -1.00    34400.00
02900              -4.00    33600.00
02901              -2.60    34400.00
02902              -1.20    33600.00
02903              -5.00    34400.00
02904              -1.00    34400.00
02905              -2.20    34400.00
02906              -4.20    34400.00
02907              -1.80    34400.00
02908              -3.80    34400.00
02909              -1.40    34400.00
02910              -2.20    34400.00
02911              -3.80    34400.00
02912              -2.00    34400.00
02913              -2.00    33600.00
02914              -2.80    34400.00
02915              -3.60    34400.00
02916              -2.20    34400.00
02917              -3.00    33600.00
02918              -3.40    34400.00
02919              -2.00    33600.00
02920              -3.60    33600.00
02921              -2.80    33600.00
02922              -2.20    33600.00
02923              -3.00    32800.00
02924              -2.60    32800.00
02925              -3.40    32800.00
02926              -2.60    32800.00
02927              -2.20    32800.00
02928              -3.00    32000.00
02929              -2.20    32800.00
02930              -2.40    31200.00
02931              -2.80    31200.00
02932              -2.40    31200.00
02933              -2.80    31200.00
02934              -2.80    31200.00
02935              -2.80    30400.00
02936              -2.60    30400.00
02937              -2.60    29600.00
02938              -2.80    28800.00
02939              -2.20    28800.00
02940              -2.20    28000.00
02941              -2.00    28000.00
02942              -2.20    28000.00
02943              -3.00    27200.00
02944              -1.80    27200.00
02945              -2.20    27200.00
02946              -2.20    26400.00
02947              -2.00    25600.00
02948              -2.60    24800.00
02949              -2.20    24800.00
02950              -2.00    24000.00
02951              -2.20    24000.00
02952              -2.60    24000.00
02953              -2.20    23200.00
02954              -1.60    22400.00
02955              -2.20    22400.00
02956              -2.40    21600.00
02957              -2.20    20800.00
02958              -2.00    20000.00
02959              -1.40    19200.00
02960              -2.00    19200.00
02961              -2.00    18400.00
02962              -1.80    18400.00
02963              -2.20    17600.00
02964              -1.20    16800.00
02965              -1.80    16000.00
02966              -2.00    16000.00
02967              -1.80    15200.00
02968              -1.60    15200.00
02969              -2.00    14400.00
02970              -1.60    13600.00
02971              -1.80    12800.00
02972              -1.20    12800.00
02973              -1.80    12000.00
02974              -1.60    12000.00
02975              -1.40    11200.00
02976              -1.20    10400.00
02977              -2.00     9600.00
02978              -1.20     8800.00
02979              -1.00     8800.00
02980              -1.40     8000.00
02981              -1.60     7200.00
02982              -1.00     6400.00
02983              -1.20     5600.00
02984              -1.20     5600.00
02985              -1.40     4000.00
02986              -1.20     4000.00
02987              -0.80     3200.00
02988              -1.20     2400.00
02989              -1.20     1600.00
02990              -1.00     1600.00
02991              -0.60      800.00
02992              -0.40        0.00
02993               0.20     -800.00
02994               2.00     -800.00
02995               1.40    -1600.00
02996              -2.20    -1600.00
02997               0.40    -3200.00
02998               1.00    -3200.00
02999              -0.60    -3200.00
03000               1.20    -4000.00
03001              11.00    -4800.00
03002              25.00    -6400.00
03003             -19.40    -8000.00
03004             -25.00    -8000.00
03005              19.00    -8000.00
03006              16.00    -8000.00
03007             -25.00    -9600.00
03008               4.20    -8800.00
03009              25.00   -11200.00
03010             -25.00   -10400.00
03011              -5.00   -11200.00
03012              25.00   -11200.00
03013             -25.00   -12800.00
03014              13.40   -13600.00
03015               9.40   -12800.00
03016              -6.80   -14400.00
03017              21.20   -14400.00
03018             -25.00   -16000.00
03019              25.00   -16800.00
03020              14.80   -16000.00
03021             -25.00   -17600.00
03022              23.00   -17600.00
03023              22.20   -17600.00
03024             -25.00   -19200.00
03025               1.00   -18400.00
03026              25.00   -20000.00
03027             -25.00   -20000.00
03028               7.80   -20800.00
03029              25.00   -21600.00
03030             -20.60   -22400.00
03031               6.60   -22400.00
03032               5.20   -23200.00
03033              -6.60   -24000.00
03034               3.00   -24000.00
03035               5.20   -24000.00
03036              -3.80   -24000.00
03037               9.80   -25600.00
03038              -3.00   -25600.00
03039              -4.40   -26400.00
03040              13.20   -26400.00
03041              -8.40   -26400.00
03042               1.00   -27200.00
03043              10.20   -28000.00
03044              -3.80   -28000.00
03045              -1.40   -28800.00
03046               7.80   -28800.00
03047              -1.00   -28800.00
03048              -1.80   -29600.00
03049               6.80   -29600.00
03050              -0.60   -29600.00
03051              -0.40   -29600.00
03052               4.40   -31200.00
03053               0.20   -30400.00
03054               2.00   -32000.00
03055               4.20   -31200.00
03056              -0.60   -32000.00
03057               2.60   -32000.00
03058               2.80   -32000.00
03059              -0.60   -32800.00
03060               3.00   -32800.00
03061               3.00   -32800.00
03062               1.40   -32800.00
03063               2.60   -32800.00
03064               3.00   -32800.00
03065               0.20   -33600.00
03066               1.40   -33600.00
03067               4.00   -33600.00
03068               1.00   -33600.00
03069               1.60   -33600.00
03070               3.80   -33600.00
03071               1.40   -33600.00
03072               2.00   -33600.00
03073               2.00   -33600.00
03074               2.20   -33600.00
03075               2.20   -33600.00
03076               1.80   -33600.00
03077               3.00   -33600.00
03078               1.80   -33600.00
03079               2.00   -33600.00
03080               3.00   -33600.00
03081               2.20   -33600.00
03082               1.80   -33600.00
03083               2.00   -32800.00
03084               2.80   -33600.00
03085               2.20   -33600.00
03086               2.00   -32800.00
03087               2.60   -32800.00
03088               2.00   -32800.00
03089               2.00   -32800.00
03090               2.00   -32000.00
03091               2.40   -32000.00
03092               1.80   -32000.00
03093               1.80   -32000.00
03094               3.00   -32000.00
03095               2.00   -30400.00
03096               1.80   -30400.00
03097               2.40   -30400.00
03098               1.80   -31200.00
03099               2.00   -29600.00
03100               2.60   -30400.00
03101               1.80   -29600.00
03102               1.40   -28800.00
03103               1.20   -28800.00
03104               2.20   -28800.00
03105               1.60   -28000.00
03106               1.40   -28000.00
03107               1.80   -28000.00
03108               1.80   -27200.00
03109               1.80   -27200.00
03110               1.60   -27200.00
03111               1.80   -25600.00
03112               2.20   -25600.00
03113               1.40   -25600.00
03114               1.40   -24800.00
03115               1.40   -24000.00
03116               1.20   -24000.00
03117               1.80   -24000.00
03118               1.80   -23200.00
03119               1.40   -23200.00
03120               1.40   -22400.00
03121               1.40   -21600.00
03122               1.00   -20800.00
03123               0.80   -20800.00
03124               1.00   -20000.00
03125               1.40   -20000.00
03126               1.80   -18400.00
03127               1.40   -18400.00
03128               1.00   -17600.00
03129               1.40   -17600.00
03130               1.20   -16800.00
03131               0.60   -16000.00
03132               1.20   -16000.00
03133               0.60   -15200.00
03134               0.60   -14400.00
03135               0.80   -14400.00
03136               0.60   -13600.00
03137               1.20   -12800.00
03138               1.00   -12800.00
03139               0.40   -12000.00
03140               0.60   -11200.00
03141               0.20   -10400.00
03142               0.20   -10400.00
03143               0.80    -9600.00
03144               0.60    -9600.00
03145               0.60    -8000.00
03146               1.00    -8000.00
03147               0.40    -7200.00
03148              -0.20    -6400.00
03149               0.20    -6400.00
03150               0.40    -4800.00
03151               0.20    -4800.00
03152               0.40    -4000.00
03153               0.40    -3200.00
03154               0.40    -3200.00
03155               0.20    -1600.00
03156               0.20    -1600.00
03157               0.00     -800.00
03158               0.20        0.00
03159               0.20      800.00
03160               0.60     1600.00
03161               3.40     1600.00
03162               1.00     1600.00
03163              -2.20     3200.00
03164               1.20     3200.00
03165               1.20     4000.00
03166              -1.40     4800.00
03167               6.80     4800.00
03168              25.00     7200.00
03169              -8.20     8000.00
03170             -25.00     8000.00
03171              14.00     8000.00
03172              19.60     8800.00
03173             -25.00     8800.00
03174              25.00     9600.00
03175              25.00    10400.00
03176             -25.00    11200.00
03177              25.00    11200.00
03178               4.60    12000.00
03179             -25.00    12800.00
03180              25.00    12800.00
03181             -25.00    13600.00
03182              25.00    15200.00
03183              18.00    15200.00
03184             -25.00    15200.00
03185              25.00    16000.00
03186             -25.00    17600.00
03187             -25.00    17600.00
03188              25.00    17600.00
03189              -1.20    18400.00
03190             -25.00    19200.00
03191              25.00    19200.00
03192              17.40    20800.00
03193             -25.00    20800.00
03194              25.00    21600.00
03195              -3.80    21600.00
03196             -14.80    22400.00
03197              17.40    22400.00
03198             -19.60    22400.00
03199               2.00    24000.00
03200               3.40    24000.00
03201              -9.80    24800.00
03202               0.60    24800.00
03203              14.60    25600.00
03204             -22.00    25600.00
03205               5.00    26400.00
03206               8.60    27200.00
03207             -21.40    27200.00
03208               8.20    28000.00
03209               3.40    28000.00
03210             -10.00    28800.00
03211              -0.60    28800.00
03212               4.80    28800.00
03213              -9.40    29600.00
03214              -1.40    30400.00
03215               3.80    30400.00
03216              -8.60    30400.00
03217              -1.20    31200.00
03218               0.60    31200.00
03219              -6.80    31200.00
03220               1.20    32000.00
03221              -1.20    32000.00
03222              -5.20    32000.00
03223               1.40    32800.00
03224              -3.80    32800.00
03225              -4.20    32800.00
03226               0.20    33600.00
03227              -4.00    33600.00
03228              -2.60    32800.00
03229              -0.40    33600.00
03230              -3.40    33600.00
03231              -4.60    33600.00
03232              -1.40    33600.00
03233              -2.00    33600.00
03234              -4.20    33600.00
03235              -1.00    34400.00
03236              -3.60    34400.00
03237              -3.40    34400.00
03238              -1.40    34400.00
03239              -4.40    34400.00
03240              -1.80    34400.00
03241              -3.00    34400.00
03242              -2.80    34400.00
03243              -1.20    34400.00
03244              -4.20    33600.00
03245              -2.80    34400.00
03246              -2.20    34400.00
03247              -2.80    34400.00
03248              -3.40    34400.00
03249              -3.00    34400.00
03250              -2.00    34400.00
03251              -3.20    33600.00
03252              -2.20    34400.00
03253              -2.20    33600.00
03254              -3.00    33600.00
03255              -2.60    33600.00
03256              -2.80    32800.00
03257              -2.60    32800.00
03258              -3.00    32800.00
03259              -3.00    32000.00
03260              -2.00    32000.00
03261              -2.80    32000.00
03262              -3.00    32000.00
03263              -2.20    31200.00
03264              -2.80    32000.00
03265              -2.80    32000.00
03266              -2.20    31200.00
03267              -2.80    31200.00
03268              -2.80    30400.00
03269              -2.60    29600.00
03270              -2.00    29600.00
03271              -2.60    28800.00
03272              -2.60    28800.00
03273              -2.20    28800.00
03274              -2.20    28000.00
03275              -2.20    27200.00
03276              -3.00    27200.00
03277              -2.20    27200.00
03278              -1.80    26400.00
03279              -2.40    26400.00
03280              -2.20    25600.00
03281              -2.60    25600.00
03282              -2.40    24800.00
03283              -2.00    24000.00
03284              -2.00    24000.00
03285              -2.00    24000.00
03286              -2.00    22400.00
03287              -2.00    22400.00
03288              -1.80    22400.00
03289              -2.60    22400.00
03290              -2.20    21600.00
03291              -2.20    20800.00
03292              -2.00    20000.00
03293              -2.00    19200.00
03294              -2.60    18400.00
03295              -1.80    18400.00
03296              -2.00    17600.00
03297              -2.00    16800.00
03298              -1.80    16800.00
03299              -2.00    16000.00
03300              -1.80    15200.00
03301              -1.40    15200.00
03302              -1.80    14400.00
03303              -2.00    14400.00
03304              -2.20    13600.00
03305              -1.40    12800.00
03306              -1.80    12800.00
03307              -1.40    12000.00
03308              -2.20    11200.00
03309              -1.40    10400.00
03310              -1.80     9600.00
03311              -1.80     9600.00
03312              -1.00     8000.00
03313              -1.40     8000.00
03314              -1.80     7200.00
03315              -1.20     6400.00
03316              -1.20     5600.00
03317              -0.60     5600.00
03318              -1.60     4800.00
03319              -1.00     4000.00
03320              -0.80     3200.00
03321              -1.00     3200.00
03322              -1.20     2400.00
03323              -1.00     1600.00
03324              -0.40      800.00
03325              -0.60        0.00
03326               0.20        0.00
03327               0.60     -800.00
03328               3.60    -1600.00
03329              -1.80    -2400.00
03330              -0.60    -2400.00
03331               1.80    -3200.00
03332               0.40    -3200.00
03333              -0.60    -4800.00
03334               6.00    -4800.00
03335              22.00    -6400.00
03336              11.20    -8000.00
03337             -25.00    -8000.00
03338              -7.60    -8000.00
03339              25.00    -8800.00
03340             -23.00    -9600.00
03341             -25.00    -8800.00
03342              25.00    -9600.00
03343              11.60   -10400.00
03344             -25.00   -10400.00
03345              25.00   -12000.00
03346              -9.00   -12000.00
03347             -25.00   -12800.00
03348              25.00   -13600.00
03349             -22.40   -13600.00
03350              25.00   -14400.00
03351             -21.40   -15200.00
03352              -7.00   -16000.00
03353              25.00   -16000.00
03354             -25.00   -16800.00
03355              -6.60   -17600.00
03356              25.00   -17600.00
03357             -13.80   -18400.00
03358             -25.00   -19200.00
03359              25.00   -20000.00
03360              -6.80   -20000.00
03361             -23.60   -21600.00
03362              25.00   -20800.00
03363              -8.60   -22400.00
03364              -8.20   -22400.00
03365              12.20   -23200.00
03366              -5.40   -23200.00
03367              -1.20   -23200.00
03368               6.60   -24000.00
03369              -2.20   -24800.00
03370               3.60   -25600.00
03371               7.00   -25600.00
03372             -10.80   -25600.00
03373              10.00   -26400.00
03374               1.80   -26400.00
03375              -8.60   -27200.00
03376              10.60   -27200.00
03377               1.40   -27200.00
03378              -4.40   -28800.00
03379               6.00   -28800.00
03380               4.40   -28800.00
03381              -4.60   -28800.00
03382               4.60   -29600.00
03383               3.60   -30400.00
03384              -3.40   -30400.00
03385               4.20   -30400.00
03386               2.20   -31200.00
03387              -0.60   -30400.00
03388               4.80   -31200.00
03389               1.20   -32000.00
03390               0.40   -32000.00
03391               4.20   -32000.00
03392               0.20   -32800.00
03393               1.20   -32800.00
03394               3.60   -32800.00
03395               1.20   -32800.00
03396               2.20   -32800.00
03397               2.60   -32800.00
03398               1.20   -32800.00
03399               1.00   -32800.00
03400               3.40   -33600.00
03401               2.00   -33600.00
03402               0.60   -32800.00
03403               3.60   -33600.00
03404               2.20   -33600.00
03405               2.00   -33600.00
03406               2.20   -33600.00
03407               2.00   -33600.00
03408               2.80   -33600.00
03409               1.60   -33600.00
03410               2.60   -33600.00
03411               2.60   -33600.00
03412               1.40   -33600.00
03413               2.60   -33600.00
03414               2.40   -33600.00
03415               2.00   -32800.00
03416               2.00   -33600.00
03417               2.60   -33600.00
03418               2.60   -33600.00
03419               1.40   -33600.00
03420               2.40   -33600.00
03421               2.60   -32800.00
03422               1.80   -32800.00
03423               2.60   -32000.00
03424               2.00   -32800.00
03425               2.00   -32000.00
03426               2.00   -32000.00
03427               2.00   -32000.00
03428               2.00   -32000.00
03429               2.00   -30400.00
03430               2.00   -31200.00
03431               1.80   -30400.00
03432               1.40   -30400.00
03433               2.20   -30400.00
03434               1.40   -29600.00
03435               1.80   -29600.00
03436               1.80   -29600.00
03437               2.20   -28800.00
03438               2.00   -29600.00
03439               1.40   -28000.00
03440               1.80   -27200.00
03441               2.00   -28000.00
03442               1.20   -27200.00
03443               1.80   -26400.00
03444               1.40   -26400.00
03445               1.80   -25600.00
03446               1.80   -25600.00
03447               1.00   -25600.00
03448               1.40   -24800.00
03449               1.80   -24000.00
03450               1.40   -24000.00
03451               1.80   -23200.00
03452               1.60   -22400.00
03453               1.80   -23200.00
03454               1.80   -22400.00
03455               1.40   -22400.00
03456               1.40   -20800.00
03457               1.00   -20000.00
03458               1.20   -19200.00
03459               1.40   -19200.00
03460               1.20   -17600.00
03461               1.00   -18400.00
03462               1.60   -17600.00
03463               1.40   -17600.00
03464               0.40   -16800.00
03465               1.20   -16000.00
03466               1.20   -16000.00
03467               0.60   -15200.00
03468               1.20   -14400.00
03469               0.80   -14400.00
03470               1.00   -13600.00
03471               1.00   -12800.00
03472               0.80   -12000.00
03473               1.00   -11200.00
03474               0.80   -10400.00
03475               0.40   -10400.00
03476               0.40   -10400.00
03477               0.40    -9600.00
03478               0.40    -8000.00
03479               0.60    -8000.00
03480               0.40    -7200.00
03481               0.60    -7200.00
03482               0.40    -6400.00
03483               0.60    -4800.00
03484               0.40    -4000.00
03485               0.20    -4000.00
03486               0.40    -3200.00
03487               0.60    -3200.00
03488              -0.20    -1600.00
03489              -0.20    -1600.00
03490               0.00     -800.00
03491              -0.20     -800.00
03492              -0.20        0.00
03493              -0.20        0.00
03494               1.80     1600.00
03495               3.40     2400.00
03496              -2.60     2400.00
03497              -0.20     3200.00
03498               1.80     4000.00
03499              -1.20     4000.00
03500               2.00     4800.00
03501              20.20     6400.00
03502              25.00     8000.00
03503             -25.00     8000.00
03504             -18.60     8000.00
03505              25.00     8800.00
03506             -23.40     8800.00
03507             -23.80     9600.00
03508              25.00    10400.00
03509             -25.00    11200.00
03510              -8.60    12000.00
03511              25.00    12000.00
03512             -25.00    12000.00
03513              25.00    13600.00
03514             -14.40    13600.00
03515             -22.20    14400.00
03516              25.00    14400.00
03517             -25.00    15200.00
03518              25.00    16000.00
03519              25.00    16800.00
03520             -25.00    17600.00
03521              25.00    18400.00
03522              25.00    17600.00
03523             -25.00    18400.00
03524             -12.20    20000.00
03525              25.00    19200.00
03526             -25.00    20800.00
03527               0.00    21600.00
03528              25.00    21600.00
03529             -25.00    22400.00
03530              15.80    22400.00
03531              -7.80    23200.00
03532              -9.80    24000.00
03533               9.00    24000.00
03534              -4.20    24000.00
03535              -9.00    24800.00
03536              14.80    25600.00
03537              -7.80    25600.00
03538             -15.60    25600.00
03539              19.40    26400.00
03540             -15.80    27200.00
03541              -6.00    27200.00
03542              11.40    28000.00
03543              -7.60    28000.00
03544              -6.00    28000.00
03545               5.00    28800.00
03546              -2.00    28800.00
03547              -9.00    30400.00
03548               5.40    30400.00
03549              -4.40    30400.00
03550              -6.20    31200.00
03551               2.40    31200.00
03552              -4.60    31200.00
03553              -2.20    31200.00
03554               1.20    31200.00
03555              -6.20    32000.00
03556              -1.00    32000.00
03557              -1.40    32800.00
03558              -6.20    33600.00
03559               0.20    32000.00
03560              -2.20    32800.00
03561              -3.80    33600.00
03562              -0.20    33600.00
03563              -2.00    33600.00
03564              -4.60    33600.00
03565              -2.80    34400.00
03566              -1.80    33600.00
03567              -4.20    34400.00
03568              -2.20    34400.00
03569              -1.80    34400.00
03570              -3.80    34400.00
03571              -0.60    34400.00
03572              -3.80    34400.00
03573              -3.60    34400.00
03574              -2.00    34400.00
03575              -4.20    34400.00
03576              -1.20    34400.00
03577              -2.80    34400.00
03578              -3.00    34400.00
03579              -2.20    34400.00
03580              -2.20    34400.00
03581              -2.80    34400.00
03582              -3.60    34400.00
03583              -2.20    34400.00
03584              -2.60    33600.00
03585              -3.40    34400.00
03586              -2.20    33600.00
03587              -3.00    33600.00
03588              -2.80    33600.00
03589              -2.80    33600.00
03590              -2.80    32800.00
03591              -2.20    33600.00
03592              -3.20    32000.00
03593              -2.40    32800.00
03594              -2.00    32800.00
03595              -2.80    32000.00
03596              -2.60    32000.00
03597              -2.80    31200.00
03598              -2.60    31200.00
03599              -2.60    30400.00
03600              -2.80    30400.00
03601              -2.80    30400.00
03602              -2.80    30400.00
03603              -2.20    29600.00
03604              -2.00    28800.00
03605              -2.80    28800.00
03606              -2.40    28800.00
03607              -2.20    28000.00
03608              -2.00    28000.00
03609              -2.40    28000.00
03610              -2.80    27200.00
03611              -1.80    27200.00
03612              -2.00    25600.00
03613              -2.20    25600.00
03614              -2.80    24800.00
03615              -2.60    25600.00
03616              -2.00    24800.00
03617              -2.40    24000.00
03618              -2.20    24000.00
03619              -2.00    24000.00
03620              -2.60    22400.00
03621              -1.60    22400.00
03622              -2.20    21600.00
03623              -2.60    21600.00
03624              -2.20    20800.00
03625              -2.00    20000.00
03626              -2.20    19200.00
03627              -2.00    19200.00
03628              -2.20    18400.00
03629              -2.20    18400.00
03630              -2.00    17600.00
03631              -1.00    16800.00
03632              -2.20    16000.00
03633              -2.80    16000.00
03634              -0.60    15200.00
03635              -2.20    15200.00
03636              -2.20    14400.00
03637              -1.20    13600.00
03638              -2.00    12800.00
03639              -0.40    12800.00
03640              -2.40    12000.00
03641              -2.20    11200.00
03642               1.00    10400.00
03643              -3.40     9600.00
03644              -2.20     9600.00
03645               1.20     8800.00
03646              -3.00     8000.00
03647              -2.00     8000.00
03648               1.80     6400.00
03649              -3.60     6400.00
03650              -2.00     5600.00
03651               2.00     4800.00
03652              -3.40     4800.00
03653              -0.60     3200.00
03654               1.20     3200.00
03655              -3.20     2400.00
03656              -0.60     2400.00
03657               0.00     1600.00
03658              -1.80        0.00
03659               0.60        0.00
03660               1.00     -800.00
03661               1.80     -800.00
03662               1.00    -1600.00
03663              -2.00    -1600.00
03664               0.40    -3200.00
03665               2.00    -3200.00
03666              -1.20    -4000.00
03667               1.20    -4000.00
03668              14.60    -5600.00
03669              25.00    -6400.00
03670             -25.00    -7200.00
03671             -25.00    -8000.00
03672              25.00    -8000.00
03673               6.00    -9600.00
03674             -25.00    -9600.00
03675              21.80    -9600.00
03676              25.00   -11200.00
03677             -25.00   -10400.00
03678              23.60   -11200.00
03679              25.00   -12000.00
03680             -25.00   -12800.00
03681              25.00   -13600.00
03682              -4.20   -14400.00
03683               2.60   -14400.00
03684              13.00   -15200.00
03685             -25.00   -16000.00
03686              25.00   -16800.00
03687              -0.40   -16800.00
03688             -25.00   -17600.00
03689              25.00   -17600.00
03690              12.60   -18400.00
03691             -25.00   -18400.00
03692              12.20   -19200.00
03693              25.00   -20000.00
03694             -25.00   -20000.00
03695              18.80   -20800.00
03696              15.80   -21600.00
03697             -20.40   -22400.00
03698              10.60   -22400.00
03699               1.80   -23200.00
03700              -5.80   -23200.00
03701               4.00   -24000.00
03702               3.40   -24000.00
03703              -2.20   -24800.00
03704              10.40   -25600.00
03705              -6.60   -25600.00
03706               0.20   -26400.00
03707              10.80   -26400.00
03708             -10.80   -27200.00
03709               5.20   -27200.00
03710               8.20   -27200.00
03711              -4.80   -28000.00
03712               1.00   -28800.00
03713               7.60   -28800.00
03714              -3.00   -29600.00
03715               0.20   -29600.00
03716               7.40   -29600.00
03717              -1.80   -29600.00
03718               0.80   -30400.00
03719               4.60   -30400.00
03720              -0.20   -31200.00
03721               2.00   -32000.00
03722               3.60   -30400.00
03723              -0.40   -32000.00
03724               3.40   -32000.00
03725               2.00   -32000.00
03726               0.40   -32000.00
03727               3.00   -32800.00
03728               2.00   -32800.00
03729               2.20   -32800.00
03730               2.80   -32800.00
03731               1.80   -33600.00
03732               1.40   -33600.00
03733               2.20   -33600.00
03734               2.80   -33600.00
03735               1.00   -33600.00
03736               3.00   -33600.00
03737               2.80   -33600.00
03738               1.40   -33600.00
03739               2.40   -33600.00
03740               1.80   -33600.00
03741               2.40   -33600.00
03742               2.40   -33600.00
03743               1.80   -33600.00
03744               2.60   -33600.00
03745               2.00   -33600.00
03746               2.00   -33600.00
03747               2.60   -33600.00
03748               2.20   -33600.00
03749               2.00   -33600.00
03750               1.80   -33600.00
03751               3.00   -33600.00
03752               1.40   -32800.00
03753               1.80   -33600.00
03754               2.40   -32800.00
03755               1.40   -32800.00
03756               2.20   -32000.00
03757               2.20   -32800.00
03758               1.80   -32800.00
03759               2.00   -32000.00
03760               2.00   -32000.00
03761               2.20   -32000.00
03762               2.20   -32000.00
03763               2.20   -31200.00
03764               2.00   -30400.00
03765               2.00   -30400.00
03766               1.80   -30400.00
03767               2.00   -29600.00
03768               1.80   -29600.00
03769               2.00   -29600.00
03770               1.80   -28800.00
03771               2.00   -28800.00
03772               1.60   -28800.00
03773               1.60   -28000.00
03774               2.00   -27200.00
03775               1.40   -27200.00
03776               1.80   -27200.00
03777               1.40   -26400.00
03778               1.80   -26400.00
03779               2.20   -25600.00
03780               1.60   -25600.00
03781               1.80   -25600.00
03782               1.80   -24000.00
03783               1.40   -24000.00
03784               1.80   -24000.00
03785               1.40   -23200.00
03786               1.40   -23200.00
03787               1.80   -22400.00
03788               1.20   -21600.00
03789               1.80   -20800.00
03790               1.20   -20800.00
03791               1.20   -20000.00
03792               1.20   -20000.00
03793               1.40   -18400.00
03794               1.20   -18400.00
03795               1.60   -18400.00
03796               1.40   -17600.00
03797               1.00   -16800.00
03798               1.20   -16800.00
03799               1.20   -16000.00
03800               0.40   -15200.00
03801               1.20   -14400.00
03802               1.00   -14400.00
03803               0.40   -13600.00
03804               1.00   -12800.00
03805               0.60   -12800.00
03806               1.00   -11200.00
03807               1.00   -11200.00
03808               1.00   -11200.00
03809               0.60   -10400.00
03810               0.60    -9600.00
03811               0.60    -8800.00
03812               0.80    -8000.00
03813               0.40    -7200.00
03814               0.20    -7200.00
03815               0.20    -6400.00
03816               0.40    -4800.00
03817               0.20    -4800.00
03818               0.20    -4000.00
03819               0.20    -4000.00
03820               0.20    -3200.00
03821              -0.20    -2400.00
03822              -0.20    -1600.00
03823              -0.20    -1600.00
03824               0.00     -800.00
03825              -0.20     -800.00
03826               0.40        0.00
03827               0.40      800.00
03828               3.60     1600.00
03829              -0.20     2400.00
03830              -2.20     2400.00
03831               1.00     3200.00
03832               0.60     3200.00
03833              -1.20     4800.00
03834               9.80     5600.00
03835              25.00     7200.00
03836             -22.20     8000.00
03837             -25.00     8000.00
03838              22.80     8000.00
03839               9.80     8000.00
03840             -25.00     8800.00
03841              25.00     9600.00
03842              25.00    10400.00
03843             -25.00    11200.00
03844              25.00    11200.00
03845             -25.00    12000.00
03846             -21.60    12800.00
03847              25.00    12800.00
03848             -25.00    13600.00
03849              25.00    14400.00
03850             -16.80    15200.00
03851             -25.00    16000.00
03852              25.00    16000.00
03853             -25.00    16000.00
03854             -17.20    17600.00
03855              25.00    17600.00
03856             -14.00    18400.00
03857             -25.00    19200.00
03858              25.00    20000.00
03859               1.40    20800.00
03860             -25.00    21600.00
03861              25.00    21600.00
03862             -16.60    21600.00
03863              -5.20    22400.00
03864              11.40    23200.00
03865             -18.40    24000.00
03866               6.60    23200.00
03867              -0.20    24000.00
03868             -10.60    24800.00
03869               6.20    25600.00
03870               9.00    25600.00
03871             -23.60    25600.00
03872              12.80    26400.00
03873               1.00    27200.00
03874             -19.60    27200.00
03875              11.80    28000.00
03876              -0.60    28000.00
03877             -10.00    28000.00
03878               2.80    28800.00
03879               2.60    28800.00
03880             -11.40    29600.00
03881               1.80    30400.00
03882               1.00    30400.00
03883              -9.20    30400.00
03884               1.60    31200.00
03885              -1.20    31200.00
03886              -6.80    31200.00
03887               2.60    31200.00
03888              -3.40    32800.00
03889              -5.40    32000.00
03890               1.80    32800.00
03891              -5.00    32800.00
03892              -3.80    32800.00
03893              -0.40    33600.00
03894              -3.60    33600.00
03895              -2.60    33600.00
03896              -1.00    33600.00
03897              -3.40    33600.00
03898              -4.40    33600.00
03899              -2.00    33600.00
03900              -2.60    33600.00
03901              -3.80    34400.00
03902              -0.60    34400.00
03903              -3.40    34400.00
03904              -2.40    34400.00
03905              -2.00    33600.00
03906              -4.40    33600.00
03907              -1.80    34400.00
03908              -3.80    33600.00
03909              -2.20    33600.00
03910              -1.80    35200.00
03911              -3.60    34400.00
03912              -2.40    34400.00
03913              -2.60    34400.00
03914              -2.60    34400.00
03915              -3.40    34400.00
03916              -2.80    34400.00
03917              -2.20    34400.00
03918              -3.60    33600.00
03919              -2.20    33600.00
03920              -2.80    33600.00
03921              -3.00    33600.00
03922              -2.20    33600.00
03923              -3.00    33600.00
03924              -2.40    33600.00
03925              -2.80    32800.00
03926              -3.80    32800.00
03927              -1.80    32800.00
03928              -2.00    32000.00
03929              -3.00    31200.00
03930              -2.20    32000.00
03931              -2.00    31200.00
03932              -2.80    31200.00
03933              -3.00    31200.00
03934              -2.20    30400.00
03935              -2.60    30400.00
03936              -2.60    29600.00
03937              -2.00    30400.00
03938              -2.80    28800.00
03939              -2.20    28800.00
03940              -2.60    28000.00
03941              -2.20    28000.00
03942              -1.40    27200.00
03943              -3.80    27200.00
03944              -2.20    26400.00
03945              -1.20    26400.00
03946              -3.40    26400.00
03947              -2.20    25600.00
03948              -1.80    25600.00
03949              -2.60    24800.00
03950              -2.80    24000.00
03951              -1.40    24000.00
03952              -2.40    24000.00
03953              -3.00    22400.00
03954              -1.80    22400.00
03955              -2.20    22400.00
03956              -2.20    21600.00
03957              -2.20    20800.00
03958              -2.40    20800.00
03959              -2.00    20000.00
03960              -2.20    19200.00
03961              -2.60    19200.00
03962              -1.60    17600.00
03963              -2.00    17600.00
03964              -1.40    17600.00
03965              -1.60    16800.00
03966              -2.20    16000.00
03967              -2.20    15200.00
03968              -1.80    15200.00
03969              -2.00    14400.00
03970              -1.40    14400.00
03971              -1.80    12800.00
03972              -1.20    12800.00
03973              -1.20    12000.00
03974              -1.60    12000.00
03975              -2.00    11200.00
03976              -1.20    10400.00
03977              -1.80     9600.00
03978              -1.40     9600.00
03979              -1.20     8800.00
03980              -1.20     8000.00
03981              -1.20     7200.00
03982              -1.00     6400.00
03983              -1.00     6400.00
03984              -0.60     5600.00
03985              -1.40     4800.00
03986              -1.20     3200.00
03987              -1.00     3200.00
03988              -1.20     3200.00
03989              -1.20     2400.00
03990              -0.60     1600.00
03991              -0.40        0.00
03992              -0.60        0.00
03993               0.20        0.00
03994               1.20    -1600.00
03995               2.80    -1600.00
03996              -2.20    -1600.00
03997              -0.20    -2400.00
03998               1.60    -3200.00
03999               0.20    -3200.00
04000               0.00    -4000.00
04001               7.40    -4800.00
04002              25.00    -6400.00
04003               0.60    -7200.00
04004             -25.00    -8000.00
04005               3.40    -8800.00
04006              25.00    -9600.00
04007             -25.00    -9600.00
04008             -21.60    -8800.00
04009              25.00   -11200.00
04010             -17.20   -11200.00
04011             -25.00   -11200.00
04012              25.00   -12800.00
04013             -25.00   -12800.00
04014             -16.40   -12800.00
04015              25.00   -13600.00
04016             -19.80   -14400.00
04017              25.00   -14400.00
04018             -25.00   -14400.00
04019               9.20   -16000.00
04020              25.00   -16000.00
04021             -25.00   -17600.00
04022               5.60   -17600.00
04023              25.00   -17600.00
04024             -23.60   -18400.00
04025             -17.20   -19200.00
04026              25.00   -20000.00
04027             -20.40   -20800.00
04028             -13.20   -20800.00
04029              25.00   -20800.00
04030             -15.40   -22400.00
04031              -2.80   -23200.00
04032              10.20   -23200.00
04033              -6.20   -23200.00
04034               0.20   -24000.00
04035               6.20   -24000.00
04036              -2.60   -24000.00
04037               6.20   -24800.00
04038               2.80   -25600.00
04039              -9.20   -25600.00
04040              13.00   -26400.00
04041              -2.80   -26400.00
04042              -5.20   -27200.00
04043              11.00   -27200.00
04044              -1.00   -28000.00
04045              -3.80   -28000.00
04046               6.80   -28800.00
04047               2.60   -28800.00
04048              -3.60   -28800.00
04049               5.80   -29600.00
04050               1.80   -29600.00
04051              -2.60   -30400.00
04052               5.00   -30400.00
04053               1.60   -30400.00
04054               0.40   -32000.00
04055               4.80   -31200.00
04056               0.60   -32000.00
04057               1.20   -32000.00
04058               3.60   -32000.00
04059               0.20   -32800.00
04060               1.40   -32000.00
04061               3.40   -32800.00
04062               2.00   -33600.00
04063               1.80   -32800.00
04064               2.20   -33600.00
04065               1.40   -33600.00
04066               1.20   -32800.00
04067               2.80   -33600.00
04068               1.80   -33600.00
04069               1.80   -33600.00
04070               3.40   -33600.00
04071               1.20   -33600.00
04072               2.20   -33600.00
04073               2.20   -33600.00
04074               1.80   -33600.00
04075               2.80   -33600.00
04076               1.80   -33600.00
04077               2.20   -33600.00
04078               2.00   -33600.00
04079               1.80   -33600.00
04080               2.20   -33600.00
04081               2.00   -33600.00
04082               2.20   -33600.00
04083               1.40   -33600.00
04084               2.00   -33600.00
04085               2.20   -32800.00
04086               1.80   -33600.00
04087               2.60   -32800.00
04088               2.00   -32800.00
04089               1.80   -32800.00
04090               2.60   -32800.00
04091               1.40   -32000.00
04092               2.20   -32800.00
04093               2.00   -32800.00
04094               2.00   -32000.00
04095               2.00   -32000.00
04096               1.40   -32000.00
04097               1.80   -31200.00
04098               2.00   -30400.00
04099               1.40   -30400.00
04100               2.60   -29600.00
04101               1.60   -29600.00
04102               1.40   -29600.00
04103               2.60   -28800.00
04104               2.00   -28800.00
04105               1.40   -28800.00
04106               2.00   -28800.00
04107               2.00   -28000.00
04108               2.00   -27200.00
04109               1.20   -27200.00
04110               1.40   -26400.00
04111               1.80   -26400.00
04112               2.00   -25600.00
04113               1.80   -25600.00
04114               1.80   -25600.00
04115               1.40   -24800.00
04116               1.80   -24000.00
04117               2.00   -24000.00
04118               1.00   -24000.00
04119               2.00   -23200.00
04120               2.20   -22400.00
04121               1.00   -22400.00
04122               1.60   -20800.00
04123               2.00   -20800.00
04124               0.80   -20000.00
04125               1.00   -19200.00
04126               1.80   -18400.00
04127               1.20   -18400.00
04128               1.00   -18400.00
04129               1.80   -17600.00
04130               1.00   -17600.00
04131               0.60   -16800.00
04132               1.40   -16000.00
04133               1.40   -15200.00
04134               0.60   -15200.00
04135               0.60   -14400.00
04136               1.20   -13600.00
04137               1.20   -12800.00
04138               0.40   -12800.00
04139               0.60   -12800.00
04140               1.00   -11200.00
04141               0.20   -11200.00
04142               0.40   -10400.00
04143               0.40    -9600.00
04144               0.60    -9600.00
04145               1.00    -8000.00
04146               0.20    -8000.00
04147               0.20    -7200.00
04148               0.40    -6400.00
04149               0.20    -6400.00
04150               0.60    -6400.00
04151               0.40    -4800.00
04152              -0.20    -4000.00
04153               0.20    -4000.00
04154               0.20    -3200.00
04155              -0.60    -1600.00
04156              -0.20    -1600.00
04157               0.20     -800.00
04158               0.20        0.00
04159               0.20        0.00
04160               0.40      800.00
04161               2.00      800.00
04162               2.20     2400.00
04163              -2.80     2400.00
04164               0.40     3200.00
04165               1.60     3200.00
04166              -0.80     4000.00
04167               3.20     4800.00
04168              25.00     6400.00
04169              15.40     7200.00
04170             -25.00     8000.00
04171              -5.00     8800.00
04172              25.00     8000.00
04173             -25.00     8800.00
04174              -5.40     9600.00
04175              25.00    11200.00
04176             -25.00    11200.00
04177              22.80    11200.00
04178              25.00    12000.00
04179             -25.00    12800.00
04180              25.00    12800.00
04181             -25.00    13600.00
04182               7.80    14400.00
04183              25.00    15200.00
04184             -25.00    16000.00
04185              25.00    16000.00
04186              22.60    16000.00
04187             -25.00    16800.00
04188              25.00    17600.00
04189              19.60    18400.00
04190             -25.00    18400.00
04191               2.80    19200.00
04192              25.00    20800.00
04193             -25.00    20800.00
04194              16.80    21600.00
04195              19.80    21600.00
04196             -25.00    22400.00
04197              19.40    22400.00
04198             -14.00    22400.00
04199              -5.80    24000.00
04200               7.40    24800.00
04201              -6.20    24800.00
04202              -6.00    25600.00
04203              16.40    25600.00
04204             -15.00    25600.00
04205              -8.60    27200.00
04206              17.00    27200.00
04207             -20.20    27200.00
04208               0.40    27200.00
04209               9.20    27200.00
04210              -9.80    28000.00
04211              -4.40    28800.00
04212               6.00    28800.00
04213              -6.60    28800.00
04214              -6.40    29600.00
04215               5.80    30400.00
04216              -6.60    30400.00
04217              -4.60    31200.00
04218               1.80    31200.00
04219              -6.20    31200.00
04220              -1.00    31200.00
04221               0.60    32000.00
04222              -6.60    32800.00
04223               0.40    32000.00
04224              -2.20    32800.00
04225              -6.00    33600.00
04226               0.60    32800.00
04227              -2.80    33600.00
04228              -3.80    32800.00
04229              -0.20    33600.00
04230              -2.20    33600.00
04231              -5.00    33600.00
04232              -2.20    33600.00
04233              -1.20    33600.00
04234              -4.60    33600.00
04235              -1.40    33600.00
04236              -2.00    34400.00
04237              -4.20    34400.00
04238              -1.00    34400.00
04239              -3.80    34400.00
04240              -2.80    34400.00
04241              -2.20    34400.00
04242              -3.80    34400.00
04243              -1.20    34400.00
04244              -3.00    35200.00
04245              -3.00    34400.00
04246              -2.20    34400.00
04247              -2.60    34400.00
04248              -2.80    34400.00
04249              -3.60    34400.00
04250              -1.80    34400.00
04251              -3.00    33600.00
04252              -2.80    33600.00
04253              -1.40    33600.00
04254              -3.40    33600.00
04255              -2.80    33600.00
04256              -2.20    33600.00
04257              -3.00    33600.00
04258              -2.60    32800.00
04259              -3.00    32800.00
04260              -2.20    32000.00
04261              -2.20    32000.00
04262              -2.60    32000.00
04263              -2.60    32800.00
04264              -2.80    32000.00
04265              -2.20    31200.00
04266              -2.60    31200.00
04267              -3.00    31200.00
04268              -2.80    30400.00
04269              -3.00    30400.00
04270              -2.00    30400.00
04271              -2.60    29600.00
04272              -3.00    28800.00
04273              -2.20    28800.00
04274              -2.40    28000.00
04275              -2.20    28000.00
04276              -2.60    27200.00
04277              -2.80    27200.00
04278              -1.80    27200.00
04279              -2.20    26400.00
04280              -2.80    26400.00
04281              -2.60    25600.00
04282              -2.80    24800.00
04283              -2.20    24000.00
04284              -2.80    24000.00
04285              -2.20    24000.00
04286              -2.20    23200.00
04287              -2.40    22400.00
04288              -2.00    22400.00
04289              -2.20    21600.00
04290              -2.20    21600.00
04291              -2.60    20800.00
04292              -1.80    20000.00
04293              -2.00    19200.00
04294              -2.80    18400.00
04295              -2.00    18400.00
04296              -2.20    18400.00
04297              -2.20    16800.00
04298              -1.80    16800.00
04299              -2.00    16800.00
04300              -1.80    16000.00
04301              -1.80    15200.00
04302              -1.20    15200.00
04303              -1.20    14400.00
04304              -2.00    13600.00
04305              -1.60    12800.00
04306              -1.00    12000.00
04307              -2.00    12000.00
04308              -1.80    11200.00
04309              -1.40    11200.00
04310              -1.40     9600.00
04311              -1.40     8800.00
04312              -1.20     8800.00
04313              -1.40     8000.00
04314              -1.20     8000.00
04315              -1.20     6400.00
04316              -1.00     6400.00
04317              -1.00     5600.00
04318              -1.00     5600.00
04319              -1.00     4000.00
04320              -0.40     3200.00
04321              -0.60     3200.00
04322              -1.00     2400.00
04323              -1.00     1600.00
04324              -0.40     1600.00
04325              -0.60        0.00
04326              -0.40        0.00
04327               0.40     -800.00
04328               4.00     -800.00
04329              -0.60    -1600.00
04330              -1.80    -1600.00
04331               1.40    -3200.00
04332               0.80    -3200.00
04333              -1.00    -4000.00
04334               3.40    -4800.00
04335              17.00    -5600.00
04336              23.60    -7200.00
04337             -25.00    -8000.00
04338             -25.00    -8000.00
04339              25.00    -8000.00
04340              -4.40    -9600.00
04341             -25.00    -8800.00
04342              25.00    -9600.00
04343              25.00   -10400.00
04344             -25.00   -10400.00
04345              25.00   -12800.00
04346              25.00   -12000.00
04347             -25.00   -12800.00
04348              25.00   -13600.00
04349             -14.60   -13600.00
04350              13.40   -14400.00
04351              -0.20   -14400.00
04352             -25.00   -16000.00
04353              25.00   -16800.00
04354             -16.20   -16800.00
04355             -24.00   -17600.00
04356              25.00   -17600.00
04357               2.60   -19200.00
04358             -25.00   -19200.00
04359              23.40   -19200.00
04360              15.40   -20000.00
04361             -25.00   -20800.00
04362              25.00   -20800.00
04363               6.60   -21600.00
04364             -16.80   -22400.00
04365              13.00   -23200.00
04366              -2.00   -23200.00
04367              -4.20   -24000.00
04368               5.40   -24000.00
04369               1.80   -24800.00
04370              -0.60   -24800.00
04371              10.40   -25600.00
04372              -9.20   -25600.00
04373               4.40   -26400.00
04374               8.20   -26400.00
04375             -10.60   -27200.00
04376               7.80   -27200.00
04377               5.40   -27200.00
04378              -4.60   -28800.00
04379               2.60   -28800.00
04380               7.00   -28800.00
04381              -3.40   -29600.00
04382               2.20   -29600.00
04383               6.00   -29600.00
04384              -2.80   -30400.00
04385               2.60   -30400.00
04386               3.80   -30400.00
04387              -0.60   -31200.00
04388               3.20   -30400.00
04389               3.40   -31200.00
04390              -0.60   -32000.00
04391               3.60   -32800.00
04392               1.40   -32000.00
04393               0.40   -32800.00
04394               3.40   -32800.00
04395               2.00   -32800.00
04396               2.20   -32800.00
04397               2.60   -32800.00
04398               1.80   -32800.00
04399               1.00   -33600.00
04400               2.60   -32800.00
04401               2.40   -33600.00
04402               0.80   -33600.00
04403               3.00   -33600.00
04404               1.80   -33600.00
04405               1.80   -33600.00
04406               2.60   -33600.00
04407               1.00   -33600.00
04408               2.60   -33600.00
04409               2.00   -33600.00
04410               1.80   -33600.00
04411               2.80   -33600.00
04412               1.40   -33600.00
04413               2.00   -33600.00
04414               2.60   -33600.00
04415               2.00   -33600.00
04416               1.80   -33600.00
04417               2.00   -33600.00
04418               2.20   -33600.00
04419               1.20   -32800.00
04420               1.80   -32800.00
04421               2.60   -33600.00
04422               1.80   -32800.00
04423               2.20   -32800.00
04424               2.00   -32800.00
04425               2.20   -32000.00
04426               2.00   -32000.00
04427               2.00   -32000.00
04428               2.60   -32000.00
04429               1.80   -32000.00
04430               2.00   -32000.00
04431               2.20   -30400.00
04432               1.40   -30400.00
04433               2.20   -30400.00
04434               2.20   -30400.00
04435               1.80   -29600.00
04436               2.00   -29600.00
04437               2.00   -28800.00
04438               2.00   -28800.00
04439               1.40   -28800.00
04440               1.80   -28800.00
04441               2.40   -28000.00
04442               1.80   -27200.00
04443               1.80   -26400.00
04444               2.00   -26400.00
04445               2.00   -26400.00
04446               1.80   -25600.00
04447               1.80   -25600.00
04448               1.80   -25600.00
04449               1.40   -24000.00
04450               1.80   -24000.00
04451               1.40   -24000.00
04452               1.40   -23200.00
04453               2.00   -22400.00
04454               1.80   -22400.00
04455               1.60   -20800.00
04456               1.80   -20800.00
04457               1.20   -20800.00
04458               1.40   -20000.00
04459               1.40   -20000.00
04460               1.20   -18400.00
04461               1.40   -19200.00
04462               1.40   -17600.00
04463               1.40   -17600.00
04464               1.00   -16800.00
04465               1.00   -16000.00
04466               1.40   -16000.00
04467               0.40   -15200.00
04468               0.20   -14400.00
04469               1.40   -14400.00
04470               1.20   -13600.00
04471              -0.20   -12800.00
04472               1.00   -12000.00
04473               1.80   -12000.00
04474               0.20   -11200.00
04475               0.20   -11200.00
04476               1.20   -10400.00
04477               0.20    -9600.00
04478               0.40    -8800.00
04479               0.60    -8000.00
04480               0.20    -7200.00
04481              -0.20    -7200.00
04482               0.40    -6400.00
04483               1.00    -5600.00
04484              -0.40    -5600.00
04485              -0.40    -4800.00
04486               1.00    -3200.00
04487               0.20    -3200.00
04488              -1.20    -2400.00
04489               1.80    -1600.00
04490              -0.20     -800.00
04491              -1.20        0.00
04492               1.00        0.00
04493               0.60        0.00
04494              -0.40     1600.00
04495               4.60     1600.00
04496              -0.60     2400.00
04497              -2.20     2400.00
04498               1.40     4000.00
04499               0.60     3200.00
04500              -1.20     4800.00
04501              12.20     5600.00
04502              25.00     7200.00
04503             -25.00     8000.00
04504             -25.00     8000.00
04505              25.00     8800.00
04506              -1.20     8800.00
04507             -25.00     8800.00
04508              25.00    10400.00
04509               1.80    10400.00
04510             -25.00    11200.00
04511              25.00    12000.00
04512             -25.00    12000.00
04513               6.00    12800.00
04514              25.00    13600.00
04515             -25.00    14400.00
04516              25.00    14400.00
04517             -25.00    15200.00
04518             -20.60    16000.00
04519              25.00    16000.00
04520             -25.00    17600.00
04521               2.00    17600.00
04522              25.00    17600.00
04523             -24.60    19200.00
04524             -25.00    19200.00
04525              25.00    19200.00
04526             -16.20    20800.00
04527             -25.00    21600.00
04528              25.00    21600.00
04529             -25.00    22400.00
04530               3.00    22400.00
04531               5.00    22400.00
04532             -16.20    24000.00
04533               8.20    24000.00
04534              -1.00    24800.00
04535             -11.00    24800.00
04536               9.20    25600.00
04537               3.60    25600.00
04538             -22.80    25600.00
04539              17.00    26400.00
04540              -5.40    27200.00
04541             -15.40    27200.00
04542              11.80    27200.00
04543              -4.20    28000.00
04544              -9.20    28800.00
04545               3.80    28800.00
04546               1.20    28800.00
04547             -10.80    30400.00
04548               3.40    30400.00
04549              -0.60    30400.00
04550              -8.60    30400.00
04551               2.00    31200.00
04552              -2.80    31200.00
04553              -4.60    30400.00
04554               2.40    32800.00
04555              -5.00    32800.00
04556              -3.00    32800.00
04557               0.60    32000.00
04558              -6.40    32800.00
04559              -2.00    32800.00
04560              -0.60    33600.00
04561              -4.20    33600.00
04562              -1.20    33600.00
04563              -1.00    34400.00
04564              -4.20    33600.00
04565              -3.80    33600.00
04566              -1.00    33600.00
04567              -3.40    33600.00
04568              -3.20    34400.00
04569              -0.80    34400.00
04570              -4.20    33600.00
04571              -2.00    34400.00
04572              -2.20    34400.00
04573              -3.80    34400.00
04574              -1.40    34400.00
04575              -3.80    34400.00
04576              -1.80    34400.00
04577              -2.20    34400.00
04578              -3.60    34400.00
04579              -2.20    34400.00
04580              -2.40    34400.00
04581              -2.40    34400.00
04582              -3.00    34400.00
04583              -2.60    34400.00
04584              -2.20    33600.00
04585              -3.40    33600.00
04586              -1.80    33600.00
04587              -3.00    33600.00
04588              -2.80    33600.00
04589              -2.20    33600.00
04590              -3.00    33600.00
04591              -2.60    32800.00
04592              -3.20    32800.00
04593              -2.60    32800.00
04594              -2.00    32000.00
04595              -3.00    32000.00
04596              -2.60    32800.00
04597              -2.60    31200.00
04598              -2.80    31200.00
04599              -2.20    31200.00
04600              -2.80    31200.00
04601              -3.00    31200.00
04602              -2.80    30400.00
04603              -2.20    29600.00
04604              -2.60    29600.00
04605              -3.40    28800.00
04606              -2.20    28800.00
04607              -2.80    28800.00
04608              -2.80    28000.00
04609              -2.40    28000.00
04610              -2.80    27200.00
04611              -2.20    27200.00
04612              -2.00    25600.00
04613              -2.40    25600.00
04614              -2.20    25600.00
04615              -2.80    24800.00
04616              -2.40    24800.00
04617              -2.60    24000.00
04618              -2.20    24000.00
04619              -2.20    24000.00
04620              -2.80    23200.00
04621              -2.00    22400.00
04622              -2.20    21600.00
04623              -2.20    21600.00
04624              -2.00    20800.00
04625              -2.20    20800.00
04626              -1.80    19200.00
04627              -2.00    19200.00
04628              -1.80    19200.00
04629              -2.00    17600.00
04630              -2.20    17600.00
04631              -1.40    16800.00
04632              -2.00    16800.00
04633              -2.00    16000.00
04634              -1.80    15200.00
04635              -1.80    14400.00
04636              -1.60    14400.00
04637              -1.60    14400.00
04638              -2.20    12800.00
04639              -1.00    12800.00
04640              -1.20    12000.00
04641              -1.60    11200.00
04642              -1.80    11200.00
04643              -0.60     9600.00
04644              -1.40     9600.00
04645              -1.80     8800.00
04646              -0.60     8000.00
04647              -1.40     8000.00
04648              -2.00     7200.00
04649               0.20     7200.00
04650              -1.40     5600.00
04651              -2.00     4800.00
04652               0.00     4800.00
04653              -0.20     3200.00
04654              -1.80     3200.00
04655              -1.20     3200.00
04656               0.20     1600.00
04657              -1.80     1600.00
04658              -0.60      800.00
04659               0.40        0.00
04660               0.00     -800.00
04661               1.40    -1600.00
04662               2.60    -1600.00
04663              -2.20    -1600.00
04664              -0.20    -2400.00
04665               1.20    -3200.00
04666               0.40    -4000.00
04667               0.20    -4000.00
04668               8.80    -4800.00
04669              25.00    -6400.00
04670             -11.40    -8000.00
04671             -25.00    -8000.00
04672              13.80    -8000.00
04673              21.80    -8800.00
04674             -25.00    -9600.00
04675              -7.00    -9600.00
04676              25.00   -10400.00
04677             -25.00   -10400.00
04678             -23.00   -11200.00
04679              25.00   -12000.00
04680             -25.00   -12800.00
04681               2.80   -13600.00
04682              17.80   -13600.00
04683             -12.60   -14400.00
04684              24.20   -15200.00
04685             -25.00   -16000.00
04686              23.60   -16000.00
04687              23.40   -16800.00
04688             -25.00   -17600.00
04689              17.00   -17600.00
04690              25.00   -18400.00
04691             -25.00   -19200.00
04692              -6.00   -19200.00
04693              25.00   -20000.00
04694             -25.00   -20800.00
04695               0.40   -20800.00
04696              25.00   -20800.00
04697             -19.80   -22400.00
04698               3.60   -22400.00
04699               6.80   -23200.00
04700              -6.80   -23200.00
04701               2.20   -24000.00
04702               5.80   -24800.00
04703              -3.00   -25600.00
04704               8.60   -25600.00
04705              -0.60   -25600.00
04706              -5.80   -26400.00
04707              13.20   -26400.00
04708              -6.60   -27200.00
04709              -1.00   -27200.00
04710              10.80   -27200.00
04711              -3.00   -28000.00
04712              -2.00   -28000.00
04713               7.80   -28800.00
04714               0.40   -28800.00
04715              -2.20   -29600.00
04716               7.00   -29600.00
04717               0.20   -29600.00
04718              -1.20   -30400.00
04719               5.40   -30400.00
04720               0.60   -30400.00
04721               1.40   -32000.00
04722               5.20   -32000.00
04723              -0.20   -32000.00
04724               1.80   -32000.00
04725               2.80   -32800.00
04726              -0.40   -32000.00
04727               2.20   -32800.00
04728               3.00   -32800.00
04729               1.80   -33600.00
04730               2.20   -32800.00
04731               1.20   -32800.00
04732               1.80   -32800.00
04733               2.60   -33600.00
04734               1.80   -33600.00
04735               0.40   -33600.00
04736               3.40   -33600.00
04737               3.60   -33600.00
04738              -0.80   -33600.00
04739               3.00   -33600.00
04740               3.40   -34400.00
04741               0.80   -33600.00
04742               1.80   -33600.00
04743               2.60   -33600.00
04744               2.60   -33600.00
04745               0.40   -33600.00
04746               2.60   -33600.00
04747               2.80   -33600.00
04748               0.40   -33600.00
04749               2.80   -33600.00
04750               3.00   -33600.00
04751               1.00   -33600.00
04752               1.40   -33600.00
04753               3.80   -32800.00
04754               1.80   -32800.00
04755               0.20   -32800.00
04756               3.40   -32800.00
04757               2.80   -32800.00
04758               0.60   -32000.00
04759               2.60   -32000.00
04760               2.60   -32000.00
04761               1.20   -32000.00
04762               1.80   -32000.00
04763               2.20   -32000.00
04764               1.40   -30400.00
04765               1.80   -30400.00
04766               2.80   -30400.00
04767               2.20   -30400.00
04768               1.20   -29600.00
04769               2.00   -29600.00
04770               2.20   -29600.00
04771               2.20   -28800.00
04772               1.40   -28800.00
04773               1.80   -28000.00
04774               2.20   -28800.00
04775               1.40   -27200.00
04776               1.20   -27200.00
04777               2.60   -26400.00
04778               2.00   -26400.00
04779               1.20   -25600.00
04780               1.80   -25600.00
04781               2.00   -24800.00
04782               1.60   -24000.00
04783               1.80   -24000.00
04784               2.00   -23200.00
04785               1.20   -23200.00
04786               2.00   -23200.00
04787               1.80   -22400.00
04788               1.20   -22400.00
04789               1.40   -20800.00
04790               1.20   -20800.00
04791               0.80   -20800.00
04792               1.20   -20000.00
04793               1.40   -19200.00
04794               1.20   -18400.00
04795               1.00   -17600.00
04796               1.40   -17600.00
04797               1.20   -17600.00
04798               0.60   -16800.00
04799               1.00   -16000.00
04800               1.00   -15200.00
04801               1.00   -15200.00
04802               0.40   -14400.00
04803               1.00   -14400.00
04804               1.00   -12800.00
04805               0.40   -12800.00
04806               1.00   -12000.00
04807               0.60   -11200.00
04808               0.40   -10400.00
04809               0.60   -10400.00
04810               0.40    -9600.00
04811               0.40    -9600.00
04812               0.80    -8000.00
04813               0.60    -8000.00
04814               0.40    -7200.00
04815               0.40    -6400.00
04816               0.40    -6400.00
04817              -0.20    -4800.00
04818               0.20    -4800.00
04819               0.20    -4000.00
04820               0.20    -3200.00
04821               0.40    -3200.00
04822               0.20    -1600.00
04823               0.00    -1600.00
04824               0.00     -800.00
04825               0.20        0.00
04826               0.20        0.00
04827               0.60     1600.00
04828               3.00     1600.00
04829               2.00     2400.00
04830              -2.20     2400.00
04831               0.40     2400.00
04832               1.60     4000.00
04833              -1.20     4000.00
04834               5.40     5600.00
04835              25.00     6400.00
04836               1.40     8000.00
04837             -25.00     8000.00
04838               7.40     8000.00
04839              25.00     8800.00
04840             -25.00     8800.00
04841              16.40    10400.00
04842              25.00    10400.00
04843             -25.00    10400.00
04844              25.00    12000.00
04845              24.20    11200.00
04846             -25.00    12800.00
04847              25.00    12800.00
04848             -25.00    12800.00
04849              25.00    15200.00
04850              25.00    14400.00
04851             -25.00    15200.00
04852              25.00    16000.00
04853              -6.80    16000.00
04854             -25.00    17600.00
04855              25.00    17600.00
04856               7.60    18400.00
04857             -25.00    19200.00
04858              17.80    19200.00
04859              25.00    20800.00
04860             -25.00    20800.00
04861              25.00    21600.00
04862               5.20    21600.00
04863             -20.60    22400.00
04864              19.40    23200.00
04865             -18.60    22400.00
04866              -1.00    24000.00
04867               5.20    24000.00
04868              -8.60    24800.00
04869              -2.00    24800.00
04870              15.80    25600.00
04871             -20.40    25600.00
04872              -0.60    26400.00
04873              12.60    27200.00
04874             -22.00    27200.00
04875               5.80    27200.00
04876               6.20    28000.00
04877             -10.20    28000.00
04878              -2.00    28800.00
04879               5.40    28800.00
04880              -8.80    29600.00
04881              -3.40    29600.00
04882               5.00    30400.00
04883              -8.40    30400.00
04884              -2.60    30400.00
04885               1.20    31200.00
04886              -6.60    31200.00
04887               0.40    31200.00
04888              -0.60    32000.00
04889              -5.80    32800.00
04890               0.80    32800.00
04891              -3.60    32800.00
04892              -5.00    32800.00
04893               0.20    33600.00
04894              -3.60    33600.00
04895              -2.80    33600.00
04896              -0.40    33600.00
04897              -2.80    33600.00
04898              -4.60    33600.00
04899              -1.80    33600.00
04900              -1.80    33600.00
04901              -4.40    33600.00
04902              -0.60    34400.00
04903              -2.80    33600.00
04904              -3.40    34400.00
04905              -1.00    34400.00
04906              -3.80    34400.00
04907              -2.00    34400.00
04908              -2.60    33600.00
04909              -3.20    33600.00
04910              -1.20    34400.00
04911              -3.40    34400.00
04912              -3.40    34400.00
04913              -1.80    34400.00
04914              -2.60    34400.00
04915              -3.00    34400.00
04916              -3.00    34400.00
04917              -1.60    33600.00
04918              -3.80    34400.00
04919              -2.20    33600.00
04920              -1.40    33600.00
04921              -3.80    33600.00
04922              -2.20    33600.00
04923              -2.20    33600.00
04924              -3.40    32800.00
04925              -2.80    32800.00
04926              -3.00    32800.00
04927              -2.60    32000.00
04928              -2.60    32000.00
04929              -2.80    32000.00
04930              -2.80    32000.00
04931              -2.60    31200.00
04932              -2.40    31200.00
04933              -3.00    30400.00
04934              -2.80    30400.00
04935              -2.80    29600.00
04936              -2.80    30400.00
04937              -2.20    29600.00
04938              -2.80    28800.00
04939              -2.60    28800.00
04940              -2.60    28800.00
04941              -2.20    28000.00
04942              -2.20    28000.00
04943              -2.80    27200.00
04944              -2.80    27200.00
04945              -2.00    26400.00
04946              -2.60    25600.00
04947              -2.60    25600.00
04948              -2.20    24800.00
04949              -2.40    24800.00
04950              -2.40    24800.00
04951              -2.20    24800.00
04952              -2.00    24000.00
04953              -2.40    23200.00
04954              -2.20    22400.00
04955              -2.00    21600.00
04956              -2.60    21600.00
04957              -2.20    21600.00
04958              -2.60    20800.00
04959              -1.80    19200.00
04960              -1.60    19200.00
04961              -2.20    18400.00
04962              -1.80    18400.00
04963              -1.80    17600.00
04964              -2.00    17600.00
04965              -1.80    16800.00
04966              -1.80    16000.00
04967              -2.00    16000.00
04968              -1.40    15200.00
04969              -1.20    15200.00
04970              -2.00    14400.00
04971              -2.00    12800.00
04972              -1.20    12800.00
04973              -1.20    12000.00
04974              -1.40    12000.00
04975              -1.40    11200.00
04976              -1.20    11200.00
04977              -1.20     9600.00
04978              -1.40     9600.00
04979              -1.20     8800.00
04980              -1.20     8000.00
04981              -1.40     7200.00
04982              -1.20     7200.00
04983              -0.60     5600.00
04984              -1.20     5600.00
04985              -1.00     4800.00
04986              -1.00     4000.00
04987              -1.00     3200.00
04988              -1.20     2400.00
04989              -1.20     2400.00
04990              -1.00     1600.00
04991              -0.60     1600.00
04992              -0.80        0.00
04993               0.20     -800.00
04994               0.40     -800.00
04995               3.40    -1600.00
04996              -1.20    -1600.00
04997              -1.20    -1600.00
04998               1.20    -2400.00
04999               1.00    -4000.00
05000              -1.20    -4000.00
