Unit:(mV)
                     CH1         CH2
Frequency              ? 299.703 kHz
00001              25.00    -8800.00
00002             -14.40    -8800.00
00003             -25.00    -9600.00
00004              25.00   -10400.00
00005              23.20   -11200.00
00006             -25.00   -10400.00
00007              25.00   -12000.00
00008               2.00   -12800.00
00009             -25.00   -12800.00
00010              25.00   -13600.00
00011             -22.80   -13600.00
00012              23.60   -14400.00
00013             -15.60   -15200.00
00014             -13.20   -16000.00
00015              25.00   -16000.00
00016             -25.00   -16800.00
00017             -11.40   -17600.00
00018              25.00   -17600.00
00019              -7.00   -18400.00
00020             -25.00   -19200.00
00021              25.00   -20000.00
00022              -0.60   -20000.00
00023             -25.00   -20800.00
00024              25.00   -20800.00
00025              -5.00   -22400.00
00026             -11.00   -22400.00
00027              14.00   -23200.00
00028              -4.20   -23200.00
00029              -3.40   -24000.00
00030               8.60   -24000.00
00031              -0.60   -24000.00
00032               1.20   -24800.00
00033              10.00   -25600.00
00034             -10.40   -25600.00
00035               9.00   -26400.00
00036               4.00   -26400.00
00037              -9.00   -27200.00
00038              10.00   -28800.00
00039               3.00   -28000.00
00040              -3.60   -28800.00
00041               5.20   -28800.00
00042               6.20   -29600.00
00043              -5.00   -29600.00
00044               4.60   -29600.00
00045               5.20   -30400.00
00046              -3.60   -30400.00
00047               4.60   -30400.00
00048               3.80   -30400.00
00049              -0.20   -32000.00
00050               4.00   -32000.00
00051               2.60   -32000.00
00052              -0.20   -32000.00
00053               3.80   -32000.00
00054               1.00   -32800.00
00055               1.00   -32000.00
00056               3.40   -32800.00
00057               1.80   -32800.00
00058               3.60   -33600.00
00059               2.40   -33600.00
00060               1.80   -33600.00
00061               1.80   -33600.00
00062               2.60   -33600.00
00063               1.80   -33600.00
00064               1.80   -33600.00
00065               4.20   -33600.00
00066               2.00   -33600.00
00067               2.80   -33600.00
00068               2.80   -33600.00
00069               1.40   -33600.00
00070               3.00   -33600.00
00071               2.00   -33600.00
00072               2.60   -33600.00
00073               3.00   -33600.00
00074               2.00   -34400.00
00075               3.00   -33600.00
00076               3.20   -33600.00
00077               2.60   -33600.00
00078               2.60   -33600.00
00079               2.80   -33600.00
00080               2.20   -33600.00
00081               2.00   -32800.00
00082               3.00   -32800.00
00083               2.40   -33600.00
00084               2.20   -33600.00
00085               3.20   -32800.00
00086               2.20   -32800.00
00087               2.20   -32800.00
00088               2.60   -32000.00
00089               2.20   -32000.00
00090               3.00   -32000.00
00091               2.60   -32000.00
00092               2.40   -31200.00
00093               2.60   -30400.00
00094               2.60   -30400.00
00095               2.20   -30400.00
00096               2.60   -30400.00
00097               2.20   -29600.00
00098               2.00   -29600.00
00099               3.00   -29600.00
00100               2.00   -28800.00
00101               1.80   -28800.00
00102               2.60   -28800.00
00103               2.00   -27200.00
00104               2.00   -27200.00
00105               2.20   -27200.00
00106               1.80   -26400.00
00107               2.20   -26400.00
00108               2.60   -25600.00
00109               1.20   -26400.00
00110               2.00   -25600.00
00111               2.00   -24000.00
00112               1.40   -24000.00
00113               1.80   -23200.00
00114               1.80   -23200.00
00115               1.80   -22400.00
00116               1.80   -22400.00
00117               1.80   -22400.00
00118               1.40   -21600.00
00119               1.80   -20800.00
00120               1.40   -20000.00
00121               1.40   -20000.00
00122               2.00   -18400.00
00123               1.00   -19200.00
00124               1.20   -18400.00
00125               2.00   -17600.00
00126               1.00   -16800.00
00127               1.20   -16800.00
00128               1.80   -16000.00
00129               0.60   -15200.00
00130               1.00   -15200.00
00131               1.00   -13600.00
00132               1.00   -13600.00
00133               0.60   -12800.00
00134               1.00   -12800.00
00135               1.20   -11200.00
00136               0.80   -11200.00
00137               1.00   -11200.00
00138               0.60    -9600.00
00139               0.60    -9600.00
00140               0.80    -8800.00
00141               0.40    -8000.00
00142               0.60    -8000.00
00143               0.60    -7200.00
00144               0.20    -6400.00
00145               1.00    -6400.00
00146               0.60    -4800.00
00147              -0.20    -4800.00
00148               0.40    -4000.00
00149               0.40    -3200.00
00150               0.20    -2400.00
00151               0.20    -1600.00
00152               0.20    -1600.00
00153               0.20     -800.00
00154               0.40        0.00
00155               0.40        0.00
00156               0.60     1600.00
00157               3.60     1600.00
00158              -0.60     2400.00
00159              -1.80     2400.00
00160               1.20     3200.00
00161               0.60     4000.00
00162              -0.60     4800.00
00163              12.60     5600.00
00164              25.00     7200.00
00165             -25.00     8000.00
00166             -25.00     8000.00
00167              25.00     8000.00
00168              -2.60     8000.00
00169             -25.00     8800.00
00170              25.00    11200.00
00171             -10.80    10400.00
00172             -25.00    11200.00
00173              25.00    12000.00
00174             -25.00    12000.00
00175              12.20    12800.00
00176              25.00    12800.00
00177             -25.00    14400.00
00178              25.00    14400.00
00179             -25.00    16000.00
00180              -8.20    15200.00
00181              25.00    16000.00
00182             -25.00    17600.00
00183               9.40    17600.00
00184              25.00    18400.00
00185             -22.60    18400.00
00186             -25.00    19200.00
00187              25.00    19200.00
00188             -22.00    20800.00
00189             -20.80    21600.00
00190              25.00    21600.00
00191             -25.00    21600.00
00192               6.00    22400.00
00193               4.20    22400.00
00194             -16.40    23200.00
00195               3.80    24000.00
00196               3.00    24800.00
00197             -10.80    24800.00
00198               5.40    25600.00
00199               5.80    25600.00
00200             -21.40    25600.00
00201              14.00    27200.00
00202              -6.40    27200.00
00203             -11.80    27200.00
00204               8.80    27200.00
00205              -4.20    28000.00
00206              -7.00    28800.00
00207               1.40    28800.00
00208               0.80    29600.00
00209             -10.60    28800.00
00210               3.00    30400.00
00211              -2.00    30400.00
00212              -8.40    31200.00
00213               2.20    31200.00
00214              -3.40    31200.00
00215              -4.60    32000.00
00216               2.20    32800.00
00217              -4.40    32000.00
00218              -4.40    32800.00
00219               0.60    32800.00
00220              -6.20    32800.00
00221              -2.60    33600.00
00222              -1.80    32800.00
00223              -4.20    33600.00
00224              -0.80    32800.00
00225              -2.40    33600.00
00226              -4.00    33600.00
00227              -4.20    33600.00
00228              -1.80    34400.00
00229              -3.80    33600.00
00230              -2.80    34400.00
00231              -1.40    33600.00
00232              -5.40    34400.00
00233              -1.40    33600.00
00234              -3.00    34400.00
00235              -5.00    34400.00
00236              -2.20    34400.00
00237              -4.40    34400.00
00238              -2.20    34400.00
00239              -3.00    34400.00
00240              -4.20    34400.00
00241              -2.60    34400.00
00242              -3.60    34400.00
00243              -3.00    34400.00
00244              -3.00    33600.00
00245              -3.60    34400.00
00246              -3.20    34400.00
00247              -3.40    34400.00
00248              -2.20    34400.00
00249              -3.80    33600.00
00250              -3.40    33600.00
00251              -2.60    33600.00
00252              -3.60    33600.00
00253              -3.00    33600.00
00254              -3.60    32800.00
00255              -3.40    32800.00
00256              -2.60    32000.00
00257              -3.40    32800.00
00258              -3.00    32000.00
00259              -3.40    32000.00
00260              -3.40    32000.00
00261              -2.80    31200.00
00262              -3.00    31200.00
00263              -3.00    31200.00
00264              -2.80    31200.00
00265              -2.80    30400.00
00266              -3.00    29600.00
00267              -3.00    28800.00
00268              -3.40    28800.00
00269              -3.20    28800.00
00270              -2.40    28000.00
00271              -2.80    27200.00
00272              -3.40    27200.00
00273              -2.60    27200.00
00274              -2.20    27200.00
00275              -2.80    26400.00
00276              -2.20    25600.00
00277              -2.80    25600.00
00278              -2.60    24800.00
00279              -2.60    24800.00
00280              -2.60    24000.00
00281              -2.00    24000.00
00282              -2.80    24000.00
00283              -2.20    22400.00
00284              -2.20    22400.00
00285              -2.80    21600.00
00286              -2.60    20800.00
00287              -2.20    21600.00
00288              -1.80    20000.00
00289              -2.40    19200.00
00290              -2.20    18400.00
00291              -2.00    17600.00
00292              -2.20    17600.00
00293              -1.60    17600.00
00294              -1.80    16800.00
00295              -2.00    16000.00
00296              -2.00    16000.00
00297              -1.80    15200.00
00298              -2.00    14400.00
00299              -2.00    14400.00
00300              -2.20    12800.00
00301              -1.80    12800.00
00302              -1.40    12800.00
00303              -1.80    11200.00
00304              -2.20    11200.00
00305              -1.20    11200.00
00306              -1.20     9600.00
00307              -1.40     9600.00
00308              -1.20     8000.00
00309              -1.40     8000.00
00310              -1.60     7200.00
00311              -1.20     6400.00
00312              -1.20     5600.00
00313              -1.00     5600.00
00314              -1.80     4800.00
00315              -1.00     4800.00
00316              -0.40     3200.00
00317              -1.40     2400.00
00318              -1.80     1600.00
00319              -0.40     1600.00
00320              -0.60     1600.00
00321              -0.60        0.00
00322               0.40     -800.00
00323               0.80    -1600.00
00324               3.40    -1600.00
00325              -1.80    -1600.00
00326              -0.40    -3200.00
00327               1.20    -3200.00
00328               0.60    -3200.00
00329              -0.40    -4800.00
00330               8.00    -4800.00
00331              25.00    -6400.00
00332              -3.00    -7200.00
00333             -25.00    -8000.00
00334               6.60    -8800.00
00335              25.00    -8800.00
00336             -25.00    -9600.00
00337             -14.00    -9600.00
00338              25.00   -10400.00
00339             -25.00   -10400.00
00340             -25.00   -12000.00
00341              25.00   -12000.00
00342             -25.00   -12800.00
00343               0.20   -13600.00
00344              20.40   -13600.00
00345             -15.20   -13600.00
00346              25.00   -15200.00
00347             -25.00   -15200.00
00348              21.00   -16000.00
00349              25.00   -16000.00
00350             -25.00   -17600.00
00351              12.60   -17600.00
00352              25.00   -17600.00
00353             -25.00   -19200.00
00354              -9.40   -19200.00
00355              25.00   -20000.00
00356             -25.00   -20000.00
00357              -1.80   -20800.00
00358              25.00   -20800.00
00359             -20.40   -22400.00
00360               3.40   -23200.00
00361               9.00   -23200.00
00362              -7.80   -23200.00
00363               1.40   -24000.00
00364               8.60   -24000.00
00365              -4.40   -24800.00
00366               8.40   -25600.00
00367               1.80   -25600.00
00368              -7.80   -26400.00
00369              13.80   -26400.00
00370              -5.40   -27200.00
00371              -1.60   -27200.00
00372              10.80   -27200.00
00373              -1.80   -28800.00
00374              -2.00   -28800.00
00375               8.00   -28800.00
00376               1.20   -29600.00
00377              -3.00   -29600.00
00378               8.20   -29600.00
00379               0.20   -29600.00
00380              -1.40   -30400.00
00381               5.80   -30400.00
00382               1.00   -31200.00
00383               1.20   -31200.00
00384               5.20   -32000.00
00385               0.60   -32000.00
00386               2.00   -32000.00
00387               3.60   -32800.00
00388              -0.40   -32800.00
00389               3.40   -32800.00
00390               2.80   -32800.00
00391               2.00   -32800.00
00392               3.40   -32800.00
00393               2.00   -32800.00
00394               1.40   -33600.00
00395               2.00   -33600.00
00396               2.80   -33600.00
00397               1.80   -33600.00
00398               2.80   -33600.00
00399               3.20   -33600.00
00400               2.00   -33600.00
00401               3.60   -33600.00
00402               1.80   -33600.00
00403               2.20   -33600.00
00404               3.40   -33600.00
00405               1.60   -33600.00
00406               3.00   -33600.00
00407               3.00   -33600.00
00408               2.00   -33600.00
00409               3.00   -33600.00
00410               2.80   -33600.00
00411               2.60   -33600.00
00412               2.20   -32800.00
00413               2.80   -33600.00
00414               2.60   -33600.00
00415               2.60   -33600.00
00416               3.00   -32800.00
00417               2.20   -32800.00
00418               3.40   -32800.00
00419               2.80   -32800.00
00420               1.60   -32800.00
00421               2.80   -32800.00
00422               2.80   -32000.00
00423               2.60   -32000.00
00424               3.00   -32000.00
00425               1.80   -32000.00
00426               2.00   -31200.00
00427               2.60   -30400.00
00428               2.80   -30400.00
00429               2.20   -30400.00
00430               2.00   -30400.00
00431               2.40   -29600.00
00432               2.60   -29600.00
00433               1.80   -28800.00
00434               2.20   -28800.00
00435               2.20   -28800.00
00436               2.20   -28000.00
00437               1.80   -27200.00
00438               2.80   -27200.00
00439               1.20   -27200.00
00440               1.20   -26400.00
00441               3.40   -26400.00
00442               2.20   -25600.00
00443               1.40   -25600.00
00444               2.20   -24000.00
00445               0.80   -24000.00
00446               1.40   -24000.00
00447               3.00   -24000.00
00448               1.20   -23200.00
00449               1.60   -23200.00
00450               2.60   -22400.00
00451               1.00   -21600.00
00452               1.20   -20800.00
00453               2.20   -20000.00
00454               1.00   -20000.00
00455               1.60   -18400.00
00456               2.00   -19200.00
00457               0.40   -18400.00
00458               1.40   -17600.00
00459               2.00   -17600.00
00460               0.60   -16800.00
00461               1.40   -16800.00
00462               1.80   -16000.00
00463               1.20   -15200.00
00464               1.20   -14400.00
00465               1.00   -13600.00
00466               1.20   -13600.00
00467               1.00   -12800.00
00468               1.00   -12800.00
00469               1.40   -11200.00
00470               1.00   -11200.00
00471               0.60   -10400.00
00472               0.60    -9600.00
00473               1.00    -8800.00
00474               0.60    -8800.00
00475               0.80    -8000.00
00476               1.20    -7200.00
00477               0.20    -6400.00
00478               0.40    -6400.00
00479               1.00    -6400.00
00480               0.40    -4800.00
00481              -0.20    -4000.00
00482               0.60    -3200.00
00483               0.20    -3200.00
00484              -0.20    -1600.00
00485               0.40    -1600.00
00486               0.20     -800.00
00487               0.00     -800.00
00488               0.20        0.00
00489               0.80      800.00
00490               1.20     1600.00
00491               3.60     1600.00
00492              -2.00     1600.00
00493              -0.60     2400.00
00494               1.20     3200.00
00495              -0.80     4000.00
00496               2.20     4800.00
00497              22.80     6400.00
00498              21.20     7200.00
00499             -25.00     8000.00
00500             -12.40     8000.00
00501              25.00     8000.00
00502             -25.00     8800.00
00503              -8.80     9600.00
00504              25.00    10400.00
00505             -25.00    10400.00
00506              20.20    11200.00
00507              25.00    12000.00
00508             -25.00    12000.00
00509              25.00    12800.00
00510             -25.00    12800.00
00511              -2.40    14400.00
00512              25.00    14400.00
00513             -25.00    15200.00
00514              25.00    16000.00
00515              19.00    16000.00
00516             -25.00    17600.00
00517              25.00    17600.00
00518              16.40    18400.00
00519             -25.00    19200.00
00520              -1.80    19200.00
00521              25.00    20800.00
00522             -25.00    20800.00
00523              15.00    21600.00
00524              22.00    21600.00
00525             -25.00    22400.00
00526              19.00    22400.00
00527             -10.80    22400.00
00528             -10.00    23200.00
00529               4.80    24000.00
00530               0.40    24800.00
00531             -10.20    24800.00
00532              13.80    24800.00
00533              -8.40    25600.00
00534             -12.20    26400.00
00535              14.60    27200.00
00536             -16.60    27200.00
00537               0.20    27200.00
00538               5.80    28000.00
00539              -7.00    28000.00
00540              -4.60    28800.00
00541               3.60    28800.00
00542              -5.00    28800.00
00543              -7.00    29600.00
00544               6.00    30400.00
00545              -7.80    30400.00
00546              -5.00    31200.00
00547               2.60    31200.00
00548              -6.60    31200.00
00549              -1.60    31200.00
00550               1.80    32000.00
00551              -6.40    32000.00
00552              -1.60    32800.00
00553              -1.80    32800.00
00554              -6.40    32000.00
00555              -0.20    33600.00
00556              -3.20    33600.00
00557              -3.00    33600.00
00558              -0.60    33600.00
00559              -3.00    33600.00
00560              -4.60    33600.00
00561              -4.40    33600.00
00562              -1.20    34400.00
00563              -4.40    34400.00
00564              -2.60    34400.00
00565              -2.20    34400.00
00566              -4.40    33600.00
00567              -1.80    34400.00
00568              -3.80    34400.00
00569              -3.00    34400.00
00570              -3.40    34400.00
00571              -3.80    34400.00
00572              -1.40    34400.00
00573              -4.60    34400.00
00574              -3.20    34400.00
00575              -2.60    34400.00
00576              -3.40    34400.00
00577              -3.00    34400.00
00578              -3.80    33600.00
00579              -3.00    34400.00
00580              -3.80    34400.00
00581              -3.00    33600.00
00582              -3.00    33600.00
00583              -3.60    33600.00
00584              -2.40    33600.00
00585              -3.00    33600.00
00586              -3.40    32800.00
00587              -3.40    33600.00
00588              -3.60    32800.00
00589              -2.80    32000.00
00590              -3.00    32000.00
00591              -3.00    32800.00
00592              -3.00    32000.00
00593              -3.40    32000.00
00594              -2.60    31200.00
00595              -3.00    31200.00
00596              -3.60    31200.00
00597              -2.80    30400.00
00598              -3.00    30400.00
00599              -2.80    29600.00
00600              -2.40    30400.00
00601              -2.80    28800.00
00602              -2.80    28800.00
00603              -2.80    28800.00
00604              -2.60    28800.00
00605              -3.00    27200.00
00606              -3.60    28000.00
00607              -2.40    27200.00
00608              -2.20    27200.00
00609              -2.80    25600.00
00610              -2.80    25600.00
00611              -2.60    24800.00
00612              -2.60    24800.00
00613              -2.80    24800.00
00614              -2.00    24000.00
00615              -2.60    23200.00
00616              -2.80    23200.00
00617              -1.60    22400.00
00618              -2.40    21600.00
00619              -2.80    21600.00
00620              -2.20    20800.00
00621              -2.20    20000.00
00622              -2.20    19200.00
00623              -2.60    19200.00
00624              -2.20    19200.00
00625              -2.60    17600.00
00626              -2.00    17600.00
00627              -1.20    17600.00
00628              -3.00    16000.00
00629              -2.20    16000.00
00630              -1.00    16000.00
00631              -1.80    14400.00
00632              -2.00    14400.00
00633              -1.60    13600.00
00634              -2.60    12800.00
00635              -2.00    12800.00
00636              -1.00    12000.00
00637              -2.20    11200.00
00638              -2.40    11200.00
00639              -0.60    10400.00
00640              -2.20     9600.00
00641              -2.20     8800.00
00642              -1.00     8000.00
00643              -1.60     8000.00
00644              -1.80     6400.00
00645               0.40     6400.00
00646              -1.20     5600.00
00647              -2.20     4800.00
00648              -1.00     4000.00
00649              -0.60     3200.00
00650              -1.20     3200.00
00651              -0.40     2400.00
00652              -1.20     1600.00
00653              -1.60     1600.00
00654              -0.40      800.00
00655              -0.20        0.00
00656              -0.20     -800.00
00657               2.80     -800.00
00658               1.60    -1600.00
00659              -2.60    -2400.00
00660               1.00    -2400.00
00661               1.80    -3200.00
00662              -0.40    -4000.00
00663               2.00    -4000.00
00664              13.80    -4800.00
00665              25.00    -6400.00
00666             -25.00    -8000.00
00667             -25.00    -8000.00
00668              25.00    -8000.00
00669               9.00    -8800.00
00670             -25.00    -9600.00
00671              25.00    -9600.00
00672              25.00   -10400.00
00673             -25.00   -10400.00
00674              25.00   -11200.00
00675              25.00   -12800.00
00676             -25.00   -12800.00
00677              25.00   -13600.00
00678              -7.80   -13600.00
00679               7.60   -14400.00
00680               9.80   -14400.00
00681             -25.00   -16000.00
00682              25.00   -16000.00
00683              -4.60   -16800.00
00684             -25.00   -17600.00
00685              25.00   -17600.00
00686              11.40   -18400.00
00687             -25.00   -19200.00
00688              15.40   -20000.00
00689              25.00   -20000.00
00690             -25.00   -20800.00
00691              23.40   -20800.00
00692              14.00   -21600.00
00693             -20.00   -22400.00
00694              12.40   -22400.00
00695               0.80   -23200.00
00696              -6.80   -24000.00
00697               5.80   -24000.00
00698               4.60   -24000.00
00699              -4.40   -24800.00
00700              12.20   -25600.00
00701              -6.20   -25600.00
00702              -0.60   -26400.00
00703              11.20   -27200.00
00704              -9.20   -26400.00
00705               5.40   -27200.00
00706               7.60   -27200.00
00707              -3.00   -28800.00
00708               0.40   -28800.00
00709               8.40   -28800.00
00710              -2.60   -29600.00
00711               0.60   -29600.00
00712               7.40   -29600.00
00713              -2.80   -30400.00
00714               2.20   -30400.00
00715               4.60   -30400.00
00716              -0.80   -32000.00
00717               3.40   -31200.00
00718               4.20   -32000.00
00719              -0.60   -32000.00
00720               4.40   -32000.00
00721               1.80   -32000.00
00722               0.20   -32000.00
00723               4.40   -32800.00
00724               2.00   -32800.00
00725               2.60   -32800.00
00726               3.60   -32800.00
00727               1.80   -33600.00
00728               1.40   -33600.00
00729               2.60   -33600.00
00730               2.60   -33600.00
00731               1.40   -33600.00
00732               3.80   -33600.00
00733               2.80   -34400.00
00734               2.60   -34400.00
00735               3.00   -33600.00
00736               1.40   -33600.00
00737               3.00   -33600.00
00738               2.60   -33600.00
00739               2.60   -33600.00
00740               4.20   -33600.00
00741               1.80   -33600.00
00742               2.20   -33600.00
00743               4.00   -33600.00
00744               2.20   -33600.00
00745               1.80   -33600.00
00746               3.40   -33600.00
00747               2.60   -33600.00
00748               1.20   -33600.00
00749               3.40   -32800.00
00750               2.80   -33600.00
00751               1.40   -32800.00
00752               3.60   -32800.00
00753               2.60   -32800.00
00754               1.60   -32000.00
00755               2.60   -32000.00
00756               2.20   -32800.00
00757               2.60   -32000.00
00758               2.60   -32000.00
00759               2.40   -32000.00
00760               2.80   -31200.00
00761               2.00   -30400.00
00762               2.00   -30400.00
00763               2.20   -30400.00
00764               2.20   -29600.00
00765               2.00   -29600.00
00766               2.60   -28800.00
00767               2.00   -28800.00
00768               2.00   -28800.00
00769               2.60   -28000.00
00770               2.20   -28800.00
00771               1.80   -27200.00
00772               2.60   -27200.00
00773               1.40   -26400.00
00774               1.60   -26400.00
00775               2.60   -25600.00
00776               1.40   -25600.00
00777               1.40   -25600.00
00778               2.40   -25600.00
00779               1.40   -24800.00
00780               1.40   -24000.00
00781               2.20   -23200.00
00782               1.80   -22400.00
00783               1.20   -22400.00
00784               2.40   -22400.00
00785               2.00   -20800.00
00786               1.20   -20800.00
00787               1.40   -20000.00
00788               1.60   -20000.00
00789               1.20   -19200.00
00790               2.00   -18400.00
00791               1.40   -18400.00
00792               1.20   -17600.00
00793               1.40   -17600.00
00794               1.20   -16800.00
00795               1.20   -16000.00
00796               1.20   -16000.00
00797               1.20   -14400.00
00798               1.20   -14400.00
00799               1.00   -13600.00
00800               1.20   -13600.00
00801               1.00   -12800.00
00802               1.20   -12800.00
00803               1.20   -11200.00
00804               0.60   -11200.00
00805               0.80   -10400.00
00806               0.60   -10400.00
00807               0.40    -9600.00
00808               0.40    -8000.00
00809               0.60    -8000.00
00810               0.40    -7200.00
00811               0.60    -6400.00
00812               0.40    -6400.00
00813               0.80    -4800.00
00814               0.40    -4800.00
00815               0.40    -4000.00
00816               0.40    -3200.00
00817               0.20    -3200.00
00818               0.20    -2400.00
00819              -0.20    -1600.00
00820               0.00        0.00
00821               0.00        0.00
00822               0.20        0.00
00823               0.60     1600.00
00824               2.80     1600.00
00825               1.80     2400.00
00826              -2.60     3200.00
00827               0.40     3200.00
00828               1.40     3200.00
00829              -1.20     4000.00
00830               6.80     5600.00
00831              25.00     7200.00
00832              -8.60     7200.00
00833             -25.00     8000.00
00834              14.40     8800.00
00835              19.60     8000.00
00836             -25.00     8800.00
00837              25.00     9600.00
00838              25.00    10400.00
00839             -25.00    11200.00
00840              25.00    12000.00
00841              -7.00    12000.00
00842             -25.00    12800.00
00843              25.00    12800.00
00844             -25.00    14400.00
00845              25.00    14400.00
00846               6.80    15200.00
00847             -25.00    15200.00
00848              25.00    16000.00
00849             -25.00    16800.00
00850             -23.40    17600.00
00851              25.00    17600.00
00852              -4.80    18400.00
00853             -25.00    19200.00
00854              25.00    19200.00
00855              11.20    20000.00
00856             -25.00    20800.00
00857              25.00    21600.00
00858             -10.20    22400.00
00859             -12.40    22400.00
00860              17.00    22400.00
00861             -18.20    24000.00
00862              -0.20    24000.00
00863               3.40    24800.00
00864              -6.60    24800.00
00865              -2.80    24800.00
00866              14.20    25600.00
00867             -20.40    25600.00
00868               3.40    27200.00
00869               6.20    27200.00
00870             -18.20    27200.00
00871               6.00    27200.00
00872               2.00    28000.00
00873              -7.40    28000.00
00874              -3.40    28800.00
00875               5.40    28800.00
00876              -9.40    28800.00
00877              -3.00    30400.00
00878               5.20    30400.00
00879              -9.60    31200.00
00880              -2.80    31200.00
00881               2.00    31200.00
00882              -6.80    31200.00
00883              -1.20    31200.00
00884               0.40    32800.00
00885              -6.80    32000.00
00886              -0.60    32800.00
00887              -3.00    32800.00
00888              -5.40    32800.00
00889              -0.60    33600.00
00890              -3.00    33600.00
00891              -2.80    33600.00
00892              -2.20    33600.00
00893              -2.80    33600.00
00894              -4.40    33600.00
00895              -2.60    33600.00
00896              -2.00    33600.00
00897              -4.80    34400.00
00898              -2.00    33600.00
00899              -3.60    34400.00
00900              -3.20    34400.00
00901              -2.00    34400.00
00902              -4.40    34400.00
00903              -2.60    34400.00
00904              -4.20    34400.00
00905              -2.80    34400.00
00906              -2.40    34400.00
00907              -4.60    34400.00
00908              -2.20    34400.00
00909              -2.80    34400.00
00910              -3.40    34400.00
00911              -3.40    34400.00
00912              -3.60    33600.00
00913              -2.60    34400.00
00914              -4.60    33600.00
00915              -2.00    33600.00
00916              -2.20    33600.00
00917              -5.80    33600.00
00918              -2.40    33600.00
00919              -2.00    33600.00
00920              -3.40    33600.00
00921              -4.20    32800.00
00922              -2.60    33600.00
00923              -1.80    32800.00
00924              -4.60    32000.00
00925              -3.00    32800.00
00926              -1.00    31200.00
00927              -3.80    31200.00
00928              -3.80    31200.00
00929              -1.20    31200.00
00930              -3.40    30400.00
00931              -5.20    30400.00
00932              -1.00    30400.00
00933              -2.00    29600.00
00934              -5.20    29600.00
00935              -1.60    28800.00
00936              -1.20    28800.00
00937              -4.20    28000.00
00938              -2.80    27200.00
00939              -2.00    27200.00
00940              -3.60    27200.00
00941              -3.00    27200.00
00942              -1.40    26400.00
00943              -2.20    25600.00
00944              -3.80    25600.00
00945              -2.60    24800.00
00946              -2.00    24800.00
00947              -3.60    24000.00
00948              -2.00    24000.00
00949              -2.20    23200.00
00950              -3.40    22400.00
00951              -2.20    21600.00
00952              -2.40    21600.00
00953              -3.60    21600.00
00954              -2.20    20800.00
00955              -1.20    20000.00
00956              -2.80    19200.00
00957              -2.60    19200.00
00958              -1.80    18400.00
00959              -2.80    17600.00
00960              -2.20    17600.00
00961              -1.20    16000.00
00962              -2.60    16000.00
00963              -2.80    16000.00
00964              -1.60    15200.00
00965              -2.20    15200.00
00966              -2.40    14400.00
00967              -1.80    12800.00
00968              -1.20    12800.00
00969              -1.80    12000.00
00970              -1.80    12000.00
00971              -2.00    11200.00
00972              -1.80    10400.00
00973              -1.80     9600.00
00974              -1.80     8800.00
00975              -1.60     8000.00
00976              -1.80     8000.00
00977              -1.40     8000.00
00978              -1.00     6400.00
00979              -1.20     6400.00
00980              -1.20     5600.00
00981              -1.20     4800.00
00982              -1.20     4000.00
00983              -1.00     3200.00
00984              -1.00     2400.00
00985              -1.20     1600.00
00986              -0.60     1600.00
00987              -0.60      800.00
00988              -0.60      800.00
00989              -0.20        0.00
00990               0.20     -800.00
00991               3.40     -800.00
00992              -0.40    -1600.00
00993              -1.80    -2400.00
00994               1.60    -3200.00
00995               1.80    -4000.00
00996              -1.00    -4000.00
00997               4.60    -4800.00
00998              21.20    -5600.00
00999              17.20    -7200.00
01000             -25.00    -8000.00
01001             -15.00    -8800.00
01002              25.00    -8800.00
01003             -17.00    -9600.00
01004             -25.00    -8800.00
01005              25.00   -10400.00
01006              17.20   -10400.00
01007             -25.00   -11200.00
01008              25.00   -12800.00
01009              -4.60   -12800.00
01010             -25.00   -12800.00
01011              25.00   -13600.00
01012             -23.60   -13600.00
01013              25.00   -14400.00
01014             -19.00   -15200.00
01015              -9.20   -16000.00
01016              25.00   -16000.00
01017             -25.00   -16800.00
01018              -8.60   -17600.00
01019              25.00   -17600.00
01020             -10.20   -18400.00
01021             -25.00   -19200.00
01022              25.00   -20000.00
01023              -4.40   -20000.00
01024             -25.00   -20800.00
01025              25.00   -20800.00
01026              -7.00   -22400.00
01027              -9.20   -22400.00
01028              13.40   -23200.00
01029              -5.00   -23200.00
01030              -2.80   -24000.00
01031               8.40   -24000.00
01032              -1.00   -24800.00
01033               2.20   -25600.00
01034               9.00   -25600.00
01035             -10.80   -26400.00
01036               9.80   -26400.00
01037               2.00   -26400.00
01038              -7.80   -26400.00
01039              10.80   -27200.00
01040               2.00   -27200.00
01041              -3.80   -28000.00
01042               5.80   -28800.00
01043               5.60   -28800.00
01044              -4.60   -29600.00
01045               5.40   -29600.00
01046               4.40   -29600.00
01047              -3.40   -30400.00
01048               5.20   -31200.00
01049               3.40   -30400.00
01050              -0.40   -30400.00
01051               4.60   -32000.00
01052               2.80   -32000.00
01053               0.20   -32000.00
01054               4.40   -32000.00
01055               1.00   -32800.00
01056               1.80   -32000.00
01057               3.60   -32800.00
01058               1.80   -33600.00
01059               3.40   -32800.00
01060               2.80   -33600.00
01061               2.00   -33600.00
01062               1.40   -33600.00
01063               3.40   -33600.00
01064               2.20   -33600.00
01065               2.00   -34400.00
01066               3.80   -33600.00
01067               1.80   -33600.00
01068               3.00   -33600.00
01069               2.40   -33600.00
01070               1.80   -33600.00
01071               3.40   -33600.00
01072               2.40   -33600.00
01073               2.60   -33600.00
01074               3.00   -33600.00
01075               2.20   -33600.00
01076               3.20   -33600.00
01077               3.00   -33600.00
01078               2.60   -33600.00
01079               2.60   -33600.00
01080               2.60   -33600.00
01081               2.00   -33600.00
01082               2.20   -33600.00
01083               3.00   -32800.00
01084               1.80   -32800.00
01085               2.20   -32800.00
01086               3.40   -32800.00
01087               2.00   -32800.00
01088               2.20   -32000.00
01089               2.80   -32000.00
01090               2.00   -32000.00
01091               2.60   -32000.00
01092               2.40   -31200.00
01093               2.20   -30400.00
01094               2.00   -32000.00
01095               2.60   -30400.00
01096               2.60   -30400.00
01097               2.00   -30400.00
01098               2.20   -29600.00
01099               2.40   -30400.00
01100               2.60   -28800.00
01101               2.00   -28800.00
01102               1.80   -28800.00
01103               2.60   -28000.00
01104               1.80   -28000.00
01105               2.60   -27200.00
01106               2.60   -26400.00
01107               1.80   -26400.00
01108               2.00   -26400.00
01109               2.80   -25600.00
01110               1.40   -25600.00
01111               1.80   -24000.00
01112               2.00   -24000.00
01113               1.80   -24000.00
01114               1.20   -23200.00
01115               2.00   -23200.00
01116               1.80   -23200.00
01117               1.40   -22400.00
01118               2.00   -22400.00
01119               1.80   -21600.00
01120               1.40   -20800.00
01121               1.80   -20000.00
01122               1.80   -20000.00
01123               1.80   -19200.00
01124               1.80   -17600.00
01125               1.40   -17600.00
01126               1.80   -16800.00
01127               1.00   -16800.00
01128               1.20   -16800.00
01129               1.40   -16000.00
01130               1.00   -15200.00
01131               1.00   -15200.00
01132               1.20   -14400.00
01133               1.20   -13600.00
01134               0.80   -12800.00
01135               1.20   -12800.00
01136               1.60   -11200.00
01137               0.60   -11200.00
01138               0.80   -11200.00
01139               1.00    -9600.00
01140               0.40    -9600.00
01141               1.00    -8800.00
01142               0.60    -8000.00
01143               0.20    -8000.00
01144               0.60    -7200.00
01145               0.20    -6400.00
01146               0.20    -6400.00
01147               0.40    -4800.00
01148              -0.20    -4800.00
01149               0.40    -4000.00
01150               0.40    -3200.00
01151              -0.20    -2400.00
01152               0.20    -1600.00
01153               0.00    -1600.00
01154              -0.20        0.00
01155               0.20        0.00
01156               0.20      800.00
01157               0.60     1600.00
01158               3.60     1600.00
01159              -0.60     2400.00
01160              -1.80     2400.00
01161               1.40     3200.00
01162               0.40     3200.00
01163              -1.00     4800.00
01164              13.80     5600.00
01165              25.00     8000.00
01166             -25.00     8000.00
01167             -25.00     8000.00
01168              25.00     8800.00
01169              -5.20     8000.00
01170             -25.00     8800.00
01171              25.00    11200.00
01172             -18.20    10400.00
01173             -25.00    11200.00
01174              25.00    11200.00
01175             -25.00    12000.00
01176              18.80    12800.00
01177              21.00    13600.00
01178             -25.00    13600.00
01179              25.00    14400.00
01180             -25.00    15200.00
01181              -0.60    16000.00
01182              25.00    16000.00
01183             -25.00    16800.00
01184              13.20    17600.00
01185              25.00    17600.00
01186             -24.40    19200.00
01187             -24.60    19200.00
01188              25.00    20000.00
01189             -25.00    20800.00
01190             -17.00    21600.00
01191              25.00    21600.00
01192             -25.00    22400.00
01193               8.20    22400.00
01194               2.60    22400.00
01195             -15.60    24000.00
01196               4.60    24000.00
01197               2.80    24800.00
01198             -10.60    24800.00
01199               6.00    24800.00
01200               4.80    25600.00
01201             -20.60    25600.00
01202              14.80    26400.00
01203              -8.20    27200.00
01204              -9.80    27200.00
01205               8.60    28000.00
01206              -5.40    28000.00
01207              -6.00    28800.00
01208               1.80    28800.00
01209               0.20    28800.00
01210             -10.20    29600.00
01211               3.60    29600.00
01212              -2.60    30400.00
01213              -8.60    30400.00
01214               2.60    31200.00
01215              -3.80    31200.00
01216              -4.60    31200.00
01217               2.00    32000.00
01218              -4.40    32000.00
01219              -4.20    32800.00
01220               0.20    32800.00
01221              -6.20    32800.00
01222              -2.40    32800.00
01223              -2.00    32800.00
01224              -4.40    33600.00
01225              -1.20    33600.00
01226              -2.20    33600.00
01227              -4.00    33600.00
01228              -4.40    33600.00
01229              -1.80    34400.00
01230              -4.20    34400.00
01231              -3.00    34400.00
01232              -1.20    34400.00
01233              -5.00    34400.00
01234              -1.40    34400.00
01235              -3.40    34400.00
01236              -4.40    34400.00
01237              -2.20    34400.00
01238              -4.40    34400.00
01239              -2.20    34400.00
01240              -3.00    34400.00
01241              -4.20    34400.00
01242              -2.20    34400.00
01243              -3.20    34400.00
01244              -2.80    34400.00
01245              -3.60    33600.00
01246              -3.20    34400.00
01247              -3.00    34400.00
01248              -3.00    33600.00
01249              -2.20    33600.00
01250              -3.60    34400.00
01251              -3.20    33600.00
01252              -2.20    33600.00
01253              -3.60    33600.00
01254              -2.80    32800.00
01255              -3.60    33600.00
01256              -3.00    32800.00
01257              -2.60    32800.00
01258              -3.00    32800.00
01259              -3.00    32000.00
01260              -3.00    32800.00
01261              -2.80    31200.00
01262              -2.60    30400.00
01263              -3.40    31200.00
01264              -3.00    30400.00
01265              -3.00    30400.00
01266              -3.00    30400.00
01267              -3.00    30400.00
01268              -3.40    29600.00
01269              -3.00    28800.00
01270              -2.80    28800.00
01271              -2.20    28000.00
01272              -2.00    28000.00
01273              -2.80    27200.00
01274              -2.20    27200.00
01275              -2.20    27200.00
01276              -3.40    25600.00
01277              -3.60    25600.00
01278              -4.20    25600.00
01279              -3.80    24800.00
01280              -2.80    24800.00
01281              -2.20    24000.00
01282              -1.20    24000.00
01283              -1.00    23200.00
01284              -1.80    22400.00
01285              -2.60    22400.00
01286              -3.60    21600.00
01287              -5.20    20800.00
01288              -4.00    20800.00
01289              -2.60    20000.00
01290              -2.40    19200.00
01291              -0.60    18400.00
01292              -0.20    18400.00
01293              -1.80    17600.00
01294              -1.20    17600.00
01295              -3.00    16800.00
01296              -4.20    16000.00
01297              -3.40    16000.00
01298              -3.40    15200.00
01299              -1.80    14400.00
01300              -0.40    14400.00
01301              -1.20    12800.00
01302               0.20    12800.00
01303              -1.00    12000.00
01304              -2.60    12000.00
01305              -3.00    11200.00
01306              -2.80    10400.00
01307              -3.40     9600.00
01308              -1.80     8800.00
01309              -0.20     8800.00
01310              -0.20     8000.00
01311               0.40     7200.00
01312              -0.40     6400.00
01313              -2.00     5600.00
01314              -2.20     5600.00
01315              -3.00     4800.00
01316              -2.00     4000.00
01317              -0.60     3200.00
01318              -0.60     2400.00
01319               0.20     1600.00
01320               0.60     1600.00
01321               0.20      800.00
01322              -1.00        0.00
01323              -0.60     -800.00
01324              -0.20     -800.00
01325               2.20    -1600.00
01326              -2.00    -1600.00
01327               0.60    -2400.00
01328               2.80    -3200.00
01329               1.80    -3200.00
01330               0.60    -4800.00
01331               8.40    -4800.00
01332              25.00    -6400.00
01333              -6.80    -7200.00
01334             -25.00    -8000.00
01335               8.80    -8000.00
01336              25.00    -9600.00
01337             -25.00    -8800.00
01338              -9.20    -8800.00
01339              25.00   -10400.00
01340             -25.00   -10400.00
01341             -23.80   -11200.00
01342              25.00   -12800.00
01343             -25.00   -12800.00
01344               4.40   -13600.00
01345              18.00   -13600.00
01346             -12.60   -14400.00
01347              25.00   -15200.00
01348             -25.00   -15200.00
01349              22.20   -16800.00
01350              23.00   -16800.00
01351             -25.00   -16800.00
01352              14.20   -17600.00
01353              25.00   -18400.00
01354             -25.00   -18400.00
01355              -6.80   -18400.00
01356              25.00   -20000.00
01357             -25.00   -20000.00
01358               0.00   -20800.00
01359              25.00   -22400.00
01360             -21.00   -22400.00
01361               3.80   -23200.00
01362               8.20   -23200.00
01363              -7.00   -24000.00
01364               2.00   -24000.00
01365               8.60   -24000.00
01366              -4.40   -24800.00
01367               8.40   -24800.00
01368               0.60   -25600.00
01369              -7.60   -26400.00
01370              13.80   -26400.00
01371              -6.00   -27200.00
01372              -0.20   -27200.00
01373              11.00   -27200.00
01374              -1.40   -28000.00
01375              -2.20   -28800.00
01376               7.60   -28800.00
01377               1.00   -28800.00
01378              -3.40   -29600.00
01379               8.20   -29600.00
01380               0.00   -30400.00
01381              -1.00   -30400.00
01382               7.00   -31200.00
01383               0.60   -30400.00
01384               0.40   -31200.00
01385               6.60   -32000.00
01386               1.20   -32000.00
01387               0.20   -32000.00
01388               3.40   -32000.00
01389               2.00   -32800.00
01390               3.40   -32000.00
01391               1.20   -32800.00
01392               3.00   -32800.00
01393               5.00   -33600.00
01394               0.20   -33600.00
01395               0.40   -33600.00
01396               3.80   -32800.00
01397               2.40   -33600.00
01398               0.60   -33600.00
01399               5.00   -33600.00
01400               2.80   -33600.00
01401               0.40   -33600.00
01402               5.60   -33600.00
01403               2.20   -34400.00
01404               0.20   -33600.00
01405               3.80   -34400.00
01406               3.00   -33600.00
01407               1.20   -34400.00
01408               1.80   -33600.00
01409               3.80   -33600.00
01410               2.60   -33600.00
01411               1.80   -33600.00
01412               3.40   -33600.00
01413               2.20   -33600.00
01414               1.20   -33600.00
01415               2.80   -33600.00
01416               2.80   -33600.00
01417               1.20   -32800.00
01418               3.60   -32800.00
01419               3.60   -32800.00
01420               1.20   -32800.00
01421               2.20   -32800.00
01422               3.40   -32800.00
01423               1.20   -32800.00
01424               2.20   -32000.00
01425               3.60   -32000.00
01426               1.20   -32000.00
01427               2.60   -32000.00
01428               2.80   -31200.00
01429               1.40   -30400.00
01430               2.60   -30400.00
01431               2.60   -29600.00
01432               1.80   -29600.00
01433               2.00   -29600.00
01434               2.60   -28800.00
01435               2.60   -28800.00
01436               2.20   -28800.00
01437               2.00   -28000.00
01438               2.60   -27200.00
01439               2.40   -27200.00
01440               0.80   -27200.00
01441               2.20   -26400.00
01442               3.00   -26400.00
01443               1.20   -25600.00
01444               2.00   -24800.00
01445               3.00   -24800.00
01446               1.20   -24800.00
01447               1.80   -23200.00
01448               2.60   -24000.00
01449               1.80   -23200.00
01450               1.80   -22400.00
01451               2.00   -22400.00
01452               2.00   -21600.00
01453               1.20   -20800.00
01454               1.40   -20800.00
01455               1.40   -20800.00
01456               1.80   -18400.00
01457               2.00   -18400.00
01458               1.40   -18400.00
01459               1.20   -17600.00
01460               1.80   -16800.00
01461               1.40   -16800.00
01462               1.40   -16800.00
01463               1.40   -16000.00
01464               1.40   -15200.00
01465               1.00   -14400.00
01466               1.20   -13600.00
01467               1.00   -13600.00
01468               0.60   -12800.00
01469               1.20   -12000.00
01470               1.20   -12000.00
01471               0.40   -11200.00
01472               0.60   -10400.00
01473               0.40    -9600.00
01474               0.60    -9600.00
01475               0.80    -8800.00
01476               0.40    -8000.00
01477               0.60    -7200.00
01478               0.40    -6400.00
01479               0.40    -6400.00
01480               0.40    -5600.00
01481              -0.20    -4800.00
01482               0.20    -4000.00
01483               0.40    -3200.00
01484              -0.60    -3200.00
01485               0.20    -2400.00
01486               0.40    -1600.00
01487              -0.60     -800.00
01488               0.00        0.00
01489               0.20        0.00
01490               0.40        0.00
01491               1.40     1600.00
01492               3.60     1600.00
01493              -2.80     2400.00
01494              -0.60     3200.00
01495               1.80     3200.00
01496              -1.00     3200.00
01497               2.20     4800.00
01498              23.80     6400.00
01499              18.60     7200.00
01500             -25.00     8000.00
01501              -9.20     8000.00
01502              25.00     8000.00
01503             -25.00     8800.00
01504              -4.40     9600.00
01505              25.00    11200.00
01506             -25.00    10400.00
01507              25.00    12000.00
01508              25.00    12000.00
01509             -25.00    12000.00
01510              25.00    12800.00
01511             -25.00    13600.00
01512               4.20    14400.00
01513              25.00    14400.00
01514             -25.00    15200.00
01515              25.00    16000.00
01516              14.60    16000.00
01517             -25.00    17600.00
01518              25.00    17600.00
01519              14.80    18400.00
01520             -25.00    19200.00
01521               1.60    19200.00
01522              25.00    20000.00
01523             -25.00    20800.00
01524              18.80    21600.00
01525              18.20    21600.00
01526             -25.00    22400.00
01527              19.80    22400.00
01528             -12.60    23200.00
01529              -8.60    24000.00
01530               5.40    24800.00
01531              -0.80    24800.00
01532              -9.40    24800.00
01533              15.00    25600.00
01534             -10.80    25600.00
01535             -10.80    25600.00
01536              14.60    27200.00
01537             -17.80    27200.00
01538               1.00    27200.00
01539               5.40    27200.00
01540              -6.80    28000.00
01541              -4.40    28800.00
01542               3.40    28800.00
01543              -5.80    28800.00
01544              -6.80    29600.00
01545               5.80    30400.00
01546              -7.80    30400.00
01547              -4.60    31200.00
01548               2.00    31200.00
01549              -6.80    31200.00
01550              -1.80    30400.00
01551               1.00    32800.00
01552              -6.00    32800.00
01553              -1.60    32000.00
01554              -2.20    32800.00
01555              -6.00    32800.00
01556              -0.60    32800.00
01557              -3.40    32800.00
01558              -3.00    33600.00
01559              -1.00    33600.00
01560              -3.00    32800.00
01561              -4.40    33600.00
01562              -3.60    33600.00
01563              -1.80    33600.00
01564              -4.60    34400.00
01565              -1.60    33600.00
01566              -2.80    33600.00
01567              -4.40    34400.00
01568              -1.20    34400.00
01569              -4.40    33600.00
01570              -2.80    33600.00
01571              -2.80    34400.00
01572              -3.60    34400.00
01573              -1.40    34400.00
01574              -4.20    34400.00
01575              -3.40    34400.00
01576              -2.60    34400.00
01577              -3.00    34400.00
01578              -3.00    33600.00
01579              -3.80    33600.00
01580              -2.80    34400.00
01581              -3.00    33600.00
01582              -3.00    33600.00
01583              -2.40    33600.00
01584              -3.60    33600.00
01585              -2.60    33600.00
01586              -2.80    33600.00
01587              -3.00    33600.00
01588              -2.80    32800.00
01589              -3.60    32800.00
01590              -2.60    32000.00
01591              -2.80    32800.00
01592              -3.20    32000.00
01593              -2.80    32000.00
01594              -3.40    31200.00
01595              -2.80    31200.00
01596              -2.80    31200.00
01597              -3.00    31200.00
01598              -2.80    30400.00
01599              -2.80    30400.00
01600              -2.80    30400.00
01601              -2.80    28800.00
01602              -3.20    28800.00
01603              -2.80    28000.00
01604              -3.00    28800.00
01605              -2.80    28000.00
01606              -3.00    28000.00
01607              -3.40    27200.00
01608              -2.20    26400.00
01609              -3.00    27200.00
01610              -2.80    25600.00
01611              -2.80    25600.00
01612              -3.00    24800.00
01613              -2.40    24800.00
01614              -2.60    24000.00
01615              -2.20    24000.00
01616              -2.80    23200.00
01617              -2.80    22400.00
01618              -2.20    22400.00
01619              -2.80    22400.00
01620              -2.60    21600.00
01621              -2.60    20800.00
01622              -2.60    20800.00
01623              -2.00    19200.00
01624              -2.60    19200.00
01625              -2.20    18400.00
01626              -2.60    18400.00
01627              -2.20    17600.00
01628              -1.80    16000.00
01629              -2.00    16800.00
01630              -2.00    15200.00
01631              -2.20    16000.00
01632              -1.80    15200.00
01633              -2.00    14400.00
01634              -2.00    14400.00
01635              -2.00    12800.00
01636              -1.40    12800.00
01637              -2.00    12000.00
01638              -1.80    11200.00
01639              -1.80    11200.00
01640              -1.40     9600.00
01641              -1.80     9600.00
01642              -1.40     8800.00
01643              -1.20     8000.00
01644              -1.40     8000.00
01645              -1.40     6400.00
01646              -0.60     6400.00
01647              -1.20     5600.00
01648              -1.20     4800.00
01649              -1.20     4800.00
01650              -0.60     3200.00
01651              -0.80     2400.00
01652              -1.40     2400.00
01653              -1.00     1600.00
01654              -0.40     1600.00
01655              -0.80      800.00
01656              -0.40        0.00
01657               0.40        0.00
01658               2.60    -1600.00
01659               1.20    -1600.00
01660              -2.20    -1600.00
01661               1.00    -2400.00
01662               1.20    -3200.00
01663              -0.60    -4000.00
01664               2.00    -4000.00
01665              14.00    -4800.00
01666              25.00    -7200.00
01667             -25.00    -8000.00
01668             -25.00    -8800.00
01669              25.00    -8800.00
01670               6.20    -9600.00
01671             -25.00    -9600.00
01672              25.00   -10400.00
01673              25.00   -10400.00
01674             -25.00   -10400.00
01675              25.00   -12000.00
01676              25.00   -12000.00
01677             -25.00   -12800.00
01678              25.00   -13600.00
01679             -10.40   -13600.00
01680               9.80   -14400.00
01681               6.60   -14400.00
01682             -25.00   -16000.00
01683              25.00   -16000.00
01684              -8.40   -16800.00
01685             -25.00   -17600.00
01686              25.00   -17600.00
01687               9.00   -19200.00
01688             -25.00   -18400.00
01689              17.80   -19200.00
01690              22.60   -20000.00
01691             -25.00   -20000.00
01692              25.00   -20800.00
01693              12.40   -21600.00
01694             -19.60   -22400.00
01695              13.00   -23200.00
01696               0.40   -23200.00
01697              -6.20   -24000.00
01698               5.80   -24000.00
01699               4.20   -24000.00
01700              -3.40   -24800.00
01701              11.80   -25600.00
01702              -7.20   -25600.00
01703               1.60   -26400.00
01704              10.60   -27200.00
01705             -10.60   -27200.00
01706               7.40   -27200.00
01707               7.60   -28000.00
01708              -4.20   -28800.00
01709               2.20   -28800.00
01710               8.20   -28800.00
01711              -3.40   -28800.00
01712               1.40   -29600.00
01713               8.20   -30400.00
01714              -3.40   -30400.00
01715               2.60   -30400.00
01716               5.40   -30400.00
01717              -0.40   -30400.00
01718               2.80   -31200.00
01719               4.80   -32000.00
01720               0.00   -32000.00
01721               3.80   -32000.00
01722               2.40   -32000.00
01723               0.60   -32800.00
01724               4.40   -32800.00
01725               2.00   -32000.00
01726               3.00   -33600.00
01727               3.20   -33600.00
01728               1.80   -33600.00
01729               1.80   -33600.00
01730               2.60   -33600.00
01731               2.40   -33600.00
01732               1.60   -33600.00
01733               3.60   -33600.00
01734               2.20   -33600.00
01735               2.20   -33600.00
01736               3.40   -33600.00
01737               1.00   -33600.00
01738               3.40   -33600.00
01739               2.80   -33600.00
01740               2.00   -33600.00
01741               3.00   -33600.00
01742               2.20   -33600.00
01743               2.00   -33600.00
01744               2.60   -33600.00
01745               3.00   -33600.00
01746               2.00   -33600.00
01747               2.20   -33600.00
01748               3.20   -33600.00
01749               1.40   -33600.00
01750               2.20   -33600.00
01751               3.00   -32800.00
01752               2.00   -32800.00
01753               3.00   -32800.00
01754               2.80   -32800.00
01755               2.00   -32000.00
01756               2.20   -32000.00
01757               2.60   -32000.00
01758               2.20   -32000.00
01759               2.60   -32000.00
01760               2.80   -31200.00
01761               2.60   -31200.00
01762               2.60   -30400.00
01763               2.40   -30400.00
01764               2.00   -29600.00
01765               2.20   -29600.00
01766               2.40   -29600.00
01767               2.60   -28800.00
01768               2.20   -28800.00
01769               2.20   -28800.00
01770               2.20   -28800.00
01771               2.20   -27200.00
01772               2.60   -27200.00
01773               2.20   -27200.00
01774               2.00   -27200.00
01775               2.00   -26400.00
01776               2.40   -26400.00
01777               1.80   -25600.00
01778               2.00   -25600.00
01779               2.20   -24800.00
01780               1.80   -24000.00
01781               1.80   -24000.00
01782               2.00   -23200.00
01783               2.00   -23200.00
01784               1.80   -22400.00
01785               2.00   -22400.00
01786               2.00   -21600.00
01787               1.40   -20800.00
01788               1.60   -20000.00
01789               1.80   -20000.00
01790               1.60   -18400.00
01791               1.40   -18400.00
01792               1.40   -17600.00
01793               1.40   -17600.00
01794               1.20   -16800.00
01795               1.00   -16800.00
01796               1.40   -16000.00
01797               1.20   -16000.00
01798               1.00   -14400.00
01799               1.40   -14400.00
01800               1.20   -14400.00
01801               1.00   -12800.00
01802               1.00   -12800.00
01803               1.40   -11200.00
01804               0.80   -11200.00
01805               0.60   -10400.00
01806               0.40   -10400.00
01807               0.20    -9600.00
01808               1.00    -9600.00
01809               0.60    -8000.00
01810              -0.20    -7200.00
01811               0.60    -7200.00
01812               1.20    -7200.00
01813              -0.20    -5600.00
01814               0.60    -4800.00
01815               0.40    -4000.00
01816               0.20    -4000.00
01817               0.40    -3200.00
01818              -0.40    -3200.00
01819               0.40    -1600.00
01820              -0.40    -1600.00
01821              -0.60     -800.00
01822               1.40     -800.00
01823              -0.20        0.00
01824              -0.40      800.00
01825               3.80     1600.00
01826               1.20     1600.00
01827              -2.80     3200.00
01828               1.20     3200.00
01829               1.40     3200.00
01830              -1.80     4800.00
01831               6.80     5600.00
01832              25.00     6400.00
01833             -11.40     8000.00
01834             -25.00     8000.00
01835              17.00     8000.00
01836              18.00     8000.00
01837             -25.00     8800.00
01838              25.00    10400.00
01839              25.00     9600.00
01840             -25.00    11200.00
01841              25.00    12000.00
01842             -13.40    12000.00
01843             -25.00    12800.00
01844              25.00    12800.00
01845             -25.00    13600.00
01846              25.00    14400.00
01847               0.80    15200.00
01848             -25.00    16000.00
01849              25.00    16000.00
01850             -25.00    16800.00
01851             -19.80    17600.00
01852              25.00    18400.00
01853              -6.20    18400.00
01854             -25.00    19200.00
01855              25.00    20000.00
01856               7.80    20800.00
01857             -25.00    20800.00
01858              25.00    21600.00
01859             -13.40    21600.00
01860             -10.80    22400.00
01861              16.40    22400.00
01862             -19.00    23200.00
01863              -0.60    24000.00
01864               5.00    24000.00
01865              -6.80    24800.00
01866              -3.40    25600.00
01867              14.00    25600.00
01868             -21.20    25600.00
01869               4.20    27200.00
01870               4.20    26400.00
01871             -17.60    27200.00
01872               8.20    28000.00
01873              -0.80    28000.00
01874              -7.00    28000.00
01875              -1.20    28800.00
01876               2.80    28800.00
01877             -10.60    28800.00
01878              -0.60    29600.00
01879               2.60    30400.00
01880              -9.80    30400.00
01881               0.60    31200.00
01882              -0.60    31200.00
01883              -7.00    31200.00
01884               1.00    32800.00
01885              -2.20    32000.00
01886              -6.20    32800.00
01887              -0.20    32000.00
01888              -4.60    32800.00
01889              -4.20    33600.00
01890              -0.60    32800.00
01891              -4.20    33600.00
01892              -1.20    33600.00
01893              -1.40    33600.00
01894              -3.60    33600.00
01895              -4.40    33600.00
01896              -2.60    33600.00
01897              -2.80    34400.00
01898              -4.20    34400.00
01899              -0.80    34400.00
01900              -4.40    34400.00
01901              -2.60    33600.00
01902              -1.80    34400.00
01903              -5.00    34400.00
01904              -2.20    34400.00
01905              -3.80    34400.00
01906              -2.80    34400.00
01907              -1.80    34400.00
01908              -4.20    34400.00
01909              -2.40    34400.00
01910              -2.80    34400.00
01911              -3.00    34400.00
01912              -3.00    34400.00
01913              -3.80    33600.00
01914              -3.00    34400.00
01915              -3.40    34400.00
01916              -2.80    33600.00
01917              -3.00    33600.00
01918              -3.60    33600.00
01919              -2.00    33600.00
01920              -3.40    32800.00
01921              -2.80    33600.00
01922              -3.00    32800.00
01923              -3.80    32800.00
01924              -2.20    32000.00
01925              -2.80    32800.00
01926              -3.40    32000.00
01927              -3.00    32000.00
01928              -2.80    32000.00
01929              -3.00    32000.00
01930              -3.60    30400.00
01931              -3.00    31200.00
01932              -2.80    30400.00
01933              -3.00    30400.00
01934              -2.80    28800.00
01935              -2.80    28800.00
01936              -3.00    28800.00
01937              -3.20    28000.00
01938              -2.60    28000.00
01939              -2.60    28000.00
01940              -3.40    27200.00
01941              -2.80    27200.00
01942              -2.20    27200.00
01943              -3.00    26400.00
01944              -2.40    25600.00
01945              -3.00    25600.00
01946              -3.00    24800.00
01947              -2.80    24800.00
01948              -2.80    24000.00
01949              -2.60    24000.00
01950              -2.80    23200.00
01951              -2.20    23200.00
01952              -2.20    22400.00
01953              -2.60    21600.00
01954              -2.20    21600.00
01955              -2.40    20800.00
01956              -2.20    20000.00
01957              -2.20    19200.00
01958              -2.60    19200.00
01959              -2.20    18400.00
01960              -2.60    17600.00
01961              -2.00    17600.00
01962              -2.00    16000.00
01963              -2.20    16000.00
01964              -2.20    16000.00
01965              -2.00    15200.00
01966              -1.80    15200.00
01967              -2.00    14400.00
01968              -2.20    13600.00
01969              -1.20    12800.00
01970              -1.40    12000.00
01971              -1.80    11200.00
01972              -1.80    11200.00
01973              -1.20    10400.00
01974              -2.00     9600.00
01975              -1.40     8800.00
01976              -0.80     8800.00
01977              -1.80     8000.00
01978              -1.80     8000.00
01979              -0.60     7200.00
01980              -1.00     5600.00
01981              -1.20     5600.00
01982              -1.00     4800.00
01983              -1.00     4000.00
01984              -0.60     3200.00
01985              -1.00     3200.00
01986              -1.20     1600.00
01987              -0.60     1600.00
01988              -0.60      800.00
01989              -0.60        0.00
01990               0.40     -800.00
01991               0.20     -800.00
01992               3.40    -1600.00
01993              -0.80    -1600.00
01994              -1.40    -2400.00
01995               1.00    -3200.00
01996               1.00    -3200.00
01997              -1.00    -4000.00
01998               4.60    -4800.00
01999              21.40    -6400.00
02000              15.40    -7200.00
02001             -25.00    -8000.00
02002             -13.00    -8000.00
02003              25.00    -8000.00
02004             -19.40    -9600.00
02005             -25.00    -8800.00
02006              25.00   -10400.00
02007              11.40   -11200.00
02008             -25.00   -11200.00
02009              25.00   -12000.00
02010             -10.00   -11200.00
02011             -25.00   -12800.00
02012              25.00   -13600.00
02013             -23.60   -13600.00
02014              25.00   -14400.00
02015             -21.40   -14400.00
02016              -6.20   -16000.00
02017              25.00   -16000.00
02018             -25.00   -16800.00
02019              -6.60   -17600.00
02020              25.00   -17600.00
02021             -12.00   -19200.00
02022             -25.00   -19200.00
02023              25.00   -20000.00
02024              -7.00   -20000.00
02025             -24.20   -20800.00
02026              25.00   -21600.00
02027              -8.60   -21600.00
02028              -7.80   -22400.00
02029              13.20   -23200.00
02030              -5.00   -23200.00
02031              -2.20   -24000.00
02032               8.60   -24000.00
02033              -1.20   -24000.00
02034               2.80   -25600.00
02035               8.60   -25600.00
02036             -10.80   -25600.00
02037              10.40   -26400.00
02038               2.00   -26400.00
02039              -7.60   -27200.00
02040              11.00   -27200.00
02041               2.00   -27200.00
02042              -3.80   -28800.00
02043               6.00   -28800.00
02044               5.20   -28800.00
02045              -4.60   -29600.00
02046               6.00   -29600.00
02047               4.40   -29600.00
02048              -3.40   -30400.00
02049               5.40   -30400.00
02050               3.00   -30400.00
02051              -0.20   -31200.00
02052               4.80   -31200.00
02053               2.60   -32000.00
02054               0.40   -32000.00
02055               3.80   -32000.00
02056               1.00   -32800.00
02057               1.80   -32000.00
02058               3.60   -32800.00
02059               1.80   -32800.00
02060               3.60   -33600.00
02061               2.40   -33600.00
02062               1.80   -33600.00
02063               2.00   -33600.00
02064               3.00   -33600.00
02065               2.00   -33600.00
02066               2.40   -33600.00
02067               3.60   -33600.00
02068               1.40   -33600.00
02069               2.80   -33600.00
02070               2.20   -33600.00
02071               1.80   -33600.00
02072               3.20   -33600.00
02073               2.20   -33600.00
02074               2.80   -33600.00
02075               3.00   -33600.00
02076               1.80   -34400.00
02077               3.00   -33600.00
02078               3.00   -33600.00
02079               2.40   -33600.00
02080               2.20   -33600.00
02081               2.60   -33600.00
02082               2.60   -33600.00
02083               1.80   -33600.00
02084               2.80   -32800.00
02085               2.60   -32800.00
02086               2.20   -32800.00
02087               2.60   -32800.00
02088               2.60   -32800.00
02089               2.60   -32800.00
02090               2.00   -32000.00
02091               2.80   -32000.00
02092               3.40   -32000.00
02093               1.80   -32000.00
02094               2.60   -32000.00
02095               2.60   -31200.00
02096               2.60   -30400.00
02097               2.20   -30400.00
02098               2.60   -29600.00
02099               2.60   -29600.00
02100               2.00   -29600.00
02101               2.60   -29600.00
02102               2.60   -28800.00
02103               2.00   -28800.00
02104               2.20   -28800.00
02105               2.60   -27200.00
02106               2.60   -27200.00
02107               2.00   -27200.00
02108               2.00   -26400.00
02109               2.60   -26400.00
02110               2.60   -25600.00
02111               1.80   -25600.00
02112               2.00   -24800.00
02113               2.00   -24000.00
02114               2.00   -24000.00
02115               1.80   -24000.00
02116               1.80   -23200.00
02117               2.00   -23200.00
02118               1.60   -22400.00
02119               1.60   -21600.00
02120               2.00   -20800.00
02121               1.40   -20800.00
02122               1.00   -20000.00
02123               1.60   -19200.00
02124               1.80   -18400.00
02125               1.20   -18400.00
02126               1.00   -17600.00
02127               1.40   -17600.00
02128               1.00   -16800.00
02129               1.20   -16000.00
02130               1.20   -16000.00
02131               1.00   -16000.00
02132               1.00   -14400.00
02133               1.00   -14400.00
02134               1.00   -13600.00
02135               1.20   -13600.00
02136               0.80   -12800.00
02137               1.20   -11200.00
02138               1.00   -11200.00
02139               0.40   -10400.00
02140               0.40    -9600.00
02141               0.40    -9600.00
02142               0.60    -8800.00
02143               0.40    -8000.00
02144               0.40    -7200.00
02145               0.40    -7200.00
02146               0.40    -6400.00
02147               0.20    -5600.00
02148               0.20    -4800.00
02149               0.20    -4000.00
02150               0.40    -3200.00
02151               0.40    -3200.00
02152               0.20    -1600.00
02153               0.20    -1600.00
02154              -0.20     -800.00
02155               0.40     -800.00
02156               0.40        0.00
02157               0.40        0.00
02158               0.40     1600.00
02159               3.60     1600.00
02160              -0.60     2400.00
02161              -1.80     2400.00
02162               2.00     3200.00
02163               0.60     4000.00
02164              -0.40     4800.00
02165              14.20     5600.00
02166              25.00     7200.00
02167             -25.00     8000.00
02168             -25.00     8000.00
02169              25.00     8800.00
02170              -7.40     8800.00
02171             -25.00     8800.00
02172              25.00    10400.00
02173             -24.40    10400.00
02174             -25.00    11200.00
02175              25.00    12000.00
02176             -25.00    12000.00
02177              23.80    12800.00
02178              16.40    12800.00
02179             -25.00    14400.00
02180              25.00    14400.00
02181             -25.00    15200.00
02182               4.80    16000.00
02183              25.00    16800.00
02184             -25.00    17600.00
02185              15.00    17600.00
02186              25.00    18400.00
02187             -25.00    18400.00
02188             -23.00    19200.00
02189              25.00    20000.00
02190             -25.00    20000.00
02191             -14.00    20800.00
02192              25.00    21600.00
02193             -25.00    22400.00
02194               9.80    22400.00
02195               1.00    23200.00
02196             -15.00    23200.00
02197               4.60    24000.00
02198               2.60    24000.00
02199             -11.20    24800.00
02200               7.00    24800.00
02201               3.00    24800.00
02202             -20.40    25600.00
02203              15.00    26400.00
02204              -9.20    27200.00
02205              -9.20    27200.00
02206               8.40    27200.00
02207              -5.80    28000.00
02208              -6.20    28800.00
02209               2.20    28800.00
02210              -0.60    28800.00
02211             -10.20    28800.00
02212               4.60    29600.00
02213              -3.00    30400.00
02214              -8.20    30400.00
02215               2.80    31200.00
02216              -4.20    31200.00
02217              -4.60    31200.00
02218               1.80    31200.00
02219              -5.00    32000.00
02220              -4.00    32800.00
02221              -0.20    32000.00
02222              -6.00    32800.00
02223              -1.80    32800.00
02224              -2.20    33600.00
02225              -4.20    33600.00
02226              -1.00    33600.00
02227              -2.80    33600.00
02228              -3.60    33600.00
02229              -3.80    33600.00
02230              -1.60    33600.00
02231              -3.80    34400.00
02232              -2.80    34400.00
02233              -1.20    34400.00
02234              -4.80    33600.00
02235              -1.40    34400.00
02236              -3.40    34400.00
02237              -4.00    34400.00
02238              -2.00    34400.00
02239              -4.20    33600.00
02240              -2.00    34400.00
02241              -3.00    34400.00
02242              -3.80    33600.00
02243              -2.60    34400.00
02244              -2.80    34400.00
02245              -2.80    34400.00
02246              -3.60    34400.00
02247              -2.80    33600.00
02248              -3.00    33600.00
02249              -3.40    33600.00
02250              -2.00    33600.00
02251              -3.60    33600.00
02252              -3.00    33600.00
02253              -2.80    33600.00
02254              -3.60    32800.00
02255              -3.00    33600.00
02256              -3.60    32800.00
02257              -3.40    32800.00
02258              -2.40    32800.00
02259              -3.00    32000.00
02260              -3.20    32800.00
02261              -3.00    32000.00
02262              -3.00    31200.00
02263              -3.00    31200.00
02264              -3.00    31200.00
02265              -3.20    30400.00
02266              -3.00    30400.00
02267              -2.80    29600.00
02268              -3.00    29600.00
02269              -3.40    28800.00
02270              -2.80    28800.00
02271              -3.00    28000.00
02272              -2.80    28000.00
02273              -2.60    28000.00
02274              -3.40    27200.00
02275              -2.40    27200.00
02276              -2.20    26400.00
02277              -2.60    25600.00
02278              -2.80    25600.00
02279              -2.80    25600.00
02280              -2.60    24800.00
02281              -2.80    24800.00
02282              -2.60    24000.00
02283              -2.60    23200.00
02284              -2.80    23200.00
02285              -2.20    22400.00
02286              -2.60    22400.00
02287              -2.80    20800.00
02288              -2.60    21600.00
02289              -2.80    20800.00
02290              -1.80    20000.00
02291              -2.00    19200.00
02292              -2.20    18400.00
02293              -2.20    17600.00
02294              -2.00    18400.00
02295              -1.80    17600.00
02296              -2.20    16800.00
02297              -2.00    16000.00
02298              -2.00    15200.00
02299              -2.20    15200.00
02300              -1.80    14400.00
02301              -2.00    14400.00
02302              -2.20    12800.00
02303              -1.40    12000.00
02304              -1.40    12000.00
02305              -1.20    11200.00
02306              -1.80    11200.00
02307              -1.40    10400.00
02308              -1.40     9600.00
02309              -1.20     8800.00
02310              -1.20     8800.00
02311              -1.20     8000.00
02312              -1.20     7200.00
02313              -1.20     6400.00
02314              -1.60     5600.00
02315              -1.20     4800.00
02316              -1.20     4800.00
02317              -1.00     3200.00
02318              -0.60     3200.00
02319              -1.20     2400.00
02320              -1.40     2400.00
02321              -0.40     1600.00
02322              -1.00      800.00
02323              -0.40        0.00
02324               0.40        0.00
02325               0.60     -800.00
02326               2.80    -1600.00
02327              -1.80    -1600.00
02328              -0.60    -3200.00
02329               1.20    -3200.00
02330               0.40    -4000.00
02331               0.20    -4000.00
02332               8.40    -4800.00
02333              25.00    -6400.00
02334              -7.80    -7200.00
02335             -25.00    -8000.00
02336              10.60    -8000.00
02337              24.20    -9600.00
02338             -25.00    -9600.00
02339              -7.60    -9600.00
02340              25.00   -10400.00
02341             -25.00   -10400.00
02342             -17.80   -11200.00
02343              25.00   -12000.00
02344             -25.00   -12800.00
02345               7.60   -13600.00
02346              15.20   -13600.00
02347             -11.80   -14400.00
02348              24.40   -15200.00
02349             -25.00   -15200.00
02350              25.00   -16000.00
02351              21.00   -16000.00
02352             -25.00   -17600.00
02353              16.60   -18400.00
02354              25.00   -17600.00
02355             -25.00   -19200.00
02356              -5.20   -19200.00
02357              25.00   -20000.00
02358             -25.00   -20000.00
02359               2.80   -20800.00
02360              25.00   -20800.00
02361             -21.00   -22400.00
02362               5.40   -23200.00
02363               7.60   -23200.00
02364              -7.60   -23200.00
02365               2.20   -23200.00
02366               8.20   -24000.00
02367              -4.60   -24000.00
02368               9.40   -25600.00
02369               0.60   -25600.00
02370              -6.80   -26400.00
02371              14.20   -26400.00
02372              -6.20   -26400.00
02373              -0.20   -27200.00
02374              10.80   -28000.00
02375              -2.20   -28000.00
02376              -1.80   -28800.00
02377               8.00   -28800.00
02378               1.00   -28800.00
02379              -2.20   -29600.00
02380               8.20   -29600.00
02381               0.20   -30400.00
02382              -0.60   -30400.00
02383               5.80   -30400.00
02384               0.40   -31200.00
02385               1.40   -30400.00
02386               5.60   -32000.00
02387               0.60   -32000.00
02388               2.00   -32000.00
02389               3.60   -32000.00
02390              -0.60   -32800.00
02391               2.80   -32800.00
02392               2.80   -32800.00
02393               1.80   -32800.00
02394               3.60   -32800.00
02395               2.20   -33600.00
02396               1.20   -33600.00
02397               2.20   -33600.00
02398               3.00   -33600.00
02399               1.60   -33600.00
02400               3.40   -33600.00
02401               3.00   -33600.00
02402               1.80   -33600.00
02403               3.60   -33600.00
02404               1.80   -33600.00
02405               2.60   -33600.00
02406               3.00   -33600.00
02407               2.00   -34400.00
02408               3.40   -33600.00
02409               2.20   -33600.00
02410               2.00   -33600.00
02411               3.40   -33600.00
02412               2.20   -33600.00
02413               2.80   -33600.00
02414               2.60   -33600.00
02415               2.60   -33600.00
02416               2.80   -33600.00
02417               2.60   -32800.00
02418               2.60   -32800.00
02419               2.20   -32800.00
02420               2.80   -32800.00
02421               2.60   -32800.00
02422               2.60   -32800.00
02423               2.60   -32000.00
02424               2.20   -32000.00
02425               2.80   -32000.00
02426               2.80   -32000.00
02427               2.00   -32000.00
02428               2.80   -32000.00
02429               2.60   -31200.00
02430               2.20   -30400.00
02431               2.60   -30400.00
02432               2.60   -30400.00
02433               2.20   -29600.00
02434               2.40   -29600.00
02435               2.20   -28800.00
02436               2.40   -28800.00
02437               2.20   -28800.00
02438               2.60   -28800.00
02439               2.00   -27200.00
02440               2.60   -27200.00
02441               2.00   -26400.00
02442               2.00   -26400.00
02443               2.80   -25600.00
02444               2.00   -25600.00
02445               2.00   -25600.00
02446               2.60   -24800.00
02447               1.40   -24000.00
02448               2.00   -24000.00
02449               2.00   -24000.00
02450               1.20   -23200.00
02451               2.00   -22400.00
02452               1.80   -22400.00
02453               1.00   -21600.00
02454               1.40   -20800.00
02455               2.00   -20800.00
02456               0.60   -20800.00
02457               1.80   -18400.00
02458               2.00   -18400.00
02459               0.60   -18400.00
02460               1.80   -17600.00
02461               1.40   -17600.00
02462               1.00   -16800.00
02463               2.20   -16000.00
02464               0.60   -16000.00
02465               0.40   -15200.00
02466               2.00   -14400.00
02467               0.40   -14400.00
02468               0.60   -13600.00
02469               2.00   -12800.00
02470               0.40   -12000.00
02471               0.60   -11200.00
02472               1.40   -11200.00
02473              -0.20   -10400.00
02474               0.60    -9600.00
02475               1.00    -9600.00
02476               0.20    -8800.00
02477               1.00    -8000.00
02478               1.20    -7200.00
02479               0.20    -7200.00
02480               0.60    -6400.00
02481               0.60    -4800.00
02482              -0.60    -4800.00
02483               0.20    -4000.00
02484               0.60    -3200.00
02485              -0.40    -3200.00
02486               0.20    -2400.00
02487               0.60    -1600.00
02488               0.20     -800.00
02489               0.20        0.00
02490               0.40        0.00
02491               0.60      800.00
02492               1.80     1600.00
02493               3.00     1600.00
02494              -1.80     2400.00
02495               0.20     3200.00
02496               1.80     3200.00
02497              -0.60     3200.00
02498               3.00     5600.00
02499              24.60     6400.00
02500              16.20     7200.00
02501             -25.00     8000.00
02502              -7.00     8000.00
02503              25.00     8800.00
02504             -25.00     8800.00
02505              -0.80     9600.00
02506              25.00     9600.00
02507             -25.00    10400.00
02508              25.00    12000.00
02509              25.00    12000.00
02510             -25.00    12000.00
02511              25.00    13600.00
02512             -25.00    13600.00
02513               9.00    14400.00
02514              25.00    14400.00
02515             -25.00    15200.00
02516              25.00    16000.00
02517               9.20    16800.00
02518             -25.00    17600.00
02519              25.00    17600.00
02520              12.80    18400.00
02521             -25.00    18400.00
02522               4.00    19200.00
02523              25.00    19200.00
02524             -25.00    20800.00
02525              20.80    20800.00
02526              15.80    21600.00
02527             -25.00    22400.00
02528              20.20    22400.00
02529             -14.00    24000.00
02530              -7.80    24000.00
02531               5.00    24000.00
02532              -1.40    24800.00
02533              -9.40    24800.00
02534              14.80    25600.00
02535             -11.60    25600.00
02536              -9.80    25600.00
02537              13.80    26400.00
02538             -18.00    27200.00
02539               2.00    27200.00
02540               5.00    28000.00
02541              -7.60    28800.00
02542              -3.80    28000.00
02543               3.60    28800.00
02544              -6.60    28800.00
02545              -6.20    30400.00
02546               5.80    30400.00
02547              -8.40    30400.00
02548              -3.80    31200.00
02549               2.00    31200.00
02550              -7.00    31200.00
02551              -1.00    32000.00
02552               1.00    32000.00
02553              -6.20    32000.00
02554              -1.00    32800.00
02555              -2.40    32800.00
02556              -5.80    32800.00
02557              -0.40    33600.00
02558              -3.60    32800.00
02559              -2.80    33600.00
02560              -1.00    33600.00
02561              -3.40    33600.00
02562              -4.40    33600.00
02563              -3.00    33600.00
02564              -2.00    33600.00
02565              -4.60    34400.00
02566              -1.20    34400.00
02567              -3.00    34400.00
02568              -4.40    34400.00
02569              -1.00    34400.00
02570              -4.40    33600.00
02571              -2.80    35200.00
02572              -2.80    34400.00
02573              -3.60    34400.00
02574              -1.80    34400.00
02575              -3.80    34400.00
02576              -3.60    34400.00
02577              -2.80    34400.00
02578              -3.40    34400.00
02579              -2.80    34400.00
02580              -4.00    33600.00
02581              -3.20    34400.00
02582              -3.00    34400.00
02583              -2.80    33600.00
02584              -3.40    33600.00
02585              -3.40    33600.00
02586              -2.00    33600.00
02587              -4.00    33600.00
02588              -3.40    33600.00
02589              -2.00    32800.00
02590              -4.60    32800.00
02591              -3.40    32000.00
02592              -1.20    32800.00
02593              -4.40    32000.00
02594              -3.00    32000.00
02595              -2.80    32800.00
02596              -2.60    31200.00
02597              -3.40    31200.00
02598              -3.00    30400.00
02599              -2.20    30400.00
02600              -3.20    30400.00
02601              -3.20    30400.00
02602              -2.40    29600.00
02603              -3.20    28800.00
02604              -3.60    28800.00
02605              -2.20    28800.00
02606              -2.80    28000.00
02607              -3.60    28000.00
02608              -2.80    27200.00
02609              -2.60    26400.00
02610              -3.00    27200.00
02611              -2.20    25600.00
02612              -2.80    25600.00
02613              -2.60    24800.00
02614              -2.20    24800.00
02615              -3.00    24000.00
02616              -2.20    24000.00
02617              -2.20    24000.00
02618              -2.20    22400.00
02619              -2.00    22400.00
02620              -2.80    21600.00
02621              -2.80    21600.00
02622              -2.60    20800.00
02623              -2.60    20800.00
02624              -1.40    19200.00
02625              -2.00    19200.00
02626              -2.60    18400.00
02627              -2.40    18400.00
02628              -1.80    17600.00
02629              -1.40    17600.00
02630              -2.80    16800.00
02631              -1.20    15200.00
02632              -1.80    16000.00
02633              -2.40    14400.00
02634              -2.00    14400.00
02635              -1.40    13600.00
02636              -2.20    12800.00
02637              -1.00    12800.00
02638              -1.20    12000.00
02639              -2.00    11200.00
02640              -2.00    11200.00
02641              -1.20    10400.00
02642              -1.80     8800.00
02643              -1.80     9600.00
02644              -1.20     8800.00
02645              -1.60     8000.00
02646              -1.40     7200.00
02647              -0.60     6400.00
02648              -1.20     5600.00
02649              -0.80     4800.00
02650              -1.20     4800.00
02651              -1.20     4000.00
02652              -1.00     3200.00
02653              -1.40     2400.00
02654              -1.00     1600.00
02655              -0.60     1600.00
02656              -1.00      800.00
02657              -0.20        0.00
02658               0.20     -800.00
02659               2.20    -1600.00
02660               1.00    -1600.00
02661              -2.20    -2400.00
02662               0.60    -3200.00
02663               1.40    -3200.00
02664              -0.60    -3200.00
02665               2.00    -4000.00
02666              14.60    -4800.00
02667              25.00    -6400.00
02668             -25.00    -7200.00
02669             -25.00    -8000.00
02670              25.00    -8000.00
02671               4.40    -8800.00
02672             -25.00    -8000.00
02673              25.00    -9600.00
02674              25.00   -11200.00
02675             -25.00   -10400.00
02676              25.00   -11200.00
02677              25.00   -12000.00
02678             -25.00   -12800.00
02679              25.00   -13600.00
02680             -12.20   -13600.00
02681              11.00   -14400.00
02682               5.00   -15200.00
02683             -25.00   -16000.00
02684              25.00   -16800.00
02685             -10.60   -16800.00
02686             -25.00   -17600.00
02687              25.00   -17600.00
02688               7.80   -18400.00
02689             -25.00   -19200.00
02690              19.80   -18400.00
02691              20.40   -20000.00
02692             -25.00   -20800.00
02693              25.00   -20800.00
02694              10.20   -21600.00
02695             -18.80   -22400.00
02696              13.20   -23200.00
02697              -0.20   -23200.00
02698              -6.00   -23200.00
02699               6.20   -24000.00
02700               3.80   -24800.00
02701              -3.00   -24800.00
02702              12.00   -25600.00
02703              -7.80   -25600.00
02704               2.60   -26400.00
02705              10.00   -26400.00
02706             -10.60   -27200.00
02707               7.40   -27200.00
02708               6.80   -27200.00
02709              -4.40   -28800.00
02710               2.60   -28800.00
02711               7.60   -28800.00
02712              -4.20   -28800.00
02713               2.00   -29600.00
02714               7.60   -29600.00
02715              -3.80   -30400.00
02716               2.80   -30400.00
02717               5.00   -30400.00
02718              -1.00   -30400.00
02719               3.00   -31200.00
02720               4.20   -31200.00
02721              -0.20   -32000.00
02722               3.60   -32000.00
02723               1.80   -32000.00
02724               0.60   -32000.00
02725               3.60   -32800.00
02726               1.80   -32800.00
02727               3.40   -32800.00
02728               2.60   -33600.00
02729               1.40   -32800.00
02730               1.80   -33600.00
02731               2.40   -33600.00
02732               2.00   -33600.00
02733               2.00   -33600.00
02734               3.80   -33600.00
02735               1.80   -33600.00
02736               2.80   -33600.00
02737               3.00   -33600.00
02738               1.20   -33600.00
02739               3.40   -33600.00
02740               2.60   -33600.00
02741               2.00   -33600.00
02742               3.40   -33600.00
02743               2.00   -33600.00
02744               2.20   -33600.00
02745               3.40   -33600.00
02746               2.60   -33600.00
02747               2.60   -33600.00
02748               2.80   -33600.00
02749               2.80   -33600.00
02750               2.20   -33600.00
02751               3.00   -32800.00
02752               2.60   -32800.00
02753               2.00   -32800.00
02754               3.40   -32800.00
02755               3.60   -32800.00
02756               2.00   -32800.00
02757               2.00   -32000.00
02758               3.60   -32000.00
02759               2.20   -32000.00
02760               2.20   -32000.00
02761               2.60   -30400.00
02762               3.00   -30400.00
02763               3.40   -30400.00
02764               0.80   -30400.00
02765               2.60   -29600.00
02766               4.20   -29600.00
02767               0.60   -29600.00
02768               2.80   -28800.00
02769               3.60   -28800.00
02770               1.00   -28800.00
02771               2.60   -28800.00
02772               3.00   -28000.00
02773               0.20   -27200.00
02774               3.20   -27200.00
02775               2.00   -26400.00
02776               0.40   -26400.00
02777               4.20   -25600.00
02778               0.80   -25600.00
02779               0.60   -25600.00
02780               3.80   -24000.00
02781               0.60   -24800.00
02782               0.80   -24000.00
02783               3.00   -23200.00
02784               1.80   -23200.00
02785               0.40   -22400.00
02786               2.60   -22400.00
02787               2.60   -21600.00
02788               0.80   -20800.00
02789               2.00   -20000.00
02790               1.40   -20000.00
02791               1.20   -19200.00
02792               0.20   -18400.00
02793               2.00   -18400.00
02794               2.60   -17600.00
02795               0.00   -17600.00
02796               1.80   -16800.00
02797               2.60   -16000.00
02798              -0.60   -16000.00
02799               1.00   -14400.00
02800               2.20   -14400.00
02801               0.40   -13600.00
02802               1.00   -12800.00
02803               2.00   -12800.00
02804               0.40   -12000.00
02805              -0.20   -11200.00
02806               1.20   -11200.00
02807               0.60   -10400.00
02808               0.60    -9600.00
02809               1.00    -8800.00
02810              -0.40    -8000.00
02811               1.00    -8000.00
02812               0.80    -7200.00
02813               0.40    -6400.00
02814               1.40    -6400.00
02815               0.20    -4800.00
02816              -0.20    -4000.00
02817               0.60    -4000.00
02818              -0.20    -3200.00
02819               0.20    -3200.00
02820               1.40    -1600.00
02821              -0.80    -1600.00
02822              -0.20     -800.00
02823               1.20     -800.00
02824              -0.60        0.00
02825               0.80     1600.00
02826               3.60     1600.00
02827               0.40     1600.00
02828              -1.80     2400.00
02829               1.00     3200.00
02830               1.60     3200.00
02831              -0.60     4000.00
02832               7.60     5600.00
02833              25.00     7200.00
02834             -13.80     8000.00
02835             -25.00     8000.00
02836              17.40     8800.00
02837              17.20     8000.00
02838             -25.00     8800.00
02839              25.00     9600.00
02840              25.00    10400.00
02841             -25.00    10400.00
02842              25.00    11200.00
02843             -19.00    12000.00
02844             -25.00    12800.00
02845              25.00    12800.00
02846             -25.00    12800.00
02847              25.00    14400.00
02848              -6.20    15200.00
02849             -25.00    16000.00
02850              25.00    16000.00
02851             -25.00    16800.00
02852             -17.20    16800.00
02853              25.00    17600.00
02854              -9.20    19200.00
02855             -25.00    19200.00
02856              25.00    19200.00
02857               4.60    20800.00
02858             -25.00    21600.00
02859              25.00    21600.00
02860             -15.80    21600.00
02861              -8.20    22400.00
02862              15.00    23200.00
02863             -18.80    24000.00
02864               1.00    24000.00
02865               3.60    24000.00
02866              -7.80    24800.00
02867              -2.00    24800.00
02868              13.40    25600.00
02869             -21.60    25600.00
02870               6.00    26400.00
02871               2.60    27200.00
02872             -17.80    27200.00
02873               8.60    28000.00
02874              -0.80    28000.00
02875              -6.80    28000.00
02876              -0.20    28800.00
02877               2.60    28800.00
02878             -11.00    30400.00
02879               0.40    30400.00
02880               2.60    30400.00
02881             -10.20    30400.00
02882               1.00    30400.00
02883              -0.60    31200.00
02884              -7.00    31200.00
02885               1.40    31200.00
02886              -2.20    32000.00
02887              -6.00    32000.00
02888               0.60    32800.00
02889              -4.60    32000.00
02890              -4.40    32800.00
02891              -0.40    32800.00
02892              -4.20    32800.00
02893              -1.20    33600.00
02894              -1.80    33600.00
02895              -3.80    33600.00
02896              -4.40    33600.00
02897              -2.80    33600.00
02898              -3.00    34400.00
02899              -4.00    34400.00
02900              -0.60    34400.00
02901              -4.60    34400.00
02902              -2.20    34400.00
02903              -2.00    34400.00
02904              -5.20    34400.00
02905              -2.00    34400.00
02906              -3.60    34400.00
02907              -3.00    34400.00
02908              -2.20    34400.00
02909              -4.20    34400.00
02910              -2.80    34400.00
02911              -2.80    34400.00
02912              -3.00    34400.00
02913              -3.60    34400.00
02914              -3.80    33600.00
02915              -3.00    34400.00
02916              -3.60    33600.00
02917              -2.40    33600.00
02918              -3.20    33600.00
02919              -3.60    33600.00
02920              -2.40    33600.00
02921              -3.40    32800.00
02922              -2.80    32800.00
02923              -3.40    33600.00
02924              -3.60    33600.00
02925              -2.60    32800.00
02926              -2.80    32800.00
02927              -3.40    32000.00
02928              -3.40    32000.00
02929              -2.80    31200.00
02930              -2.80    31200.00
02931              -3.60    31200.00
02932              -3.00    31200.00
02933              -2.80    30400.00
02934              -3.20    29600.00
02935              -2.20    30400.00
02936              -2.80    28800.00
02937              -3.40    28800.00
02938              -2.20    28800.00
02939              -2.60    28000.00
02940              -2.80    28000.00
02941              -3.20    27200.00
02942              -2.40    27200.00
02943              -2.20    27200.00
02944              -3.00    26400.00
02945              -3.40    25600.00
02946              -2.80    25600.00
02947              -2.00    24800.00
02948              -2.60    24000.00
02949              -2.80    24000.00
02950              -2.20    24000.00
02951              -3.40    23200.00
02952              -2.20    22400.00
02953              -1.80    22400.00
02954              -2.80    22400.00
02955              -2.20    20800.00
02956              -2.00    20800.00
02957              -2.60    20000.00
02958              -2.20    19200.00
02959              -1.80    18400.00
02960              -2.80    18400.00
02961              -2.00    18400.00
02962              -0.20    17600.00
02963              -3.00    17600.00
02964              -3.00    16000.00
02965              -1.20    15200.00
02966              -2.20    15200.00
02967              -1.80    14400.00
02968              -0.60    14400.00
02969              -3.00    13600.00
02970              -2.00    12800.00
02971              -0.60    12800.00
02972              -2.20    11200.00
02973              -2.00    11200.00
02974              -0.80    10400.00
02975              -2.20     9600.00
02976              -2.00     8800.00
02977              -1.00     8800.00
02978              -2.00     8000.00
02979              -1.80     7200.00
02980              -0.60     7200.00
02981              -1.40     6400.00
02982              -1.20     5600.00
02983              -1.00     4800.00
02984              -1.00     4800.00
02985              -1.40     3200.00
02986              -0.80     2400.00
02987              -1.20     2400.00
02988              -1.00     1600.00
02989              -0.60     1600.00
02990              -0.60        0.00
02991              -0.40        0.00
02992               0.20    -1600.00
02993               3.60    -1600.00
02994              -1.40    -1600.00
02995              -1.60    -2400.00
02996               2.00    -3200.00
02997               1.00    -4000.00
02998              -1.40    -4000.00
02999               5.40    -4800.00
03000              22.40    -6400.00
03001              13.40    -7200.00
03002             -25.00    -8000.00
03003             -10.60    -8000.00
03004              25.00    -8800.00
03005             -21.80    -9600.00
03006             -25.00    -8800.00
03007              25.00   -10400.00
03008               6.80   -10400.00
03009             -25.00   -11200.00
03010              25.00   -12800.00
03011             -14.40   -12800.00
03012             -25.00   -12800.00
03013              25.00   -13600.00
03014             -23.80   -14400.00
03015              25.00   -15200.00
03016             -22.80   -15200.00
03017              -3.80   -16000.00
03018              25.00   -16800.00
03019             -25.00   -16800.00
03020              -4.40   -17600.00
03021              25.00   -17600.00
03022             -13.40   -18400.00
03023             -24.60   -19200.00
03024              25.00   -20000.00
03025              -9.40   -20000.00
03026             -22.00   -20800.00
03027              25.00   -21600.00
03028             -10.20   -21600.00
03029              -6.60   -22400.00
03030              13.00   -23200.00
03031              -5.40   -23200.00
03032              -2.20   -23200.00
03033               9.00   -24000.00
03034              -2.00   -24000.00
03035               3.00   -25600.00
03036               8.40   -25600.00
03037             -10.80   -25600.00
03038              10.60   -26400.00
03039               1.20   -27200.00
03040              -7.40   -27200.00
03041              11.00   -27200.00
03042               1.20   -28000.00
03043              -3.80   -28800.00
03044               6.20   -28800.00
03045               5.00   -29600.00
03046              -4.60   -29600.00
03047               6.00   -29600.00
03048               3.60   -29600.00
03049              -3.40   -30400.00
03050               5.60   -31200.00
03051               2.60   -32000.00
03052              -0.60   -31200.00
03053               5.20   -32000.00
03054               2.20   -32000.00
03055               0.20   -32000.00
03056               4.20   -32000.00
03057               0.60   -32800.00
03058               1.20   -32800.00
03059               3.60   -32800.00
03060               1.80   -32800.00
03061               3.60   -33600.00
03062               2.60   -33600.00
03063               2.00   -33600.00
03064               2.00   -33600.00
03065               3.00   -32800.00
03066               2.00   -33600.00
03067               2.60   -33600.00
03068               3.40   -33600.00
03069               1.60   -33600.00
03070               3.40   -33600.00
03071               2.20   -33600.00
03072               1.60   -33600.00
03073               3.60   -34400.00
03074               1.80   -33600.00
03075               3.00   -33600.00
03076               2.80   -33600.00
03077               1.80   -33600.00
03078               3.40   -33600.00
03079               2.80   -33600.00
03080               2.20   -33600.00
03081               2.60   -33600.00
03082               2.60   -33600.00
03083               2.60   -33600.00
03084               2.20   -32800.00
03085               2.80   -33600.00
03086               2.60   -32800.00
03087               2.80   -33600.00
03088               2.80   -32800.00
03089               2.40   -32800.00
03090               2.80   -32000.00
03091               2.40   -32000.00
03092               2.60   -32000.00
03093               3.40   -32000.00
03094               2.20   -32000.00
03095               2.40   -32000.00
03096               2.60   -30400.00
03097               2.00   -30400.00
03098               2.20   -30400.00
03099               2.60   -30400.00
03100               2.00   -29600.00
03101               2.00   -29600.00
03102               2.80   -28800.00
03103               2.40   -28800.00
03104               2.20   -28800.00
03105               2.20   -28000.00
03106               2.00   -28000.00
03107               2.60   -27200.00
03108               2.20   -27200.00
03109               1.80   -27200.00
03110               2.60   -26400.00
03111               2.00   -25600.00
03112               1.40   -25600.00
03113               2.40   -25600.00
03114               2.00   -24000.00
03115               1.40   -24000.00
03116               2.00   -24000.00
03117               1.80   -23200.00
03118               1.40   -22400.00
03119               1.80   -22400.00
03120               2.20   -22400.00
03121               1.20   -20800.00
03122               1.40   -20800.00
03123               1.20   -20000.00
03124               1.80   -18400.00
03125               1.40   -19200.00
03126               1.80   -18400.00
03127               2.20   -17600.00
03128               1.20   -17600.00
03129               0.40   -16800.00
03130               1.20   -16800.00
03131               1.80   -16000.00
03132               1.20   -15200.00
03133               1.20   -14400.00
03134               1.00   -14400.00
03135               1.00   -13600.00
03136               1.00   -13600.00
03137               1.00   -12800.00
03138               1.40   -12000.00
03139               1.20   -11200.00
03140               0.60   -10400.00
03141               1.00    -9600.00
03142               1.20    -9600.00
03143              -0.40    -8000.00
03144               1.20    -8000.00
03145               1.20    -7200.00
03146               1.00    -7200.00
03147               0.20    -6400.00
03148               0.60    -5600.00
03149              -0.40    -4800.00
03150               0.20    -4000.00
03151               1.40    -3200.00
03152              -0.20    -3200.00
03153               0.40    -2400.00
03154               1.00    -1600.00
03155              -1.00     -800.00
03156               0.20     -800.00
03157               1.20        0.00
03158              -0.20      800.00
03159               0.60      800.00
03160               4.80     1600.00
03161              -1.80     2400.00
03162              -1.20     3200.00
03163               2.00     3200.00
03164              -0.20     4000.00
03165              -0.20     4800.00
03166              15.00     5600.00
03167              25.00     7200.00
03168             -25.00     8000.00
03169             -25.00     8800.00
03170              25.00     8800.00
03171              -9.80     8000.00
03172             -25.00     8800.00
03173              25.00    11200.00
03174             -25.00    10400.00
03175             -25.00    12000.00
03176              25.00    12000.00
03177             -25.00    12000.00
03178              25.00    13600.00
03179              12.00    12800.00
03180             -25.00    14400.00
03181              25.00    15200.00
03182             -25.00    15200.00
03183              10.00    16000.00
03184              25.00    16000.00
03185             -25.00    17600.00
03186              17.60    17600.00
03187              25.00    18400.00
03188             -25.00    18400.00
03189             -21.40    19200.00
03190              25.00    19200.00
03191             -25.00    20800.00
03192             -10.80    21600.00
03193              25.00    21600.00
03194             -25.00    22400.00
03195              11.00    22400.00
03196              -0.60    22400.00
03197             -14.60    24000.00
03198               4.60    24800.00
03199               2.20    24000.00
03200             -10.80    24800.00
03201               7.80    25600.00
03202               2.00    25600.00
03203             -19.80    26400.00
03204              15.40    26400.00
03205             -10.00    27200.00
03206              -8.40    27200.00
03207               8.40    27200.00
03208              -5.80    28000.00
03209              -6.00    28800.00
03210               2.60    28800.00
03211              -0.60    30400.00
03212             -10.00    28800.00
03213               4.80    30400.00
03214              -3.40    30400.00
03215              -8.00    30400.00
03216               2.80    31200.00
03217              -4.40    31200.00
03218              -4.40    31200.00
03219               2.00    32000.00
03220              -5.00    32800.00
03221              -3.60    32000.00
03222              -0.20    32800.00
03223              -6.00    32800.00
03224              -1.80    32800.00
03225              -2.00    33600.00
03226              -4.20    32800.00
03227              -1.00    33600.00
03228              -2.80    33600.00
03229              -4.20    33600.00
03230              -4.40    33600.00
03231              -1.80    33600.00
03232              -4.40    33600.00
03233              -3.00    33600.00
03234              -1.20    34400.00
03235              -5.20    34400.00
03236              -1.20    34400.00
03237              -3.40    34400.00
03238              -4.60    34400.00
03239              -2.20    34400.00
03240              -4.40    34400.00
03241              -2.00    34400.00
03242              -3.00    33600.00
03243              -4.20    34400.00
03244              -2.20    34400.00
03245              -2.80    34400.00
03246              -3.00    34400.00
03247              -3.60    33600.00
03248              -2.80    34400.00
03249              -1.80    34400.00
03250              -7.00    33600.00
03251              -1.20    34400.00
03252              -2.20    33600.00
03253             -12.40    33600.00
03254               5.00    33600.00
03255              -7.60    33600.00
03256               3.80    33600.00
03257              -1.20    32800.00
03258              -9.20    32800.00
03259               6.00    32000.00
03260             -12.60    32000.00
03261              -3.00    32000.00
03262              -6.00    32000.00
03263              -2.00    32000.00
03264              -0.20    31200.00
03265              -3.40    31200.00
03266               1.20    31200.00
03267              -6.60    30400.00
03268               2.20    29600.00
03269              -4.60    29600.00
03270              -9.00    29600.00
03271              -1.00    28800.00
03272              -3.80    28800.00
03273              -3.60    28000.00
03274              -0.20    27200.00
03275               0.20    27200.00
03276              -1.40    27200.00
03277              -1.80    27200.00
03278              -5.20    25600.00
03279              -5.00    25600.00
03280              -2.60    25600.00
03281              -5.40    24800.00
03282              -1.80    24800.00
03283              -0.40    24000.00
03284              -0.60    24000.00
03285               0.20    22400.00
03286              -2.00    22400.00
03287              -5.40    22400.00
03288              -3.60    21600.00
03289              -2.60    21600.00
03290              -6.20    20800.00
03291              -0.60    19200.00
03292               1.60    19200.00
03293              -1.40    18400.00
03294              -2.00    18400.00
03295              -1.40    17600.00
03296              -2.60    17600.00
03297              -4.40    16800.00
03298              -3.80    16000.00
03299              -2.60    16000.00
03300              -2.20    15200.00
03301              -1.40    14400.00
03302               2.00    14400.00
03303              -0.80    12800.00
03304              -3.00    12800.00
03305              -1.20    12000.00
03306              -2.60    11200.00
03307              -5.80    11200.00
03308              -1.40    10400.00
03309               1.20     8800.00
03310              -1.80     9600.00
03311              -0.40     8000.00
03312               0.60     8000.00
03313              -2.60     7200.00
03314              -2.40     6400.00
03315              -1.40     7200.00
03316              -2.80     5600.00
03317              -1.80     4800.00
03318               0.40     4000.00
03319               0.00     3200.00
03320              -0.60     2400.00
03321              -1.00     2400.00
03322              -0.40     1600.00
03323              -0.60     1600.00
03324              -2.00        0.00
03325              -0.80        0.00
03326               2.60     -800.00
03327               2.80     -800.00
03328              -2.20    -1600.00
03329               1.80    -3200.00
03330               1.80    -3200.00
03331              -1.20    -3200.00
03332               0.40    -4000.00
03333               9.00    -4800.00
03334              25.00    -6400.00
03335              -9.20    -7200.00
03336             -25.00    -8000.00
03337              12.60    -8000.00
03338              23.60    -8000.00
03339             -25.00    -9600.00
03340              -5.20    -8800.00
03341              25.00   -10400.00
03342             -25.00   -10400.00
03343             -13.80   -11200.00
03344              25.00   -12800.00
03345             -25.00   -12800.00
03346              10.60   -13600.00
03347              14.00   -13600.00
03348             -10.00   -14400.00
03349              23.80   -14400.00
03350             -25.00   -15200.00
03351              25.00   -16800.00
03352              19.60   -16800.00
03353             -25.00   -16800.00
03354              18.60   -17600.00
03355              25.00   -17600.00
03356             -25.00   -19200.00
03357              -3.80   -19200.00
03358              25.00   -20000.00
03359             -25.00   -20000.00
03360               4.20   -20800.00
03361              25.00   -21600.00
03362             -21.20   -22400.00
03363               6.20   -22400.00
03364               7.20   -23200.00
03365              -7.40   -24000.00
03366               2.60   -24000.00
03367               7.60   -24000.00
03368              -5.00   -24000.00
03369               9.40   -25600.00
03370              -0.20   -25600.00
03371              -6.20   -25600.00
03372              14.00   -26400.00
03373              -7.00   -27200.00
03374               0.40   -27200.00
03375              10.20   -27200.00
03376              -2.80   -28000.00
03377              -2.00   -28800.00
03378               8.00   -28800.00
03379               0.40   -28800.00
03380              -2.20   -29600.00
03381               8.60   -29600.00
03382              -0.20   -30400.00
03383              -1.00   -30400.00
03384               5.80   -30400.00
03385               1.00   -31200.00
03386               1.40   -30400.00
03387               5.00   -31200.00
03388               0.40   -32000.00
03389               2.20   -32000.00
03390               3.00   -32000.00
03391               0.20   -32800.00
03392               3.40   -32800.00
03393               2.60   -32800.00
03394               2.20   -33600.00
03395               3.60   -32800.00
03396               1.80   -33600.00
03397               1.40   -33600.00
03398               2.80   -33600.00
03399               3.00   -33600.00
03400               1.80   -33600.00
03401               3.20   -33600.00
03402               2.80   -33600.00
03403               1.80   -33600.00
03404               3.60   -33600.00
03405               1.80   -33600.00
03406               2.60   -33600.00
03407               3.00   -33600.00
03408               1.80   -33600.00
03409               3.40   -33600.00
03410               2.60   -33600.00
03411               2.00   -33600.00
03412               3.40   -33600.00
03413               2.60   -33600.00
03414               2.60   -33600.00
03415               2.80   -33600.00
03416               2.80   -33600.00
03417               2.20   -32800.00
03418               2.60   -33600.00
03419               2.80   -32800.00
03420               2.00   -32800.00
03421               3.20   -32800.00
03422               2.60   -32000.00
03423               2.00   -32000.00
03424               2.80   -32800.00
03425               2.20   -32000.00
03426               2.60   -32000.00
03427               2.60   -32000.00
03428               2.20   -32000.00
03429               2.60   -31200.00
03430               2.60   -30400.00
03431               2.40   -30400.00
03432               2.60   -30400.00
03433               2.00   -29600.00
03434               2.00   -29600.00
03435               3.00   -29600.00
03436               1.80   -28800.00
03437               1.60   -28800.00
03438               2.20   -28800.00
03439               2.20   -28000.00
03440               2.00   -27200.00
03441               2.20   -27200.00
03442               2.20   -26400.00
03443               1.80   -26400.00
03444               2.20   -26400.00
03445               2.00   -25600.00
03446               2.00   -25600.00
03447               2.00   -24800.00
03448               1.80   -24000.00
03449               2.00   -24000.00
03450               1.80   -23200.00
03451               1.40   -23200.00
03452               2.00   -22400.00
03453               1.80   -22400.00
03454               1.40   -21600.00
03455               1.80   -20800.00
03456               1.40   -20800.00
03457               1.40   -20000.00
03458               1.80   -19200.00
03459               2.00   -18400.00
03460               1.20   -18400.00
03461               1.40   -17600.00
03462               1.40   -17600.00
03463               1.20   -16800.00
03464               1.60   -16000.00
03465               1.20   -15200.00
03466               1.20   -15200.00
03467               1.40   -14400.00
03468               1.00   -14400.00
03469               1.20   -13600.00
03470               0.60   -12800.00
03471               0.80   -12800.00
03472               1.20   -12000.00
03473               0.60   -10400.00
03474               1.00   -10400.00
03475               1.00    -9600.00
03476               1.20    -9600.00
03477               1.00    -8000.00
03478               0.40    -8000.00
03479               0.80    -8000.00
03480               0.40    -6400.00
03481               0.40    -6400.00
03482               0.80    -5600.00
03483               0.40    -4000.00
03484               0.40    -4000.00
03485               0.40    -3200.00
03486               0.20    -3200.00
03487               0.00    -1600.00
03488              -0.20    -1600.00
03489              -0.20    -1600.00
03490               0.00     -800.00
03491               0.40        0.00
03492               0.40      800.00
03493               2.00     1600.00
03494               3.40     2400.00
03495              -2.40     2400.00
03496              -0.40     3200.00
03497               1.40     4000.00
03498              -1.40     4000.00
03499               2.80     4800.00
03500              25.00     6400.00
03501              14.40     7200.00
03502             -25.00     8000.00
03503              -4.40     8800.00
03504              25.00     8000.00
03505             -25.00     8000.00
03506               2.40     9600.00
03507              25.00     9600.00
03508             -25.00    10400.00
03509              25.00    12000.00
03510              25.00    11200.00
03511             -25.00    12000.00
03512              25.00    13600.00
03513             -25.00    14400.00
03514              14.00    14400.00
03515              25.00    15200.00
03516             -25.00    15200.00
03517              25.00    16000.00
03518               5.20    16800.00
03519             -25.00    16800.00
03520              25.00    17600.00
03521              11.40    18400.00
03522             -25.00    19200.00
03523               6.20    19200.00
03524              25.00    20000.00
03525             -25.00    20800.00
03526              22.80    21600.00
03527              13.80    22400.00
03528             -25.00    22400.00
03529              20.60    22400.00
03530             -14.60    24000.00
03531              -7.00    24000.00
03532               5.20    24000.00
03533              -2.00    24800.00
03534              -9.00    24800.00
03535              15.40    25600.00
03536             -12.60    25600.00
03537              -8.40    25600.00
03538              13.40    27200.00
03539             -18.20    27200.00
03540               2.60    27200.00
03541               4.60    28000.00
03542              -7.60    28000.00
03543              -3.80    28800.00
03544               3.60    28800.00
03545              -6.60    28800.00
03546              -5.60    29600.00
03547               5.80    30400.00
03548              -8.60    30400.00
03549              -3.40    31200.00
03550               2.00    31200.00
03551              -6.80    31200.00
03552              -0.80    31200.00
03553               0.60    32800.00
03554              -6.00    31200.00
03555              -1.20    32800.00
03556              -2.20    32800.00
03557              -6.00    33600.00
03558              -0.60    33600.00
03559              -4.00    33600.00
03560              -2.80    33600.00
03561              -1.20    33600.00
03562              -3.60    33600.00
03563              -4.40    33600.00
03564              -3.00    34400.00
03565              -2.20    33600.00
03566              -5.00    34400.00
03567              -1.20    34400.00
03568              -3.00    34400.00
03569              -4.40    34400.00
03570              -1.00    34400.00
03571              -4.60    34400.00
03572              -2.80    34400.00
03573              -3.00    34400.00
03574              -4.00    34400.00
03575              -1.20    34400.00
03576              -4.40    34400.00
03577              -3.60    34400.00
03578              -2.20    34400.00
03579              -3.40    34400.00
03580              -3.20    34400.00
03581              -3.60    34400.00
03582              -3.00    34400.00
03583              -3.40    34400.00
03584              -3.00    34400.00
03585              -2.60    33600.00
03586              -3.60    33600.00
03587              -2.60    33600.00
03588              -3.20    33600.00
03589              -3.00    32800.00
03590              -3.20    32800.00
03591              -4.00    32800.00
03592              -2.60    32800.00
03593              -2.80    32000.00
03594              -3.40    32000.00
03595              -2.80    32000.00
03596              -2.80    32000.00
03597              -2.80    31200.00
03598              -2.80    31200.00
03599              -3.00    30400.00
03600              -3.00    30400.00
03601              -3.00    30400.00
03602              -2.60    30400.00
03603              -2.80    29600.00
03604              -3.00    28800.00
03605              -2.80    28800.00
03606              -2.80    28800.00
03607              -2.20    28000.00
03608              -3.00    27200.00
03609              -3.00    27200.00
03610              -2.00    26400.00
03611              -2.80    26400.00
03612              -2.60    25600.00
03613              -2.60    25600.00
03614              -2.80    25600.00
03615              -2.60    25600.00
03616              -2.40    24000.00
03617              -2.20    24000.00
03618              -2.80    24000.00
03619              -2.80    23200.00
03620              -2.00    22400.00
03621              -2.80    21600.00
03622              -2.60    21600.00
03623              -3.00    20800.00
03624              -2.20    20800.00
03625              -1.80    20000.00
03626              -3.00    19200.00
03627              -1.80    18400.00
03628              -2.20    18400.00
03629              -2.20    17600.00
03630              -1.40    17600.00
03631              -2.60    16000.00
03632              -1.60    16000.00
03633              -2.20    15200.00
03634              -2.20    14400.00
03635              -1.20    14400.00
03636              -2.60    13600.00
03637              -2.20    12800.00
03638              -0.60    12000.00
03639              -2.20    12000.00
03640              -2.60    11200.00
03641              -0.80    11200.00
03642              -1.40    10400.00
03643              -2.00     9600.00
03644              -0.60     8800.00
03645              -1.40     8000.00
03646              -1.80     8000.00
03647              -0.60     7200.00
03648              -1.00     6400.00
03649              -1.20     5600.00
03650              -1.00     4800.00
03651              -1.80     3200.00
03652              -0.60     3200.00
03653              -0.80     3200.00
03654              -1.40     2400.00
03655              -0.60     1600.00
03656              -0.60      800.00
03657              -1.00      800.00
03658               0.20        0.00
03659               0.40     -800.00
03660               2.60    -1600.00
03661               1.40    -1600.00
03662              -2.00    -2400.00
03663               0.40    -2400.00
03664               1.40    -3200.00
03665              -1.00    -4000.00
03666               2.60    -4000.00
03667              15.60    -4800.00
03668              25.00    -7200.00
03669             -25.00    -8000.00
03670             -25.00    -8800.00
03671              25.00    -8000.00
03672               2.60    -8800.00
03673             -25.00    -9600.00
03674              25.00    -9600.00
03675              25.00   -10400.00
03676             -25.00   -10400.00
03677              25.00   -12000.00
03678              25.00   -12800.00
03679             -25.00   -12800.00
03680              25.00   -13600.00
03681             -14.20   -14400.00
03682              12.60   -14400.00
03683               2.80   -15200.00
03684             -25.00   -16000.00
03685              25.00   -16000.00
03686             -12.40   -16800.00
03687             -23.60   -17600.00
03688              25.00   -17600.00
03689               6.00   -19200.00
03690             -25.00   -19200.00
03691              21.00   -18400.00
03692              18.20   -20000.00
03693             -25.00   -20000.00
03694              25.00   -20800.00
03695               8.40   -22400.00
03696             -17.80   -22400.00
03697              13.40   -22400.00
03698              -1.20   -23200.00
03699              -6.00   -24000.00
03700               6.20   -24000.00
03701               3.00   -24000.00
03702              -2.60   -24800.00
03703              11.60   -25600.00
03704              -7.80   -25600.00
03705               3.00   -26400.00
03706               9.40   -26400.00
03707             -10.20   -27200.00
03708               7.60   -27200.00
03709               6.00   -27200.00
03710              -4.00   -27200.00
03711               2.20   -28800.00
03712               7.40   -28800.00
03713              -3.60   -28800.00
03714               2.00   -29600.00
03715               7.20   -29600.00
03716              -3.00   -30400.00
03717               2.60   -30400.00
03718               4.60   -30400.00
03719              -0.60   -30400.00
03720               3.20   -31200.00
03721               4.40   -32000.00
03722              -0.20   -32000.00
03723               3.60   -32000.00
03724               2.20   -32000.00
03725               0.40   -32000.00
03726               4.00   -32800.00
03727               2.00   -32800.00
03728               3.00   -32800.00
03729               3.40   -33600.00
03730               1.80   -32800.00
03731               1.80   -33600.00
03732               2.80   -33600.00
03733               2.60   -33600.00
03734               2.00   -33600.00
03735               3.80   -33600.00
03736               2.20   -33600.00
03737               2.80   -33600.00
03738               3.00   -33600.00
03739               1.60   -33600.00
03740               3.40   -33600.00
03741               2.20   -33600.00
03742               2.60   -33600.00
03743               3.40   -33600.00
03744               1.80   -33600.00
03745               2.80   -33600.00
03746               3.20   -34400.00
03747               2.00   -33600.00
03748               2.40   -33600.00
03749               2.80   -33600.00
03750               2.40   -33600.00
03751               1.60   -33600.00
03752               3.00   -32800.00
03753               2.80   -32800.00
03754               2.00   -32800.00
03755               3.20   -32800.00
03756               2.00   -32800.00
03757               2.60   -32000.00
03758               2.20   -32000.00
03759               1.40   -32000.00
03760               3.60   -32000.00
03761               1.80   -31200.00
03762               1.80   -32000.00
03763               3.80   -30400.00
03764               1.60   -30400.00
03765               1.40   -30400.00
03766               3.40   -30400.00
03767               2.00   -29600.00
03768               2.00   -29600.00
03769               3.40   -28800.00
03770               2.00   -28800.00
03771               1.40   -28800.00
03772               2.40   -28000.00
03773               1.80   -28800.00
03774               2.20   -27200.00
03775               2.40   -27200.00
03776               1.40   -26400.00
03777               2.20   -26400.00
03778               2.60   -26400.00
03779               1.40   -25600.00
03780               2.60   -25600.00
03781               2.60   -24000.00
03782               1.40   -24000.00
03783               2.00   -24000.00
03784               1.80   -23200.00
03785               1.80   -22400.00
03786               2.40   -22400.00
03787               2.40   -22400.00
03788               1.80   -21600.00
03789               1.40   -20800.00
03790               1.00   -20000.00
03791               1.00   -20000.00
03792               2.00   -19200.00
03793               2.00   -18400.00
03794               1.80   -17600.00
03795               1.80   -17600.00
03796               1.20   -17600.00
03797               1.00   -16000.00
03798               1.20   -16000.00
03799               1.40   -15200.00
03800               1.20   -14400.00
03801               1.40   -14400.00
03802               1.20   -14400.00
03803               0.60   -12800.00
03804               1.00   -12800.00
03805               1.40   -11200.00
03806               1.00   -11200.00
03807               0.60   -11200.00
03808               0.60   -10400.00
03809               0.40    -9600.00
03810               0.60    -8800.00
03811               1.00    -8000.00
03812               1.20    -8000.00
03813               1.00    -7200.00
03814               0.60    -6400.00
03815               0.60    -6400.00
03816               0.20    -5600.00
03817              -0.40    -4000.00
03818               0.20    -4000.00
03819               0.20    -3200.00
03820               0.20    -2400.00
03821               0.20    -1600.00
03822               0.40    -1600.00
03823               0.20     -800.00
03824              -0.20        0.00
03825               0.40      800.00
03826               0.40     1600.00
03827               2.80     1600.00
03828               1.00     2400.00
03829              -2.00     2400.00
03830               1.00     3200.00
03831               1.20     4000.00
03832              -1.20     4800.00
03833               8.00     5600.00
03834              25.00     6400.00
03835             -16.60     8000.00
03836             -25.00     8000.00
03837              19.60     8000.00
03838              14.60     8800.00
03839             -25.00     8800.00
03840              25.00     9600.00
03841              25.00    10400.00
03842             -25.00    11200.00
03843              25.00    12000.00
03844             -24.20    11200.00
03845             -25.00    12800.00
03846              25.00    13600.00
03847             -25.00    12800.00
03848              25.00    14400.00
03849             -10.80    15200.00
03850             -25.00    15200.00
03851              25.00    16000.00
03852             -25.00    16800.00
03853             -14.00    16800.00
03854              25.00    17600.00
03855             -10.20    18400.00
03856             -25.00    18400.00
03857              25.00    19200.00
03858               2.80    19200.00
03859             -25.00    20800.00
03860              25.00    21600.00
03861             -17.00    21600.00
03862              -7.00    22400.00
03863              14.20    22400.00
03864             -18.20    24000.00
03865               1.00    24000.00
03866               3.80    24000.00
03867              -7.80    24800.00
03868              -1.20    25600.00
03869              13.00    25600.00
03870             -21.60    25600.00
03871               7.00    26400.00
03872               2.20    27200.00
03873             -17.00    27200.00
03874               9.00    27200.00
03875              -1.40    28000.00
03876              -6.80    28800.00
03877              -0.20    28800.00
03878               2.00    28800.00
03879             -10.20    28800.00
03880               0.60    30400.00
03881               1.00    30400.00
03882             -10.00    30400.00
03883               1.20    31200.00
03884              -1.80    31200.00
03885              -6.80    31200.00
03886               1.60    31200.00
03887              -2.40    32800.00
03888              -5.80    32800.00
03889               0.40    32800.00
03890              -4.40    32800.00
03891              -4.20    32800.00
03892              -0.60    32800.00
03893              -4.20    33600.00
03894              -1.80    33600.00
03895              -2.00    33600.00
03896              -3.80    33600.00
03897              -4.40    33600.00
03898              -2.60    34400.00
03899              -3.20    33600.00
03900              -4.20    34400.00
03901              -0.80    34400.00
03902              -4.60    33600.00
03903              -2.60    34400.00
03904              -1.80    34400.00
03905              -4.80    34400.00
03906              -2.20    34400.00
03907              -3.80    34400.00
03908              -2.80    34400.00
03909              -2.00    34400.00
03910              -4.40    34400.00
03911              -2.80    34400.00
03912              -2.40    34400.00
03913              -3.40    34400.00
03914              -3.40    34400.00
03915              -3.20    33600.00
03916              -3.00    34400.00
03917              -4.20    33600.00
03918              -2.20    33600.00
03919              -2.60    33600.00
03920              -3.80    33600.00
03921              -2.60    33600.00
03922              -2.80    33600.00
03923              -3.40    32800.00
03924              -3.40    32800.00
03925              -3.00    32000.00
03926              -2.40    32800.00
03927              -3.60    32800.00
03928              -2.80    32000.00
03929              -2.80    32800.00
03930              -3.60    31200.00
03931              -2.40    31200.00
03932              -3.00    30400.00
03933              -3.20    30400.00
03934              -3.00    31200.00
03935              -2.80    30400.00
03936              -2.20    28800.00
03937              -2.80    28800.00
03938              -2.60    28800.00
03939              -2.60    28800.00
03940              -2.80    28000.00
03941              -2.60    28000.00
03942              -3.00    27200.00
03943              -3.00    27200.00
03944              -2.20    27200.00
03945              -3.00    26400.00
03946              -2.80    25600.00
03947              -3.00    25600.00
03948              -3.00    24800.00
03949              -2.60    24000.00
03950              -2.60    24000.00
03951              -2.20    24000.00
03952              -2.60    23200.00
03953              -2.20    22400.00
03954              -2.20    22400.00
03955              -2.80    21600.00
03956              -2.80    21600.00
03957              -2.60    20800.00
03958              -1.80    20000.00
03959              -2.20    19200.00
03960              -2.20    19200.00
03961              -2.20    18400.00
03962              -2.80    17600.00
03963              -2.20    17600.00
03964              -2.20    16800.00
03965              -2.00    16000.00
03966              -2.20    16000.00
03967              -2.00    15200.00
03968              -1.80    14400.00
03969              -2.00    14400.00
03970              -2.20    12800.00
03971              -1.40    12800.00
03972              -1.40    12800.00
03973              -1.80    11200.00
03974              -2.20    11200.00
03975              -1.40    11200.00
03976              -1.60     9600.00
03977              -1.80     8800.00
03978              -1.20     8800.00
03979              -1.40     8000.00
03980              -1.40     7200.00
03981              -1.20     6400.00
03982              -1.00     7200.00
03983              -0.60     5600.00
03984              -1.20     4800.00
03985              -0.60     4000.00
03986              -0.60     3200.00
03987              -1.00     3200.00
03988              -1.20     2400.00
03989              -0.60     1600.00
03990              -0.60      800.00
03991              -0.60        0.00
03992              -0.20        0.00
03993               0.40     -800.00
03994               3.80    -1600.00
03995              -1.00    -2400.00
03996              -1.00    -3200.00
03997               1.60    -3200.00
03998               1.00    -3200.00
03999              -0.60    -4000.00
04000               5.40    -4800.00
04001              22.60    -5600.00
04002              13.20    -7200.00
04003             -25.00    -8000.00
04004              -9.20    -8800.00
04005              25.00    -8800.00
04006             -23.60    -9600.00
04007             -25.00    -8000.00
04008              25.00    -9600.00
04009               2.20   -10400.00
04010             -25.00   -11200.00
04011              25.00   -12000.00
04012             -18.60   -11200.00
04013             -25.00   -13600.00
04014              25.00   -13600.00
04015             -23.60   -13600.00
04016              25.00   -14400.00
04017             -25.00   -14400.00
04018              -1.40   -16000.00
04019              25.00   -16000.00
04020             -25.00   -16800.00
04021              -2.80   -17600.00
04022              25.00   -17600.00
04023             -15.00   -18400.00
04024             -23.60   -19200.00
04025              25.00   -19200.00
04026             -11.80   -20000.00
04027             -20.20   -20800.00
04028              25.00   -20800.00
04029             -11.40   -21600.00
04030              -5.40   -22400.00
04031              12.80   -23200.00
04032              -6.20   -23200.00
04033              -1.80   -23200.00
04034               8.60   -24000.00
04035              -2.00   -24800.00
04036               3.80   -25600.00
04037               7.40   -25600.00
04038             -10.20   -26400.00
04039              11.40   -26400.00
04040               0.60   -26400.00
04041              -6.60   -27200.00
04042              11.40   -27200.00
04043               1.00   -28000.00
04044              -3.60   -28800.00
04045               6.40   -28800.00
04046               4.40   -28800.00
04047              -4.40   -29600.00
04048               6.60   -29600.00
04049               3.40   -29600.00
04050              -3.60   -30400.00
04051               5.80   -30400.00
04052               2.60   -30400.00
04053               0.20   -31200.00
04054               4.60   -31200.00
04055               2.20   -31200.00
04056               0.60   -32000.00
04057               3.80   -32000.00
04058               1.20   -32000.00
04059               2.00   -32000.00
04060               3.60   -32800.00
04061               1.80   -32800.00
04062               3.80   -33600.00
04063               2.80   -33600.00
04064               1.80   -33600.00
04065               2.00   -33600.00
04066               3.00   -33600.00
04067               2.00   -33600.00
04068               2.20   -33600.00
04069               3.80   -33600.00
04070               2.00   -33600.00
04071               3.00   -33600.00
04072               2.20   -33600.00
04073               2.00   -33600.00
04074               3.40   -33600.00
04075               2.00   -33600.00
04076               3.00   -33600.00
04077               2.80   -34400.00
04078               1.80   -33600.00
04079               3.00   -33600.00
04080               3.00   -33600.00
04081               2.20   -33600.00
04082               2.20   -33600.00
04083               2.60   -33600.00
04084               2.20   -33600.00
04085               2.20   -33600.00
04086               2.60   -32800.00
04087               2.20   -32800.00
04088               2.60   -32800.00
04089               2.80   -32800.00
04090               2.20   -32800.00
04091               2.60   -32000.00
04092               2.60   -32000.00
04093               2.20   -32000.00
04094               3.00   -32000.00
04095               2.00   -31200.00
04096               2.20   -32000.00
04097               2.20   -31200.00
04098               1.80   -30400.00
04099               2.20   -30400.00
04100               2.20   -29600.00
04101               1.80   -29600.00
04102               2.20   -29600.00
04103               2.60   -28800.00
04104               2.60   -28800.00
04105               2.20   -28000.00
04106               2.40   -28000.00
04107               2.00   -27200.00
04108               2.20   -27200.00
04109               1.80   -27200.00
04110               1.80   -26400.00
04111               2.60   -26400.00
04112               2.00   -25600.00
04113               1.40   -25600.00
04114               2.20   -24800.00
04115               2.00   -24000.00
04116               1.80   -24000.00
04117               2.00   -23200.00
04118               1.80   -23200.00
04119               1.80   -22400.00
04120               1.80   -22400.00
04121               2.00   -21600.00
04122               1.80   -20800.00
04123               1.60   -20800.00
04124               1.80   -20000.00
04125               1.40   -20000.00
04126               1.80   -18400.00
04127               1.40   -18400.00
04128               1.80   -17600.00
04129               1.60   -17600.00
04130               1.20   -16800.00
04131               1.60   -16000.00
04132               1.40   -16000.00
04133               1.00   -15200.00
04134               1.40   -14400.00
04135               1.40   -14400.00
04136               0.80   -13600.00
04137               1.00   -12800.00
04138               1.40   -12800.00
04139               1.00   -12000.00
04140               0.60   -11200.00
04141               1.20   -10400.00
04142               0.60    -9600.00
04143               0.20    -9600.00
04144               0.80    -8800.00
04145               0.40    -8000.00
04146               0.40    -7200.00
04147               0.40    -7200.00
04148               0.60    -6400.00
04149               0.40    -6400.00
04150               0.20    -4800.00
04151               0.20    -4000.00
04152               0.60    -4000.00
04153               0.20    -3200.00
04154               0.20    -2400.00
04155               0.40    -1600.00
04156              -0.40    -1600.00
04157              -0.40        0.00
04158               0.20        0.00
04159               0.40        0.00
04160               0.40     1600.00
04161               3.80     1600.00
04162              -1.20     2400.00
04163              -1.20     3200.00
04164               1.20     3200.00
04165               0.40     4000.00
04166               0.20     4800.00
04167              15.60     5600.00
04168              25.00     7200.00
04169             -25.00     8000.00
04170             -25.00     8000.00
04171              25.00     8000.00
04172             -12.20     8800.00
04173             -25.00     8800.00
04174              25.00    10400.00
04175             -25.00    10400.00
04176             -24.40    12000.00
04177              25.00    11200.00
04178             -25.00    12000.00
04179              25.00    12800.00
04180               7.80    12800.00
04181             -25.00    14400.00
04182              25.00    14400.00
04183             -25.00    15200.00
04184              14.80    16000.00
04185              25.00    16000.00
04186             -25.00    16800.00
04187              19.80    17600.00
04188              25.00    18400.00
04189             -25.00    18400.00
04190             -19.60    19200.00
04191              25.00    20800.00
04192             -25.00    20000.00
04193              -8.20    20800.00
04194              25.00    21600.00
04195             -25.00    22400.00
04196              12.20    23200.00
04197              -1.40    22400.00
04198             -14.00    24000.00
04199               5.40    24000.00
04200               2.20    24800.00
04201             -11.00    24800.00
04202               8.80    25600.00
04203               1.00    25600.00
04204             -19.60    26400.00
04205              16.20    27200.00
04206             -10.80    27200.00
04207              -8.20    27200.00
04208               8.60    28000.00
04209              -6.00    28000.00
04210              -6.40    28000.00
04211               2.80    28800.00
04212              -0.60    28800.00
04213             -10.00    29600.00
04214               5.00    30400.00
04215              -4.00    30400.00
04216              -7.80    30400.00
04217               2.40    31200.00
04218              -5.00    31200.00
04219              -3.80    32000.00
04220               1.60    32800.00
04221              -5.40    32000.00
04222              -3.00    32800.00
04223              -0.40    32000.00
04224              -6.60    32800.00
04225              -1.20    33600.00
04226              -2.40    32800.00
04227              -4.40    33600.00
04228              -0.60    33600.00
04229              -2.40    33600.00
04230              -4.40    34400.00
04231              -4.20    33600.00
04232              -1.40    33600.00
04233              -4.40    34400.00
04234              -2.80    34400.00
04235              -1.80    33600.00
04236              -4.60    33600.00
04237              -1.60    34400.00
04238              -3.80    34400.00
04239              -3.40    34400.00
04240              -2.20    34400.00
04241              -4.60    33600.00
04242              -1.20    34400.00
04243              -3.00    34400.00
04244              -4.40    34400.00
04245              -1.80    34400.00
04246              -3.00    34400.00
04247              -2.80    34400.00
04248              -3.60    33600.00
04249              -3.40    34400.00
04250              -2.80    33600.00
04251              -3.60    34400.00
04252              -2.20    33600.00
04253              -3.60    34400.00
04254              -3.00    33600.00
04255              -2.80    33600.00
04256              -3.00    33600.00
04257              -2.80    33600.00
04258              -3.60    32800.00
04259              -2.80    32800.00
04260              -2.20    32000.00
04261              -3.00    32800.00
04262              -2.60    32000.00
04263              -3.00    32000.00
04264              -3.00    31200.00
04265              -2.60    31200.00
04266              -3.40    30400.00
04267              -3.40    30400.00
04268              -2.80    30400.00
04269              -2.80    30400.00
04270              -3.00    29600.00
04271              -3.00    29600.00
04272              -2.60    28000.00
04273              -3.60    28000.00
04274              -2.80    28000.00
04275              -2.60    27200.00
04276              -3.40    27200.00
04277              -2.20    27200.00
04278              -2.20    27200.00
04279              -2.80    26400.00
04280              -3.00    25600.00
04281              -3.40    25600.00
04282              -2.80    24800.00
04283              -3.00    24800.00
04284              -2.60    24000.00
04285              -2.60    24000.00
04286              -3.40    23200.00
04287              -2.20    22400.00
04288              -2.20    21600.00
04289              -2.80    21600.00
04290              -2.40    21600.00
04291              -2.20    20800.00
04292              -2.20    20000.00
04293              -2.20    19200.00
04294              -2.20    19200.00
04295              -2.20    18400.00
04296              -2.40    17600.00
04297              -1.40    16800.00
04298              -2.00    16000.00
04299              -2.20    16000.00
04300              -2.20    15200.00
04301              -2.00    15200.00
04302              -2.00    14400.00
04303              -2.00    14400.00
04304              -1.80    12800.00
04305              -1.20    12800.00
04306              -1.40    12000.00
04307              -1.40    12000.00
04308              -1.80    11200.00
04309              -1.20    10400.00
04310              -1.80     9600.00
04311              -1.40     8800.00
04312              -1.20     8800.00
04313              -1.20     8000.00
04314              -1.60     7200.00
04315              -1.00     6400.00
04316              -1.20     5600.00
04317              -1.20     5600.00
04318              -1.20     4800.00
04319              -0.40     4800.00
04320              -0.60     3200.00
04321              -1.20     2400.00
04322              -0.80     2400.00
04323              -0.60     1600.00
04324              -0.80      800.00
04325              -0.40        0.00
04326               0.20     -800.00
04327               1.40    -1600.00
04328               2.80     -800.00
04329              -1.80    -1600.00
04330               0.20    -2400.00
04331               1.40    -2400.00
04332               0.40    -4000.00
04333               0.40    -4000.00
04334               9.80    -4800.00
04335              25.00    -6400.00
04336             -11.80    -8000.00
04337             -25.00    -8000.00
04338              13.80    -8000.00
04339              22.00    -8800.00
04340             -25.00    -9600.00
04341              -1.40    -9600.00
04342              25.00   -10400.00
04343             -25.00    -9600.00
04344              -8.20   -11200.00
04345              25.00   -12000.00
04346             -25.00   -12800.00
04347              13.40   -13600.00
04348              10.80   -13600.00
04349              -8.40   -14400.00
04350              22.80   -14400.00
04351             -25.00   -14400.00
04352              25.00   -16000.00
04353              17.00   -16800.00
04354             -25.00   -17600.00
04355              19.80   -17600.00
04356              23.40   -17600.00
04357             -25.00   -19200.00
04358              -1.80   -19200.00
04359              25.00   -19200.00
04360             -25.00   -20000.00
04361               6.60   -20800.00
04362              25.00   -21600.00
04363             -21.20   -21600.00
04364               6.80   -22400.00
04365               6.00   -23200.00
04366              -7.00   -24000.00
04367               3.60   -24000.00
04368               6.80   -24000.00
04369              -4.40   -24800.00
04370              10.80   -25600.00
04371              -1.20   -25600.00
04372              -6.00   -26400.00
04373              13.80   -26400.00
04374              -7.00   -26400.00
04375               0.40   -27200.00
04376              10.80   -27200.00
04377              -2.00   -28000.00
04378              -2.00   -28800.00
04379               8.40   -28800.00
04380               0.60   -28800.00
04381              -2.60   -29600.00
04382               8.40   -29600.00
04383              -0.40   -29600.00
04384              -0.60   -29600.00
04385               6.60   -30400.00
04386               1.00   -31200.00
04387               1.20   -30400.00
04388               5.80   -31200.00
04389               0.40   -32000.00
04390               1.80   -32000.00
04391               3.80   -32800.00
04392              -0.20   -32000.00
04393               3.00   -32800.00
04394               3.00   -32800.00
04395               2.20   -32800.00
04396               3.60   -33600.00
04397               2.60   -33600.00
04398               1.20   -32800.00
04399               2.20   -33600.00
04400               2.80   -33600.00
04401               1.20   -33600.00
04402               3.80   -33600.00
04403               3.00   -33600.00
04404               1.40   -33600.00
04405               3.80   -33600.00
04406               1.20   -33600.00
04407               1.80   -33600.00
04408               3.00   -33600.00
04409               2.00   -33600.00
04410               3.00   -34400.00
04411               2.60   -33600.00
04412               2.60   -33600.00
04413               2.80   -33600.00
04414               2.60   -33600.00
04415               2.60   -33600.00
04416               2.20   -33600.00
04417               2.20   -33600.00
04418               2.00   -33600.00
04419               2.60   -33600.00
04420               2.60   -32800.00
04421               2.00   -32800.00
04422               3.40   -32800.00
04423               2.60   -32800.00
04424               2.00   -32000.00
04425               2.60   -32800.00
04426               2.20   -32800.00
04427               2.60   -32000.00
04428               3.00   -32000.00
04429               2.60   -32000.00
04430               3.00   -30400.00
04431               2.40   -31200.00
04432               1.80   -30400.00
04433               2.20   -30400.00
04434               2.00   -29600.00
04435               2.00   -29600.00
04436               2.20   -28800.00
04437               2.00   -28800.00
04438               2.20   -28800.00
04439               2.20   -28000.00
04440               2.20   -28000.00
04441               2.00   -27200.00
04442               2.60   -27200.00
04443               1.80   -26400.00
04444               1.80   -26400.00
04445               2.60   -25600.00
04446               2.20   -25600.00
04447               2.20   -25600.00
04448               2.20   -24800.00
04449               2.00   -24000.00
04450               1.80   -24000.00
04451               1.80   -23200.00
04452               1.80   -23200.00
04453               1.60   -22400.00
04454               1.60   -22400.00
04455               2.00   -22400.00
04456               1.40   -20800.00
04457               1.40   -20000.00
04458               1.80   -20000.00
04459               1.80   -20000.00
04460               1.60   -18400.00
04461               1.40   -18400.00
04462               1.40   -17600.00
04463               1.40   -16800.00
04464               1.20   -16000.00
04465               1.20   -16000.00
04466               1.20   -16000.00
04467               1.00   -15200.00
04468               0.60   -14400.00
04469               1.00   -13600.00
04470               1.00   -12800.00
04471               0.40   -12800.00
04472               1.00   -12800.00
04473               1.00   -11200.00
04474               0.60   -11200.00
04475               0.40   -10400.00
04476               0.60    -9600.00
04477               0.60    -9600.00
04478               0.80    -8800.00
04479               0.60    -8000.00
04480               0.40    -7200.00
04481               0.40    -6400.00
04482               0.40    -6400.00
04483               0.20    -4800.00
04484               0.40    -4800.00
04485               0.20    -4000.00
04486              -0.20    -3200.00
04487               0.40    -3200.00
04488               0.20    -1600.00
04489              -0.60    -1600.00
04490              -0.20     -800.00
04491               0.80     -800.00
04492               0.00        0.00
04493              -0.40     1600.00
04494               2.60      800.00
04495               3.20     1600.00
04496              -3.40     2400.00
04497               0.60     2400.00
04498               1.80     3200.00
04499              -1.80     4800.00
04500               3.60     4800.00
04501              25.00     6400.00
04502              12.00     7200.00
04503             -25.00     8000.00
04504              -2.00     8000.00
04505              25.00     8800.00
04506             -25.00     8800.00
04507               6.20     9600.00
04508              25.00    10400.00
04509             -25.00    11200.00
04510              25.00    11200.00
04511              25.00    12000.00
04512             -25.00    12800.00
04513              25.00    12800.00
04514             -25.00    13600.00
04515              18.80    14400.00
04516              25.00    15200.00
04517             -25.00    15200.00
04518              25.00    16000.00
04519               0.60    16800.00
04520             -25.00    16800.00
04521              25.00    17600.00
04522              10.00    18400.00
04523             -25.00    19200.00
04524               9.00    19200.00
04525              25.00    20800.00
04526             -25.00    20800.00
04527              25.00    21600.00
04528              11.00    21600.00
04529             -25.00    22400.00
04530              21.20    22400.00
04531             -15.60    22400.00
04532              -7.00    24000.00
04533               5.20    24800.00
04534              -2.20    24000.00
04535              -9.20    24800.00
04536              16.20    25600.00
04537             -13.20    25600.00
04538              -8.40    25600.00
04539              13.40    27200.00
04540             -18.60    27200.00
04541               2.00    27200.00
04542               4.60    28000.00
04543              -7.00    28000.00
04544              -3.80    28800.00
04545               2.80    28800.00
04546              -7.00    28800.00
04547              -4.40    30400.00
04548               4.40    30400.00
04549              -8.40    30400.00
04550              -1.80    31200.00
04551               0.40    31200.00
04552              -7.60    30400.00
04553               0.60    31200.00
04554              -0.60    32800.00
04555              -7.00    32000.00
04556               1.20    32800.00
04557              -3.60    32800.00
04558              -6.60    33600.00
04559               1.00    32800.00
04560              -4.20    33600.00
04561              -2.80    33600.00
04562              -1.00    33600.00
04563              -3.40    33600.00
04564              -4.60    33600.00
04565              -3.40    33600.00
04566              -1.60    34400.00
04567              -4.40    33600.00
04568              -1.20    34400.00
04569              -3.00    34400.00
04570              -4.20    34400.00
04571              -1.40    34400.00
04572              -4.40    34400.00
04573              -2.20    34400.00
04574              -3.00    34400.00
04575              -3.40    34400.00
04576              -1.60    34400.00
04577              -4.60    34400.00
04578              -3.00    34400.00
04579              -2.80    33600.00
04580              -3.40    34400.00
04581              -2.20    34400.00
04582              -3.80    33600.00
04583              -3.00    33600.00
04584              -2.80    33600.00
04585              -2.80    34400.00
04586              -2.60    34400.00
04587              -3.80    34400.00
04588              -3.00    33600.00
04589              -3.00    33600.00
04590              -3.00    33600.00
04591              -2.80    33600.00
04592              -3.60    32800.00
04593              -2.40    32800.00
04594              -2.80    32000.00
04595              -3.80    32000.00
04596              -3.00    32000.00
04597              -3.00    31200.00
04598              -2.80    31200.00
04599              -3.00    31200.00
04600              -3.40    31200.00
04601              -2.80    31200.00
04602              -3.40    30400.00
04603              -2.80    30400.00
04604              -3.00    29600.00
04605              -3.60    28800.00
04606              -3.20    28800.00
04607              -2.80    28000.00
04608              -2.60    28000.00
04609              -3.00    27200.00
04610              -3.00    27200.00
04611              -2.00    27200.00
04612              -2.80    25600.00
04613              -2.80    25600.00
04614              -3.00    25600.00
04615              -3.00    25600.00
04616              -2.60    24800.00
04617              -2.80    24000.00
04618              -2.20    24000.00
04619              -2.40    23200.00
04620              -2.80    22400.00
04621              -2.20    22400.00
04622              -3.00    21600.00
04623              -2.80    20800.00
04624              -2.80    20800.00
04625              -2.20    20800.00
04626              -2.00    20000.00
04627              -2.00    19200.00
04628              -2.00    18400.00
04629              -2.00    17600.00
04630              -2.00    17600.00
04631              -2.00    16800.00
04632              -2.40    16000.00
04633              -2.20    16000.00
04634              -1.80    15200.00
04635              -2.00    14400.00
04636              -1.80    14400.00
04637              -1.80    14400.00
04638              -1.80    12800.00
04639              -1.20    12000.00
04640              -2.00    12000.00
04641              -2.00    11200.00
04642              -1.40    10400.00
04643              -1.20     9600.00
04644              -1.60     8800.00
04645              -1.20     8800.00
04646              -1.20     8000.00
04647              -1.40     8000.00
04648              -1.20     6400.00
04649              -1.00     6400.00
04650              -1.40     5600.00
04651              -1.40     5600.00
04652              -1.20     4800.00
04653              -0.60     4000.00
04654              -1.00     3200.00
04655              -1.00     2400.00
04656              -0.60     1600.00
04657              -0.60     1600.00
04658              -1.00        0.00
04659              -0.40        0.00
04660               0.20        0.00
04661               2.80    -1600.00
04662               0.80    -1600.00
04663              -2.00    -2400.00
04664               0.80    -2400.00
04665               1.20    -4000.00
04666              -0.80    -4000.00
04667               2.60    -4000.00
04668              15.40    -4800.00
04669              25.00    -7200.00
04670             -25.00    -8000.00
04671             -25.00    -8000.00
04672              25.00    -8000.00
04673               0.20    -8800.00
04674             -25.00    -8800.00
04675              25.00    -9600.00
04676              25.00   -11200.00
04677             -25.00   -10400.00
04678              25.00   -12000.00
04679              25.00   -12000.00
04680             -25.00   -12800.00
04681              25.00   -13600.00
04682             -15.20   -13600.00
04683              12.20   -14400.00
04684               2.20   -14400.00
04685             -25.00   -16000.00
04686              25.00   -16800.00
04687             -13.00   -16800.00
04688             -21.40   -17600.00
04689              25.00   -17600.00
04690               6.60   -18400.00
04691             -25.00   -19200.00
04692              19.60   -19200.00
04693              18.00   -20000.00
04694             -25.00   -20800.00
04695              25.00   -21600.00
04696               7.40   -21600.00
04697             -16.40   -22400.00
04698              12.60   -23200.00
04699              -0.60   -23200.00
04700              -5.40   -24000.00
04701               6.00   -24000.00
04702               3.40   -24000.00
04703              -2.20   -25600.00
04704              12.60   -25600.00
04705              -7.80   -25600.00
04706               2.60   -26400.00
04707               9.00   -26400.00
04708              -9.40   -26400.00
04709               6.80   -27200.00
04710               7.00   -27200.00
04711              -2.60   -28800.00
04712               1.00   -28800.00
04713               8.40   -28800.00
04714              -2.80   -29600.00
04715               0.60   -29600.00
04716               7.20   -29600.00
04717              -1.40   -30400.00
04718               2.60   -30400.00
04719               5.00   -30400.00
04720               1.00   -30400.00
04721               2.00   -31200.00
04722               3.80   -32000.00
04723               1.20   -32000.00
04724               3.00   -32000.00
04725               1.40   -32000.00
04726               1.80   -32800.00
04727               3.00   -32000.00
04728               1.20   -32800.00
04729               4.20   -32800.00
04730               2.80   -33600.00
04731               1.00   -33600.00
04732               2.20   -33600.00
04733               2.80   -33600.00
04734               1.40   -33600.00
04735               2.20   -33600.00
04736               4.60   -33600.00
04737               1.40   -33600.00
04738               2.60   -33600.00
04739               3.00   -33600.00
04740               1.00   -33600.00
04741               3.00   -33600.00
04742               2.60   -33600.00
04743               2.20   -33600.00
04744               3.60   -33600.00
04745               1.80   -33600.00
04746               2.60   -33600.00
04747               3.00   -33600.00
04748               2.00   -33600.00
04749               2.60   -33600.00
04750               2.60   -32800.00
04751               2.60   -33600.00
04752               2.20   -33600.00
04753               2.80   -33600.00
04754               2.60   -32800.00
04755               2.60   -32800.00
04756               3.60   -32800.00
04757               2.20   -32800.00
04758               2.20   -32000.00
04759               2.60   -32800.00
04760               2.00   -32000.00
04761               2.40   -32000.00
04762               2.60   -32000.00
04763               2.40   -31200.00
04764               2.60   -30400.00
04765               2.20   -30400.00
04766               2.80   -30400.00
04767               2.60   -29600.00
04768               1.80   -29600.00
04769               2.60   -29600.00
04770               3.00   -28800.00
04771               2.00   -28800.00
04772               2.20   -28000.00
04773               2.20   -28000.00
04774               2.00   -27200.00
04775               2.60   -28000.00
04776               2.20   -27200.00
04777               2.00   -26400.00
04778               2.20   -26400.00
04779               2.20   -25600.00
04780               1.80   -25600.00
04781               2.60   -25600.00
04782               2.00   -24800.00
04783               2.00   -24000.00
04784               2.00   -24000.00
04785               1.80   -23200.00
04786               2.00   -23200.00
04787               1.80   -22400.00
04788               2.00   -22400.00
04789               1.40   -20800.00
04790               1.40   -20800.00
04791               1.40   -20000.00
04792               1.40   -20000.00
04793               1.80   -19200.00
04794               1.20   -18400.00
04795               1.00   -17600.00
04796               1.40   -17600.00
04797               1.20   -17600.00
04798               1.20   -16000.00
04799               1.40   -16000.00
04800               1.00   -15200.00
04801               1.00   -14400.00
04802               1.00   -14400.00
04803               1.00   -13600.00
04804               1.00   -13600.00
04805               0.60   -12800.00
04806               1.00   -12000.00
04807               0.60   -11200.00
04808               0.40   -11200.00
04809               1.00   -10400.00
04810               0.60    -9600.00
04811               0.40    -8800.00
04812               0.60    -8000.00
04813               0.40    -8000.00
04814               0.60    -7200.00
04815               0.40    -7200.00
04816               0.40    -4800.00
04817               0.40    -4800.00
04818              -0.20    -4800.00
04819               0.40    -4000.00
04820               0.40    -3200.00
04821              -0.20    -3200.00
04822               0.20    -2400.00
04823               0.40    -1600.00
04824              -0.20     -800.00
04825               0.20     -800.00
04826               0.20        0.00
04827               0.60      800.00
04828               3.40     1600.00
04829               1.00     2400.00
04830              -2.00     3200.00
04831               1.00     3200.00
04832               1.20     4000.00
04833              -1.20     4000.00
04834               9.00     5600.00
04835              25.00     7200.00
04836             -18.80     8000.00
04837             -25.00     8800.00
04838              20.60     8000.00
04839              13.40     8800.00
04840             -25.00     8800.00
04841              25.00    10400.00
04842              25.00     9600.00
04843             -25.00    11200.00
04844              25.00    12000.00
04845             -25.00    12000.00
04846             -22.20    12800.00
04847              25.00    13600.00
04848             -25.00    14400.00
04849              25.00    14400.00
04850             -17.40    14400.00
04851             -25.00    15200.00
04852              25.00    16000.00
04853             -25.00    16000.00
04854             -10.80    17600.00
04855              25.00    17600.00
04856             -12.40    18400.00
04857             -25.00    19200.00
04858              25.00    19200.00
04859              -0.40    20000.00
04860             -25.00    20800.00
04861              25.00    21600.00
04862             -19.40    21600.00
04863              -5.20    22400.00
04864              13.20    22400.00
04865             -18.40    24000.00
04866               1.80    24000.00
04867               3.40    24000.00
04868              -9.00    24800.00
04869              -0.60    25600.00
04870              12.20    25600.00
04871             -22.00    25600.00
04872               8.40    26400.00
04873               0.60    27200.00
04874             -16.20    27200.00
04875               8.60    27200.00
04876              -2.20    28000.00
04877              -6.80    28800.00
04878               0.00    28800.00
04879               2.60    28800.00
04880             -10.60    28800.00
04881               0.40    30400.00
04882               1.40    30400.00
04883              -9.80    30400.00
04884               1.00    30400.00
04885              -1.40    31200.00
04886              -6.20    31200.00
04887               1.20    32000.00
04888              -2.60    32800.00
04889              -5.00    32000.00
04890               0.40    32800.00
04891              -5.00    32800.00
04892              -3.40    32800.00
04893              -1.20    33600.00
04894              -4.40    33600.00
04895              -1.00    33600.00
04896              -2.00    33600.00
04897              -3.80    33600.00
04898              -4.20    33600.00
04899              -2.20    33600.00
04900              -3.00    34400.00
04901              -3.80    34400.00
04902              -1.00    34400.00
04903              -4.60    34400.00
04904              -2.20    34400.00
04905              -2.20    34400.00
04906              -4.60    34400.00
04907              -2.00    34400.00
04908              -3.80    34400.00
04909              -2.40    34400.00
04910              -1.80    34400.00
04911              -4.40    34400.00
04912              -2.80    34400.00
04913              -2.60    34400.00
04914              -2.80    33600.00
04915              -3.80    34400.00
04916              -3.40    33600.00
04917              -2.40    34400.00
04918              -3.80    33600.00
04919              -2.80    33600.00
04920              -2.80    33600.00
04921              -3.40    33600.00
04922              -2.80    33600.00
04923              -3.20    32800.00
04924              -2.80    32800.00
04925              -3.80    32800.00
04926              -3.80    32800.00
04927              -2.00    32000.00
04928              -3.60    32000.00
04929              -3.40    32800.00
04930              -2.60    32000.00
04931              -3.80    31200.00
04932              -3.00    31200.00
04933              -2.80    31200.00
04934              -3.60    30400.00
04935              -3.60    30400.00
04936              -2.60    30400.00
04937              -2.20    30400.00
04938              -3.40    28800.00
04939              -2.80    28800.00
04940              -2.80    28800.00
04941              -3.20    28000.00
04942              -3.00    28000.00
04943              -3.20    27200.00
04944              -2.80    27200.00
04945              -2.80    27200.00
04946              -2.20    26400.00
04947              -2.20    26400.00
04948              -3.40    25600.00
04949              -2.60    25600.00
04950              -2.20    24800.00
04951              -3.00    24000.00
04952              -2.80    24000.00
04953              -2.80    23200.00
04954              -2.20    22400.00
04955              -2.00    22400.00
04956              -2.80    21600.00
04957              -2.40    21600.00
04958              -2.60    20800.00
04959              -2.40    20800.00
04960              -2.20    20000.00
04961              -2.20    19200.00
04962              -2.40    18400.00
04963              -2.20    18400.00
04964              -1.60    17600.00
04965              -2.20    16800.00
04966              -1.80    16000.00
04967              -1.80    15200.00
04968              -2.00    14400.00
04969              -1.60    14400.00
04970              -2.00    14400.00
04971              -2.20    13600.00
04972              -1.40    12800.00
04973              -1.40    12000.00
04974              -1.80    12000.00
04975              -1.80    11200.00
04976              -1.40    10400.00
04977              -1.20     9600.00
04978              -1.80     9600.00
04979              -1.20     8000.00
04980              -1.60     8000.00
04981              -1.20     7200.00
04982              -0.60     7200.00
04983              -1.00     5600.00
04984              -1.20     5600.00
04985              -1.00     4800.00
04986              -1.20     4000.00
04987              -0.60     4800.00
04988              -0.60     2400.00
04989              -1.80     2400.00
04990              -1.20     1600.00
04991              -0.40     1600.00
04992              -1.20        0.00
04993               0.20     -800.00
04994               0.60     -800.00
04995               3.40    -1600.00
04996              -1.20    -1600.00
04997              -0.80    -1600.00
04998               1.00    -3200.00
04999               0.60    -3200.00
05000              -0.60    -4000.00
