Unit:(mV)
                     CH1         CH2
Frequency              ? 299.751 kHz
00001               5.80    -8000.00
00002              23.80    -8800.00
00003             -25.00    -8000.00
00004              -4.40    -8800.00
00005              25.00   -10400.00
00006             -25.00   -10400.00
00007              -9.00   -11200.00
00008              25.00   -11200.00
00009             -25.00   -11200.00
00010              14.80   -12800.00
00011              25.00   -13600.00
00012             -25.00   -13600.00
00013              25.00   -14400.00
00014             -24.60   -14400.00
00015               3.40   -15200.00
00016              25.00   -16000.00
00017             -25.00   -16000.00
00018               3.40   -16800.00
00019              24.40   -17600.00
00020             -20.40   -18400.00
00021             -13.40   -18400.00
00022              25.00   -19200.00
00023             -24.40   -19200.00
00024              -6.00   -20000.00
00025              25.00   -20000.00
00026             -20.60   -20800.00
00027              -0.80   -21600.00
00028              15.40   -22400.00
00029             -12.40   -22400.00
00030              -2.60   -22400.00
00031              16.20   -23200.00
00032              -8.40   -24000.00
00033               2.40   -23200.00
00034              12.20   -24800.00
00035             -11.00   -24800.00
00036               6.00   -25600.00
00037               3.40   -25600.00
00038              -4.40   -26400.00
00039               4.20   -26400.00
00040               4.80   -27200.00
00041              -2.80   -27200.00
00042               2.60   -27200.00
00043               7.00   -28000.00
00044              -5.00   -28000.00
00045               4.60   -28800.00
00046               4.80   -28800.00
00047              -5.00   -28800.00
00048               4.40   -28800.00
00049               3.60   -29600.00
00050              -1.20   -29600.00
00051               5.00   -29600.00
00052               3.00   -30400.00
00053              -1.00   -30400.00
00054               3.60   -30400.00
00055               1.20   -31200.00
00056              -0.20   -30400.00
00057               3.20   -31200.00
00058               2.60   -31200.00
00059               1.00   -32000.00
00060               2.80   -32000.00
00061               2.20   -32000.00
00062              -0.20   -31200.00
00063               3.00   -32000.00
00064               1.80   -32000.00
00065               1.00   -32000.00
00066               3.40   -32800.00
00067               1.80   -32000.00
00068               2.00   -32000.00
00069               1.80   -32800.00
00070               1.80   -32800.00
00071               1.80   -32000.00
00072               2.00   -32800.00
00073               2.60   -32800.00
00074               0.80   -32000.00
00075               1.80   -32800.00
00076               2.60   -32000.00
00077               2.00   -32800.00
00078               2.60   -32000.00
00079               2.00   -32000.00
00080               1.40   -32000.00
00081               1.80   -32000.00
00082               1.80   -32000.00
00083               1.80   -32000.00
00084               1.40   -31200.00
00085               2.60   -31200.00
00086               2.00   -31200.00
00087               1.80   -30400.00
00088               1.80   -30400.00
00089               1.80   -30400.00
00090               2.00   -30400.00
00091               2.20   -29600.00
00092               1.80   -29600.00
00093               2.60   -29600.00
00094               1.80   -28800.00
00095               1.80   -28800.00
00096               2.20   -28800.00
00097               1.80   -28800.00
00098               1.60   -28000.00
00099               1.80   -27200.00
00100               1.20   -28000.00
00101               1.40   -27200.00
00102               1.80   -27200.00
00103               2.20   -26400.00
00104               2.00   -26400.00
00105               2.00   -25600.00
00106               1.60   -25600.00
00107               1.20   -25600.00
00108               2.00   -24000.00
00109               1.40   -24800.00
00110               1.40   -24000.00
00111               2.00   -23200.00
00112               1.20   -23200.00
00113               1.40   -22400.00
00114               1.80   -22400.00
00115               1.40   -22400.00
00116               1.40   -21600.00
00117               1.20   -20800.00
00118               1.20   -20800.00
00119               1.40   -20000.00
00120               1.00   -20000.00
00121               1.00   -18400.00
00122               1.80   -18400.00
00123               1.80   -17600.00
00124               0.60   -17600.00
00125               1.00   -17600.00
00126               0.80   -16000.00
00127               0.40   -16000.00
00128               0.60   -16000.00
00129               1.00   -15200.00
00130               1.00   -14400.00
00131               1.00   -14400.00
00132               0.60   -12800.00
00133               1.00   -12800.00
00134               0.40   -12000.00
00135               0.40   -12000.00
00136               1.00   -11200.00
00137               0.20   -10400.00
00138               0.20    -9600.00
00139               0.40    -8800.00
00140               0.40    -9600.00
00141               0.40    -8000.00
00142               0.20    -8000.00
00143               0.60    -7200.00
00144              -0.20    -6400.00
00145               0.20    -6400.00
00146               0.40    -4800.00
00147              -0.20    -4800.00
00148               0.20    -4000.00
00149               0.40    -3200.00
00150               0.20    -3200.00
00151               0.20    -2400.00
00152               0.20    -1600.00
00153              -0.40     -800.00
00154               0.20     -800.00
00155              -0.20        0.00
00156               0.40      800.00
00157               2.20     1600.00
00158               2.80     1600.00
00159              -2.60     2400.00
00160               0.40     2400.00
00161               1.60     3200.00
00162              -1.20     4800.00
00163               2.40     4800.00
00164              23.00     5600.00
00165              18.00     7200.00
00166             -25.00     8000.00
00167              -8.80     8000.00
00168              25.00     8000.00
00169             -25.00     8000.00
00170              10.00     8800.00
00171              25.00     9600.00
00172             -25.00     9600.00
00173              25.00    11200.00
00174              25.00    11200.00
00175             -25.00    12000.00
00176              25.00    12800.00
00177             -25.00    12800.00
00178             -13.80    13600.00
00179              25.00    14400.00
00180             -25.00    15200.00
00181              25.00    15200.00
00182              15.40    16000.00
00183             -25.00    16000.00
00184              25.00    16000.00
00185              13.80    17600.00
00186             -25.00    17600.00
00187              -1.40    17600.00
00188              25.00    18400.00
00189             -25.00    19200.00
00190              11.40    19200.00
00191              25.00    20800.00
00192             -25.00    20800.00
00193              17.00    21600.00
00194              -2.60    21600.00
00195             -15.60    21600.00
00196               3.80    23200.00
00197               7.00    23200.00
00198             -14.20    24000.00
00199               8.60    24000.00
00200               3.40    24800.00
00201             -17.00    24800.00
00202               9.40    25600.00
00203              -6.80    25600.00
00204              -3.00    25600.00
00205               1.20    26400.00
00206              -1.20    27200.00
00207              -5.80    27200.00
00208               0.00    27200.00
00209               0.80    28000.00
00210              -9.40    28000.00
00211               5.00    28000.00
00212              -4.20    28800.00
00213              -6.60    28800.00
00214               3.60    28800.00
00215              -4.80    28800.00
00216              -3.40    29600.00
00217               2.80    29600.00
00218              -5.00    30400.00
00219              -4.80    30400.00
00220               1.00    30400.00
00221              -3.80    31200.00
00222              -3.60    31200.00
00223              -0.60    31200.00
00224              -1.40    31200.00
00225              -3.60    31200.00
00226              -1.00    32000.00
00227              -3.00    32000.00
00228              -4.60    32800.00
00229               0.60    32000.00
00230              -3.40    32800.00
00231              -2.60    32800.00
00232              -1.80    32800.00
00233              -3.60    32000.00
00234              -1.20    32800.00
00235              -3.40    32000.00
00236              -3.00    32800.00
00237              -2.60    32000.00
00238              -2.40    32800.00
00239              -1.20    32800.00
00240              -3.40    32000.00
00241              -1.80    33600.00
00242              -2.20    32800.00
00243              -3.20    32000.00
00244              -2.20    32800.00
00245              -3.40    32000.00
00246              -2.80    32800.00
00247              -2.20    32000.00
00248              -2.60    32800.00
00249              -2.60    32000.00
00250              -3.40    32800.00
00251              -2.00    31200.00
00252              -2.80    31200.00
00253              -2.80    31200.00
00254              -2.20    31200.00
00255              -3.80    31200.00
00256              -2.20    30400.00
00257              -2.20    30400.00
00258              -2.60    30400.00
00259              -2.60    30400.00
00260              -2.60    29600.00
00261              -2.80    28800.00
00262              -2.60    29600.00
00263              -3.00    28800.00
00264              -3.00    28800.00
00265              -2.20    28000.00
00266              -2.20    28000.00
00267              -2.40    28000.00
00268              -2.00    27200.00
00269              -2.60    27200.00
00270              -3.20    27200.00
00271              -1.80    26400.00
00272              -3.00    25600.00
00273              -3.00    25600.00
00274              -1.20    25600.00
00275              -2.80    24800.00
00276              -2.40    24800.00
00277              -1.40    24000.00
00278              -3.00    24000.00
00279              -2.00    23200.00
00280              -1.80    22400.00
00281              -2.20    22400.00
00282              -2.60    22400.00
00283              -2.00    21600.00
00284              -2.00    21600.00
00285              -2.60    20800.00
00286              -2.00    20800.00
00287              -2.40    19200.00
00288              -2.60    18400.00
00289              -1.20    18400.00
00290              -2.20    18400.00
00291              -2.00    17600.00
00292              -1.40    17600.00
00293              -1.40    16000.00
00294              -1.20    16000.00
00295              -1.80    15200.00
00296              -1.40    15200.00
00297              -1.40    15200.00
00298              -2.00    13600.00
00299              -1.80    13600.00
00300              -2.20    12800.00
00301              -1.80    12000.00
00302              -1.00    12000.00
00303              -1.20    11200.00
00304              -1.40    10400.00
00305              -1.40    10400.00
00306              -0.60     9600.00
00307              -1.20     8800.00
00308              -1.20     8000.00
00309              -1.00     8000.00
00310              -1.20     8000.00
00311              -1.20     6400.00
00312              -0.60     5600.00
00313              -1.20     5600.00
00314              -1.40     4800.00
00315              -1.20     4000.00
00316              -1.00     3200.00
00317              -1.00     2400.00
00318              -1.20     1600.00
00319              -0.80     1600.00
00320              -0.60      800.00
00321              -1.00        0.00
00322              -0.60        0.00
00323               0.20     -800.00
00324               3.60     -800.00
00325               0.20    -1600.00
00326              -2.80    -2400.00
00327               1.80    -2400.00
00328               1.00    -3200.00
00329              -2.00    -4000.00
00330               2.60    -4000.00
00331              14.00    -4800.00
00332              24.20    -6400.00
00333             -25.00    -7200.00
00334             -25.00    -8000.00
00335              24.40    -8000.00
00336               2.60    -8800.00
00337             -25.00    -8800.00
00338              25.00    -9600.00
00339              25.00   -10400.00
00340             -25.00   -10400.00
00341              25.00   -11200.00
00342              25.00   -12000.00
00343             -25.00   -12000.00
00344              25.00   -13600.00
00345             -18.60   -13600.00
00346              -3.20   -14400.00
00347              23.40   -14400.00
00348             -25.00   -14400.00
00349              25.00   -16000.00
00350               3.60   -16000.00
00351             -24.20   -16800.00
00352              21.60   -16800.00
00353              12.60   -17600.00
00354             -25.00   -18400.00
00355              12.00   -18400.00
00356              22.60   -19200.00
00357             -25.00   -18400.00
00358              22.00   -20000.00
00359              15.40   -20800.00
00360             -22.80   -20800.00
00361              14.00   -22400.00
00362               3.60   -22400.00
00363             -12.80   -23200.00
00364               8.60   -23200.00
00365               8.20   -23200.00
00366             -11.40   -24000.00
00367              13.00   -24000.00
00368               0.20   -24000.00
00369              -8.20   -25600.00
00370              11.80   -25600.00
00371              -2.80   -25600.00
00372              -1.40   -25600.00
00373               7.40   -26400.00
00374               1.80   -27200.00
00375              -4.40   -26400.00
00376               7.60   -27200.00
00377               2.00   -28000.00
00378              -4.20   -28000.00
00379               8.40   -28000.00
00380              -1.00   -28800.00
00381              -2.20   -28800.00
00382               6.00   -28800.00
00383               0.20   -29600.00
00384               0.20   -29600.00
00385               5.80   -29600.00
00386               0.20   -30400.00
00387               0.40   -29600.00
00388               4.20   -30400.00
00389              -0.20   -30400.00
00390               1.20   -31200.00
00391               3.60   -32000.00
00392               1.40   -31200.00
00393               0.40   -32000.00
00394               3.60   -32000.00
00395               0.40   -32000.00
00396               1.00   -32000.00
00397               3.80   -32000.00
00398               0.40   -32000.00
00399               2.20   -32000.00
00400               3.40   -32000.00
00401               1.20   -32000.00
00402               2.20   -32000.00
00403               2.00   -32800.00
00404               2.00   -32000.00
00405               1.40   -32000.00
00406               2.60   -32800.00
00407               2.00   -32000.00
00408               1.20   -32000.00
00409               2.60   -32000.00
00410               1.80   -32000.00
00411               1.80   -32000.00
00412               2.80   -32000.00
00413               1.80   -32000.00
00414               1.60   -32000.00
00415               2.60   -32000.00
00416               2.20   -32000.00
00417               1.80   -32000.00
00418               1.00   -31200.00
00419               2.80   -32000.00
00420               2.60   -30400.00
00421               0.40   -31200.00
00422               2.00   -30400.00
00423               3.40   -30400.00
00424               2.00   -30400.00
00425               0.60   -29600.00
00426               2.20   -29600.00
00427               3.80   -29600.00
00428              -0.40   -28800.00
00429               1.80   -28800.00
00430               4.80   -28800.00
00431               1.00   -28800.00
00432               1.20   -28800.00
00433               4.20   -28000.00
00434               0.20   -27200.00
00435              -0.40   -27200.00
00436               3.40   -26400.00
00437               2.00   -26400.00
00438               0.80   -26400.00
00439               3.40   -25600.00
00440               1.00   -25600.00
00441               1.00   -25600.00
00442               2.60   -24000.00
00443               1.20   -24000.00
00444               2.00   -24000.00
00445               2.00   -23200.00
00446               0.60   -22400.00
00447               1.20   -22400.00
00448               1.20   -22400.00
00449               1.40   -21600.00
00450               1.40   -20800.00
00451               1.80   -20000.00
00452               1.00   -20000.00
00453               0.60   -19200.00
00454               1.40   -18400.00
00455               0.40   -19200.00
00456               1.40   -17600.00
00457               2.00   -17600.00
00458               0.20   -16800.00
00459               1.00   -16800.00
00460               1.40   -16000.00
00461               0.20   -16000.00
00462               0.20   -15200.00
00463               2.00   -14400.00
00464               1.00   -14400.00
00465               0.00   -13600.00
00466               1.80   -12800.00
00467               0.60   -12800.00
00468              -0.40   -12800.00
00469               1.20   -11200.00
00470               0.60   -11200.00
00471              -0.20   -10400.00
00472               1.00    -9600.00
00473               0.40    -9600.00
00474               0.20    -8800.00
00475               0.60    -8000.00
00476               0.20    -7200.00
00477               0.40    -7200.00
00478               0.40    -6400.00
00479               0.00    -4800.00
00480               0.40    -5600.00
00481               0.40    -4000.00
00482              -0.20    -4000.00
00483               0.40    -3200.00
00484               0.40    -2400.00
00485              -0.20    -1600.00
00486              -0.40    -1600.00
00487              -0.40     -800.00
00488              -0.20     -800.00
00489               0.20      800.00
00490               0.60      800.00
00491               3.60     1600.00
00492               0.60     2400.00
00493              -1.80     2400.00
00494               1.20     2400.00
00495               1.20     3200.00
00496              -1.40     4000.00
00497               8.20     4800.00
00498              25.00     6400.00
00499             -15.20     7200.00
00500             -25.00     8000.00
00501              18.80     8000.00
00502              11.80     8000.00
00503             -25.00     8000.00
00504              25.00     9600.00
00505              12.20     9600.00
00506             -25.00     9600.00
00507              25.00    11200.00
00508             -25.00    11200.00
00509             -25.00    12000.00
00510              25.00    12800.00
00511             -25.00    12800.00
00512              25.00    14400.00
00513               3.40    14400.00
00514             -25.00    14400.00
00515              25.00    15200.00
00516             -25.00    16000.00
00517             -15.40    16000.00
00518              25.00    16000.00
00519              -7.00    17600.00
00520             -25.00    17600.00
00521              25.00    18400.00
00522               8.20    18400.00
00523             -25.00    19200.00
00524              25.00    20000.00
00525              -8.20    20800.00
00526             -18.80    21600.00
00527              20.40    21600.00
00528             -14.20    22400.00
00529              -7.80    22400.00
00530               7.60    23200.00
00531              -1.80    23200.00
00532             -10.80    24000.00
00533              15.00    24800.00
00534             -12.20    24000.00
00535              -3.80    24800.00
00536               6.60    25600.00
00537             -12.20    25600.00
00538               2.00    25600.00
00539               0.80    27200.00
00540              -2.20    27200.00
00541              -6.00    27200.00
00542               5.00    27200.00
00543              -6.80    27200.00
00544              -5.00    28000.00
00545               5.80    28000.00
00546              -9.20    28800.00
00547              -1.80    28800.00
00548               2.00    28800.00
00549              -6.20    29600.00
00550              -0.20    29600.00
00551               0.80    30400.00
00552              -5.40    30400.00
00553              -1.40    30400.00
00554              -1.60    31200.00
00555              -4.40    31200.00
00556              -1.40    31200.00
00557              -1.60    31200.00
00558              -2.20    31200.00
00559              -2.20    31200.00
00560              -1.40    32800.00
00561              -5.00    32000.00
00562              -2.20    32800.00
00563              -0.40    32000.00
00564              -4.40    32000.00
00565              -0.60    32800.00
00566              -2.80    32800.00
00567              -3.00    32000.00
00568              -1.40    32800.00
00569              -3.40    32800.00
00570              -2.20    32000.00
00571              -3.60    32800.00
00572              -1.40    32800.00
00573              -2.20    32000.00
00574              -3.20    32800.00
00575              -1.40    32800.00
00576              -2.80    32800.00
00577              -2.20    32800.00
00578              -2.40    32000.00
00579              -3.80    32000.00
00580              -2.60    32800.00
00581              -2.80    32000.00
00582              -2.60    32000.00
00583              -2.60    32000.00
00584              -2.60    32000.00
00585              -2.60    31200.00
00586              -2.60    31200.00
00587              -2.20    31200.00
00588              -3.00    31200.00
00589              -2.80    30400.00
00590              -1.80    30400.00
00591              -2.80    29600.00
00592              -2.80    30400.00
00593              -2.80    30400.00
00594              -3.40    29600.00
00595              -2.20    28800.00
00596              -3.00    28800.00
00597              -3.00    28800.00
00598              -2.60    28800.00
00599              -2.40    28000.00
00600              -2.20    28000.00
00601              -2.60    27200.00
00602              -2.20    27200.00
00603              -2.40    27200.00
00604              -2.60    26400.00
00605              -2.00    26400.00
00606              -3.20    25600.00
00607              -2.80    25600.00
00608              -1.40    24800.00
00609              -3.00    24800.00
00610              -2.00    24000.00
00611              -2.20    24000.00
00612              -3.40    24000.00
00613              -2.00    23200.00
00614              -2.20    22400.00
00615              -2.20    22400.00
00616              -1.40    22400.00
00617              -2.20    21600.00
00618              -1.80    21600.00
00619              -2.00    20000.00
00620              -3.00    19200.00
00621              -1.40    19200.00
00622              -1.20    18400.00
00623              -2.80    18400.00
00624              -1.40    17600.00
00625              -2.00    17600.00
00626              -2.60    16800.00
00627              -0.60    16000.00
00628              -2.00    16000.00
00629              -1.80    15200.00
00630              -1.20    15200.00
00631              -2.00    14400.00
00632              -1.20    14400.00
00633              -1.40    12800.00
00634              -2.00    12000.00
00635              -1.20    12000.00
00636              -1.20    12000.00
00637              -1.40    11200.00
00638              -2.00    11200.00
00639              -1.20     9600.00
00640              -1.20     9600.00
00641              -2.00     8800.00
00642              -0.80     8000.00
00643              -1.20     7200.00
00644              -2.00     7200.00
00645              -1.00     5600.00
00646              -0.60     5600.00
00647              -1.60     4800.00
00648              -1.20     4000.00
00649              -0.80     3200.00
00650              -1.00     3200.00
00651              -0.60     2400.00
00652              -1.20     2400.00
00653              -1.00     1600.00
00654              -0.60      800.00
00655              -0.60        0.00
00656              -0.60        0.00
00657               1.00     -800.00
00658               3.40    -1600.00
00659              -2.00    -1600.00
00660              -0.20    -2400.00
00661               1.20    -3200.00
00662               0.20    -3200.00
00663              -0.60    -4000.00
00664               5.80    -4800.00
00665              21.00    -6400.00
00666              11.60    -7200.00
00667             -25.00    -8000.00
00668              -8.40    -8000.00
00669              25.00    -8000.00
00670             -25.00    -8800.00
00671             -25.00    -8800.00
00672              25.00   -10400.00
00673             -21.00    -9600.00
00674             -25.00   -11200.00
00675              25.00   -11200.00
00676             -25.00   -12000.00
00677             -19.80   -12800.00
00678              25.00   -12800.00
00679             -25.00   -13600.00
00680              24.60   -14400.00
00681              -8.40   -14400.00
00682             -13.00   -15200.00
00683              25.00   -15200.00
00684             -20.00   -16000.00
00685              -8.60   -16800.00
00686              25.00   -16800.00
00687              -7.60   -17600.00
00688             -24.40   -18400.00
00689              25.00   -19200.00
00690              -8.20   -19200.00
00691             -23.60   -18400.00
00692              25.00   -20000.00
00693              -9.20   -20800.00
00694             -10.80   -20800.00
00695              18.80   -21600.00
00696              -7.40   -22400.00
00697              -8.60   -22400.00
00698              15.60   -23200.00
00699              -2.20   -24000.00
00700              -5.00   -24000.00
00701              15.00   -24000.00
00702              -8.60   -24000.00
00703               1.00   -25600.00
00704               7.40   -25600.00
00705              -5.20   -25600.00
00706               3.00   -26400.00
00707               5.80   -26400.00
00708              -1.80   -27200.00
00709              -0.20   -27200.00
00710               8.20   -27200.00
00711              -3.40   -28800.00
00712               1.40   -28000.00
00713               6.80   -28800.00
00714              -4.20   -29600.00
00715               2.60   -28800.00
00716               4.60   -29600.00
00717              -2.00   -29600.00
00718               2.80   -29600.00
00719               4.00   -30400.00
00720              -1.40   -29600.00
00721               2.80   -30400.00
00722               3.00   -31200.00
00723              -0.40   -30400.00
00724               2.60   -31200.00
00725               3.60   -31200.00
00726               1.00   -32000.00
00727               1.60   -32000.00
00728               2.80   -32000.00
00729              -0.20   -32000.00
00730               2.20   -32000.00
00731               2.60   -32000.00
00732               1.00   -32000.00
00733               2.80   -32000.00
00734               2.00   -32000.00
00735               2.00   -32000.00
00736               1.60   -32000.00
00737               2.00   -32800.00
00738               2.20   -32000.00
00739               2.00   -32800.00
00740               2.80   -32000.00
00741               1.40   -32800.00
00742               1.60   -32000.00
00743               2.20   -32800.00
00744               1.80   -32000.00
00745               2.00   -32800.00
00746               2.40   -32000.00
00747               1.80   -32800.00
00748               2.00   -32000.00
00749               2.20   -32000.00
00750               2.00   -32000.00
00751               2.00   -32000.00
00752               2.40   -30400.00
00753               2.60   -31200.00
00754               2.00   -30400.00
00755               1.80   -30400.00
00756               1.80   -30400.00
00757               2.60   -30400.00
00758               2.60   -29600.00
00759               1.00   -30400.00
00760               2.80   -29600.00
00761               2.20   -29600.00
00762               0.40   -28800.00
00763               3.00   -28800.00
00764               2.20   -28800.00
00765               1.00   -28800.00
00766               1.80   -28000.00
00767               3.40   -27200.00
00768               1.40   -27200.00
00769               1.00   -27200.00
00770               2.80   -26400.00
00771               1.00   -26400.00
00772               1.00   -25600.00
00773               1.80   -25600.00
00774               2.00   -25600.00
00775               1.40   -24800.00
00776               1.40   -24000.00
00777               2.00   -24000.00
00778               1.20   -23200.00
00779               1.20   -23200.00
00780               1.80   -22400.00
00781               1.80   -22400.00
00782               0.40   -22400.00
00783               1.80   -20800.00
00784               1.80   -20800.00
00785               1.00   -20800.00
00786               1.40   -20000.00
00787               1.40   -19200.00
00788               0.60   -18400.00
00789               1.00   -19200.00
00790               1.60   -17600.00
00791               1.00   -17600.00
00792               0.80   -16800.00
00793               1.20   -16800.00
00794               1.00   -16000.00
00795               0.40   -16000.00
00796               0.40   -15200.00
00797               0.40   -14400.00
00798               1.00   -13600.00
00799               0.40   -13600.00
00800               1.00   -12800.00
00801               1.00   -12000.00
00802               0.60   -11200.00
00803               1.00   -11200.00
00804               0.60   -10400.00
00805               0.60   -10400.00
00806               0.60    -8800.00
00807               0.40    -9600.00
00808               0.20    -8000.00
00809               0.20    -7200.00
00810               0.40    -7200.00
00811               0.20    -6400.00
00812               0.20    -6400.00
00813               1.00    -4800.00
00814               0.20    -4800.00
00815              -0.20    -4000.00
00816               1.00    -3200.00
00817               0.40    -3200.00
00818              -0.20    -1600.00
00819               0.60    -1600.00
00820              -0.40     -800.00
00821              -0.20        0.00
00822               1.00        0.00
00823              -0.20      800.00
00824               1.20     1600.00
00825               3.80     1600.00
00826              -2.80     2400.00
00827              -0.60     3200.00
00828               2.20     3200.00
00829              -1.00     3200.00
00830               0.60     4800.00
00831              17.20     5600.00
00832              25.00     7200.00
00833             -25.00     8000.00
00834             -25.00     8000.00
00835              25.00     8000.00
00836             -20.40     8000.00
00837             -18.60     8800.00
00838              25.00     9600.00
00839             -25.00     9600.00
00840               2.00    10400.00
00841              25.00    11200.00
00842             -25.00    12000.00
00843              25.00    12000.00
00844              16.00    12800.00
00845             -25.00    12800.00
00846              25.00    14400.00
00847             -25.00    14400.00
00848              10.80    15200.00
00849              25.00    15200.00
00850             -25.00    16000.00
00851              17.40    16000.00
00852              22.60    17600.00
00853             -24.60    17600.00
00854             -17.40    18400.00
00855              25.00    19200.00
00856             -25.00    19200.00
00857             -11.00    20000.00
00858              25.00    20800.00
00859             -25.00    20800.00
00860               6.20    21600.00
00861               6.60    21600.00
00862             -16.60    21600.00
00863              -0.40    22400.00
00864               8.40    22400.00
00865             -10.20    23200.00
00866               1.00    24000.00
00867               9.00    24000.00
00868             -18.20    24800.00
00869               8.20    24800.00
00870              -3.00    24800.00
00871              -7.40    26400.00
00872               3.00    26400.00
00873              -1.20    27200.00
00874              -4.60    27200.00
00875              -2.20    27200.00
00876               4.20    28000.00
00877             -10.20    28000.00
00878               2.60    28000.00
00879               0.80    28000.00
00880              -9.20    28800.00
00881               2.20    28800.00
00882              -1.80    28800.00
00883              -5.40    29600.00
00884               1.60    30400.00
00885              -1.40    30400.00
00886              -5.00    30400.00
00887              -0.20    30400.00
00888              -2.80    30400.00
00889              -3.80    31200.00
00890              -1.80    31200.00
00891              -1.20    32000.00
00892              -3.00    32800.00
00893              -1.40    31200.00
00894              -1.20    32000.00
00895              -5.20    32000.00
00896              -0.60    32800.00
00897              -2.20    32000.00
00898              -3.40    32000.00
00899              -0.80    32800.00
00900              -3.80    32800.00
00901              -1.80    32800.00
00902              -2.80    32800.00
00903              -3.00    32000.00
00904              -2.60    32800.00
00905              -3.00    32000.00
00906              -1.20    32800.00
00907              -3.40    32800.00
00908              -2.80    32000.00
00909              -2.00    32800.00
00910              -2.80    32800.00
00911              -1.80    32000.00
00912              -3.00    32800.00
00913              -3.00    32000.00
00914              -2.40    32800.00
00915              -2.80    32000.00
00916              -2.60    32000.00
00917              -3.00    32000.00
00918              -2.80    32000.00
00919              -2.60    32800.00
00920              -3.00    31200.00
00921              -2.60    31200.00
00922              -3.40    31200.00
00923              -2.20    30400.00
00924              -1.80    31200.00
00925              -2.80    29600.00
00926              -2.20    29600.00
00927              -2.80    29600.00
00928              -2.20    28800.00
00929              -2.60    28800.00
00930              -3.00    28800.00
00931              -2.20    28800.00
00932              -3.00    28000.00
00933              -2.20    28000.00
00934              -2.20    28000.00
00935              -2.60    27200.00
00936              -2.40    27200.00
00937              -2.40    27200.00
00938              -2.00    26400.00
00939              -2.20    26400.00
00940              -2.60    25600.00
00941              -2.20    25600.00
00942              -1.80    24800.00
00943              -2.20    24800.00
00944              -2.60    24000.00
00945              -2.20    24000.00
00946              -2.20    24000.00
00947              -2.60    22400.00
00948              -2.20    22400.00
00949              -2.20    22400.00
00950              -2.20    21600.00
00951              -1.40    21600.00
00952              -2.20    20800.00
00953              -2.00    20800.00
00954              -2.00    19200.00
00955              -2.20    19200.00
00956              -1.20    18400.00
00957              -1.80    18400.00
00958              -2.60    17600.00
00959              -1.40    17600.00
00960              -2.00    16000.00
00961              -1.80    16000.00
00962              -1.40    15200.00
00963              -1.80    15200.00
00964              -2.00    14400.00
00965              -1.60    13600.00
00966              -1.40    14400.00
00967              -2.00    12800.00
00968              -1.80    12000.00
00969              -1.20    12800.00
00970              -1.80    11200.00
00971              -1.20    11200.00
00972              -2.00     9600.00
00973              -1.20     9600.00
00974              -1.60     9600.00
00975              -1.60     8800.00
00976              -0.80     8000.00
00977              -1.20     7200.00
00978              -1.80     6400.00
00979              -0.60     6400.00
00980              -1.20     5600.00
00981              -1.80     4800.00
00982              -0.80     4800.00
00983              -1.00     3200.00
00984              -1.40     3200.00
00985              -1.00     2400.00
00986              -1.20     1600.00
00987              -0.60     1600.00
00988              -0.40      800.00
00989              -0.40        0.00
00990              -0.40     -800.00
00991               2.00    -1600.00
00992               1.60    -1600.00
00993              -2.40    -1600.00
00994               0.60    -2400.00
00995               1.00    -3200.00
00996              -0.60    -4000.00
00997               0.80    -4000.00
00998               9.80    -5600.00
00999              25.00    -6400.00
01000             -15.00    -8000.00
01001             -25.00    -8000.00
01002              16.20    -8000.00
01003              16.60    -8000.00
01004             -25.00    -8000.00
01005              15.60    -8000.00
01006              25.00   -10400.00
01007             -25.00   -10400.00
01008              23.40   -11200.00
01009              25.00   -11200.00
01010             -25.00   -12000.00
01011              25.00   -12800.00
01012               9.20   -12800.00
01013             -22.00   -13600.00
01014              25.00   -14400.00
01015             -25.00   -14400.00
01016              14.80   -16000.00
01017              18.00   -16000.00
01018             -25.00   -16800.00
01019              13.00   -17600.00
01020              21.00   -17600.00
01021             -25.00   -17600.00
01022              -2.80   -19200.00
01023              25.00   -19200.00
01024             -25.00   -20000.00
01025               6.80   -20800.00
01026              25.00   -20800.00
01027             -24.60   -20800.00
01028               6.60   -21600.00
01029              11.60   -22400.00
01030             -14.00   -22400.00
01031               2.60   -22400.00
01032              14.20   -23200.00
01033             -10.80   -24000.00
01034               6.80   -24000.00
01035               7.80   -24800.00
01036             -11.20   -24800.00
01037               8.60   -25600.00
01038               1.00   -25600.00
01039              -3.40   -26400.00
01040               5.40   -26400.00
01041               3.40   -27200.00
01042              -4.20   -27200.00
01043               4.40   -27200.00
01044               5.00   -27200.00
01045              -5.20   -27200.00
01046               6.80   -28800.00
01047               2.00   -28800.00
01048              -3.80   -28800.00
01049               5.80   -28800.00
01050               1.40   -29600.00
01051              -1.40   -29600.00
01052               5.60   -30400.00
01053               1.20   -29600.00
01054              -1.00   -30400.00
01055               4.40   -31200.00
01056               0.80   -30400.00
01057               0.00   -31200.00
01058               3.60   -32000.00
01059               2.60   -32000.00
01060               0.40   -31200.00
01061               3.40   -32000.00
01062               1.80   -31200.00
01063              -0.20   -32000.00
01064               3.60   -32000.00
01065               1.40   -32000.00
01066               1.20   -32000.00
01067               3.00   -32800.00
01068               1.60   -32000.00
01069               1.80   -32800.00
01070               2.00   -32000.00
01071               2.60   -32000.00
01072               1.80   -32800.00
01073               2.00   -32000.00
01074               2.60   -32800.00
01075               1.20   -32800.00
01076               2.20   -32000.00
01077               2.00   -32800.00
01078               2.00   -32000.00
01079               2.60   -32000.00
01080               1.80   -32000.00
01081               2.00   -32000.00
01082               2.80   -32000.00
01083               1.80   -32000.00
01084               2.00   -31200.00
01085               2.60   -30400.00
01086               2.60   -31200.00
01087               1.20   -31200.00
01088               2.20   -30400.00
01089               2.20   -30400.00
01090               1.20   -30400.00
01091               2.80   -30400.00
01092               2.20   -29600.00
01093               1.00   -29600.00
01094               2.20   -29600.00
01095               2.00   -29600.00
01096               2.20   -28800.00
01097               2.00   -28800.00
01098               2.00   -28800.00
01099               1.80   -28000.00
01100               1.60   -28000.00
01101               1.80   -27200.00
01102               1.80   -27200.00
01103               2.00   -27200.00
01104               1.20   -26400.00
01105               1.40   -26400.00
01106               2.20   -25600.00
01107               1.20   -25600.00
01108               1.40   -25600.00
01109               2.00   -24800.00
01110               1.40   -24000.00
01111               1.20   -24000.00
01112               2.00   -24000.00
01113               1.40   -22400.00
01114               1.40   -23200.00
01115               1.40   -22400.00
01116               1.00   -22400.00
01117               1.20   -21600.00
01118               1.00   -20800.00
01119               1.40   -20000.00
01120               1.00   -20000.00
01121               1.00   -18400.00
01122               1.00   -19200.00
01123               1.80   -18400.00
01124               1.20   -17600.00
01125               0.40   -17600.00
01126               1.00   -16800.00
01127               1.40   -16000.00
01128               1.00   -16000.00
01129               0.80   -15200.00
01130               1.20   -14400.00
01131               0.60   -14400.00
01132               0.20   -13600.00
01133               0.80   -13600.00
01134               1.00   -12800.00
01135               0.20   -12000.00
01136               0.60   -12000.00
01137               1.20   -11200.00
01138               0.40   -10400.00
01139               0.40    -9600.00
01140               0.60    -9600.00
01141               1.00    -8000.00
01142               0.60    -8000.00
01143               0.20    -7200.00
01144               0.20    -6400.00
01145               0.40    -6400.00
01146               0.20    -5600.00
01147               0.20    -5600.00
01148               0.60    -4800.00
01149               0.20    -4000.00
01150               0.00    -3200.00
01151               0.60    -3200.00
01152               0.00    -2400.00
01153              -0.40     -800.00
01154               0.20        0.00
01155              -0.20     -800.00
01156               0.60        0.00
01157               1.00      800.00
01158               2.20     1600.00
01159               1.80     1600.00
01160              -2.40     2400.00
01161              -0.20     2400.00
01162               1.00     3200.00
01163              -1.00     4000.00
01164               4.60     4800.00
01165              25.00     5600.00
01166               5.20     7200.00
01167             -25.00     8000.00
01168               3.60     8000.00
01169              25.00     8000.00
01170             -25.00     8000.00
01171              25.00     9600.00
01172              25.00     9600.00
01173             -25.00     9600.00
01174              25.00    11200.00
01175              15.40    11200.00
01176             -25.00    12000.00
01177              25.00    12800.00
01178             -25.00    12800.00
01179              17.80    14400.00
01180              25.00    13600.00
01181             -25.00    14400.00
01182              25.00    16000.00
01183              -7.60    16000.00
01184             -25.00    16000.00
01185              25.00    17600.00
01186               4.20    17600.00
01187             -25.00    17600.00
01188              12.20    18400.00
01189              25.00    19200.00
01190             -25.00    19200.00
01191              25.00    20000.00
01192              14.20    20800.00
01193             -25.00    20800.00
01194              20.80    22400.00
01195              -8.20    22400.00
01196             -12.60    22400.00
01197               4.40    23200.00
01198               3.80    23200.00
01199             -13.20    24000.00
01200              13.00    24000.00
01201              -4.60    24000.00
01202             -11.60    24800.00
01203              10.60    25600.00
01204             -10.80    25600.00
01205              -0.80    25600.00
01206               2.20    26400.00
01207              -0.60    27200.00
01208              -7.00    27200.00
01209               2.80    28000.00
01210              -1.80    28000.00
01211              -9.40    28000.00
01212               6.80    28800.00
01213              -5.80    28800.00
01214              -5.60    28800.00
01215               3.00    28800.00
01216              -5.00    28800.00
01217              -2.80    29600.00
01218               2.00    30400.00
01219              -4.20    30400.00
01220              -2.80    30400.00
01221              -0.40    31200.00
01222              -4.40    31200.00
01223              -2.80    31200.00
01224              -1.40    31200.00
01225              -2.60    31200.00
01226              -2.80    32000.00
01227              -0.60    32800.00
01228              -4.00    32000.00
01229              -3.80    32800.00
01230               0.20    32000.00
01231              -4.60    32800.00
01232              -1.40    32000.00
01233              -1.80    32800.00
01234              -3.80    32000.00
01235              -1.20    32800.00
01236              -3.00    32000.00
01237              -2.80    32800.00
01238              -3.40    32800.00
01239              -1.80    32800.00
01240              -2.00    33600.00
01241              -4.20    32800.00
01242              -1.40    32000.00
01243              -3.40    32800.00
01244              -2.60    32800.00
01245              -1.40    32000.00
01246              -3.80    32000.00
01247              -2.60    32800.00
01248              -2.20    32000.00
01249              -2.60    32000.00
01250              -2.60    32800.00
01251              -2.80    31200.00
01252              -2.40    32800.00
01253              -3.00    31200.00
01254              -2.60    31200.00
01255              -3.00    31200.00
01256              -3.00    31200.00
01257              -2.00    30400.00
01258              -2.60    31200.00
01259              -2.60    30400.00
01260              -2.20    30400.00
01261              -2.80    30400.00
01262              -2.00    29600.00
01263              -2.20    28800.00
01264              -3.00    28800.00
01265              -2.20    28800.00
01266              -2.80    28000.00
01267              -2.20    28000.00
01268              -2.40    28000.00
01269              -2.60    27200.00
01270              -2.40    27200.00
01271              -2.60    26400.00
01272              -1.80    26400.00
01273              -2.80    26400.00
01274              -2.40    25600.00
01275              -1.80    25600.00
01276              -2.20    24800.00
01277              -2.20    24800.00
01278              -2.20    24000.00
01279              -2.40    24000.00
01280              -2.00    24000.00
01281              -2.00    22400.00
01282              -2.00    22400.00
01283              -2.20    22400.00
01284              -2.00    21600.00
01285              -1.40    20800.00
01286              -2.40    20800.00
01287              -2.00    20000.00
01288              -2.40    19200.00
01289              -2.00    18400.00
01290              -1.40    18400.00
01291              -2.60    18400.00
01292              -2.00    17600.00
01293              -1.60    17600.00
01294              -2.00    16800.00
01295              -1.40    16000.00
01296              -1.80    15200.00
01297              -1.60    14400.00
01298              -1.80    14400.00
01299              -1.60    14400.00
01300              -1.60    12800.00
01301              -2.00    12800.00
01302              -1.20    12000.00
01303              -1.20    11200.00
01304              -2.00    11200.00
01305              -1.80    11200.00
01306              -1.40     9600.00
01307              -1.40     8800.00
01308              -1.40     8000.00
01309              -1.20     8000.00
01310              -1.20     8000.00
01311              -1.20     7200.00
01312              -1.40     6400.00
01313              -0.80     5600.00
01314              -1.00     4800.00
01315              -1.40     4000.00
01316              -1.20     3200.00
01317              -1.00     3200.00
01318              -1.20     2400.00
01319              -1.40     2400.00
01320              -1.20     1600.00
01321              -0.80      800.00
01322              -0.60        0.00
01323              -0.20        0.00
01324               0.40     -800.00
01325               3.60    -1600.00
01326              -0.40    -1600.00
01327              -1.80    -2400.00
01328               1.40    -3200.00
01329               0.40    -3200.00
01330              -1.20    -4000.00
01331               3.60    -4000.00
01332              17.00    -6400.00
01333              21.80    -6400.00
01334             -25.00    -7200.00
01335             -23.40    -8000.00
01336              25.00    -8000.00
01337              -9.80    -8000.00
01338             -25.00    -8000.00
01339              25.00    -9600.00
01340              19.20   -10400.00
01341             -25.00   -10400.00
01342              25.00   -11200.00
01343              -0.20   -11200.00
01344             -25.00   -12000.00
01345              25.00   -13600.00
01346             -25.00   -13600.00
01347              10.20   -13600.00
01348              10.20   -14400.00
01349             -25.00   -15200.00
01350              25.00   -16000.00
01351              -8.80   -16000.00
01352             -18.60   -16800.00
01353              25.00   -16800.00
01354               4.20   -17600.00
01355             -25.00   -18400.00
01356              23.80   -18400.00
01357              10.00   -19200.00
01358             -25.00   -20000.00
01359              25.00   -20000.00
01360               4.80   -20800.00
01361             -19.80   -21600.00
01362              17.40   -22400.00
01363              -1.20   -22400.00
01364             -12.60   -22400.00
01365              12.20   -23200.00
01366               3.80   -23200.00
01367             -10.00   -24000.00
01368              15.00   -24000.00
01369              -3.60   -24800.00
01370              -4.60   -24800.00
01371               9.80   -25600.00
01372              -4.80   -25600.00
01373               0.40   -25600.00
01374               6.20   -26400.00
01375              -0.20   -26400.00
01376              -2.80   -27200.00
01377               7.60   -27200.00
01378              -1.00   -28000.00
01379              -1.80   -28800.00
01380               8.40   -28800.00
01381              -3.00   -28800.00
01382               0.20   -28800.00
01383               5.80   -29600.00
01384              -1.20   -29600.00
01385               1.40   -29600.00
01386               5.40   -29600.00
01387              -1.00   -30400.00
01388               1.80   -30400.00
01389               3.60   -30400.00
01390              -0.60   -30400.00
01391               1.80   -32000.00
01392               3.60   -32000.00
01393               1.20   -32000.00
01394               1.20   -30400.00
01395               3.60   -32000.00
01396               0.20   -32000.00
01397               1.40   -32000.00
01398               3.60   -32000.00
01399               0.20   -32000.00
01400               2.60   -32000.00
01401               2.60   -32000.00
01402               1.60   -32000.00
01403               2.00   -32000.00
01404               2.00   -32800.00
01405               2.60   -32000.00
01406               1.80   -32000.00
01407               3.00   -32800.00
01408               2.00   -32000.00
01409               1.20   -32000.00
01410               2.60   -32000.00
01411               2.00   -32800.00
01412               1.80   -32000.00
01413               2.20   -32000.00
01414               2.00   -32000.00
01415               2.00   -32000.00
01416               2.00   -32000.00
01417               2.20   -32000.00
01418               2.20   -31200.00
01419               2.60   -32000.00
01420               2.60   -31200.00
01421               2.00   -30400.00
01422               2.20   -30400.00
01423               1.80   -30400.00
01424               1.40   -30400.00
01425               2.60   -29600.00
01426               1.40   -29600.00
01427               1.40   -29600.00
01428               2.60   -28800.00
01429               1.40   -28800.00
01430               1.80   -28800.00
01431               2.20   -28800.00
01432               1.80   -28800.00
01433               1.40   -28800.00
01434               2.40   -27200.00
01435               1.40   -27200.00
01436               1.20   -27200.00
01437               1.80   -27200.00
01438               1.80   -26400.00
01439               1.80   -25600.00
01440               1.80   -25600.00
01441               0.60   -25600.00
01442               1.80   -24800.00
01443               2.00   -24800.00
01444               1.00   -24000.00
01445               1.80   -24000.00
01446               1.40   -23200.00
01447               1.00   -23200.00
01448               2.00   -23200.00
01449               1.80   -22400.00
01450               1.00   -21600.00
01451               1.80   -20800.00
01452               1.40   -20800.00
01453               0.60   -20000.00
01454               1.00   -20000.00
01455               1.20   -18400.00
01456               1.20   -18400.00
01457               2.00   -17600.00
01458               1.20   -17600.00
01459               0.60   -17600.00
01460               2.60   -16800.00
01461               0.20   -16000.00
01462              -3.00   -16000.00
01463               7.40   -15200.00
01464              -6.60   -14400.00
01465               2.40   -13600.00
01466               3.80   -13600.00
01467               2.60   -12800.00
01468               3.40   -12800.00
01469              -3.80   -11200.00
01470               5.00   -11200.00
01471              -5.20   -11200.00
01472               0.40   -10400.00
01473              -1.20    -9600.00
01474               1.60    -8800.00
01475               6.20    -8800.00
01476              -4.20    -8000.00
01477               5.20    -7200.00
01478              -1.40    -6400.00
01479              -0.20    -6400.00
01480               2.00    -4800.00
01481              -3.80    -4800.00
01482              -0.40    -4800.00
01483               1.80    -4000.00
01484               1.00    -3200.00
01485              -2.00    -2400.00
01486               3.80    -1600.00
01487               1.40    -1600.00
01488              -2.00        0.00
01489               0.80        0.00
01490              -2.80        0.00
01491              -1.00     1600.00
01492               5.20     1600.00
01493              -1.80     2400.00
01494               0.20     2400.00
01495               4.20     3200.00
01496               0.20     3200.00
01497              -2.00     4800.00
01498              11.20     5600.00
01499              25.00     7200.00
01500             -25.00     7200.00
01501             -25.00     8000.00
01502              25.00     8000.00
01503              -0.40     8000.00
01504             -25.00     8800.00
01505              25.00     9600.00
01506             -21.00     9600.00
01507             -25.00    11200.00
01508              25.00    11200.00
01509             -25.00    11200.00
01510               1.40    12800.00
01511              25.00    12800.00
01512             -25.00    12800.00
01513              25.00    14400.00
01514             -25.00    14400.00
01515             -25.00    15200.00
01516              25.00    15200.00
01517             -25.00    16000.00
01518               0.20    16000.00
01519              25.00    16000.00
01520             -16.40    17600.00
01521             -25.00    18400.00
01522              25.00    18400.00
01523              -9.20    18400.00
01524             -25.00    20000.00
01525              25.00    20000.00
01526             -21.80    20800.00
01527              -8.40    20800.00
01528              15.80    22400.00
01529             -15.80    22400.00
01530              -3.80    22400.00
01531               8.40    24000.00
01532              -5.40    23200.00
01533              -6.60    24000.00
01534              13.80    24000.00
01535             -16.40    24800.00
01536               1.80    25600.00
01537               2.60    25600.00
01538             -10.80    25600.00
01539               2.60    26400.00
01540               0.40    27200.00
01541              -3.00    27200.00
01542              -4.40    27200.00
01543               5.80    27200.00
01544              -9.00    28000.00
01545              -2.20    28800.00
01546               4.80    28800.00
01547             -10.60    28800.00
01548              -0.20    28800.00
01549               1.00    28800.00
01550              -7.00    30400.00
01551               0.60    29600.00
01552               0.20    30400.00
01553              -6.00    30400.00
01554               0.40    30400.00
01555              -2.20    31200.00
01556              -5.20    30400.00
01557              -1.20    31200.00
01558              -2.20    32000.00
01559              -3.80    32000.00
01560              -1.00    32000.00
01561              -1.80    32000.00
01562              -5.60    31200.00
01563              -1.00    32000.00
01564              -2.00    32800.00
01565              -4.40    32000.00
01566              -1.00    32800.00
01567              -3.40    32800.00
01568              -2.60    32800.00
01569              -2.00    32800.00
01570              -3.00    32000.00
01571              -2.80    32800.00
01572              -3.00    32800.00
01573              -1.20    32000.00
01574              -3.00    32800.00
01575              -3.40    32800.00
01576              -2.20    32000.00
01577              -3.20    32800.00
01578              -1.80    32800.00
01579              -3.00    32800.00
01580              -3.00    32800.00
01581              -2.00    32000.00
01582              -3.40    32000.00
01583              -2.20    32800.00
01584              -2.60    32000.00
01585              -2.80    31200.00
01586              -2.60    32000.00
01587              -2.80    31200.00
01588              -2.00    31200.00
01589              -3.20    31200.00
01590              -2.40    31200.00
01591              -1.80    30400.00
01592              -2.80    30400.00
01593              -2.40    30400.00
01594              -2.60    29600.00
01595              -2.80    30400.00
01596              -2.20    28800.00
01597              -3.00    28800.00
01598              -2.20    28800.00
01599              -2.60    28800.00
01600              -2.80    28000.00
01601              -2.00    27200.00
01602              -2.80    27200.00
01603              -2.20    27200.00
01604              -2.20    27200.00
01605              -2.00    27200.00
01606              -2.20    26400.00
01607              -3.20    25600.00
01608              -1.40    25600.00
01609              -2.00    24800.00
01610              -2.60    24800.00
01611              -2.00    24800.00
01612              -2.80    24000.00
01613              -2.60    24000.00
01614              -2.20    22400.00
01615              -2.20    22400.00
01616              -2.00    22400.00
01617              -2.20    21600.00
01618              -1.40    21600.00
01619              -2.00    20800.00
01620              -2.20    20000.00
01621              -2.20    19200.00
01622              -2.40    19200.00
01623              -1.20    18400.00
01624              -2.00    18400.00
01625              -2.40    17600.00
01626              -2.00    17600.00
01627              -2.00    17600.00
01628              -1.80    16800.00
01629              -1.60    15200.00
01630              -2.00    15200.00
01631              -1.60    15200.00
01632              -2.20    13600.00
01633              -1.20    13600.00
01634              -1.80    12800.00
01635              -2.00    12800.00
01636              -1.20    12000.00
01637              -1.20    11200.00
01638              -1.40    11200.00
01639              -2.00    10400.00
01640              -1.20     9600.00
01641              -2.00     8800.00
01642              -1.40     8800.00
01643              -1.20     8000.00
01644              -1.20     7200.00
01645              -1.60     6400.00
01646              -1.00     6400.00
01647              -1.20     4800.00
01648              -0.60     4800.00
01649              -1.20     4000.00
01650              -0.80     4000.00
01651              -0.60     3200.00
01652              -1.20     2400.00
01653              -1.40     1600.00
01654              -1.20      800.00
01655               0.20     1600.00
01656              -0.60        0.00
01657               0.00     -800.00
01658               1.00     -800.00
01659               2.80     -800.00
01660              -2.00    -1600.00
01661              -0.40    -1600.00
01662               2.20    -3200.00
01663               0.20    -4000.00
01664              -0.20    -4000.00
01665               7.40    -4800.00
01666              24.20    -6400.00
01667               1.60    -7200.00
01668             -25.00    -8000.00
01669               2.60    -8000.00
01670              25.00    -8000.00
01671             -25.00    -8000.00
01672             -10.40    -8000.00
01673              25.00   -10400.00
01674             -25.00   -10400.00
01675             -19.00   -10400.00
01676              25.00   -12000.00
01677             -25.00   -12000.00
01678               6.20   -12800.00
01679              25.00   -12800.00
01680             -25.00   -13600.00
01681              25.00   -14400.00
01682             -21.00   -14400.00
01683              -0.60   -15200.00
01684              25.00   -16000.00
01685             -24.60   -16000.00
01686               0.60   -16800.00
01687              25.00   -16800.00
01688             -17.00   -17600.00
01689             -16.40   -17600.00
01690              25.00   -19200.00
01691             -20.60   -19200.00
01692             -11.00   -20000.00
01693              25.00   -20800.00
01694             -18.80   -20800.00
01695              -3.60   -21600.00
01696              16.60   -21600.00
01697             -11.00   -22400.00
01698              -4.20   -22400.00
01699              15.80   -23200.00
01700              -7.00   -23200.00
01701               0.20   -24000.00
01702              12.60   -24000.00
01703             -11.00   -25600.00
01704               5.40   -24800.00
01705               5.00   -25600.00
01706              -6.20   -25600.00
01707               3.80   -26400.00
01708               5.00   -27200.00
01709              -3.80   -26400.00
01710               1.80   -27200.00
01711               8.40   -27200.00
01712              -5.20   -28000.00
01713               3.40   -28000.00
01714               5.80   -28800.00
01715              -4.40   -28800.00
01716               3.80   -28800.00
01717               4.20   -29600.00
01718              -2.20   -29600.00
01719               3.80   -30400.00
01720               2.80   -29600.00
01721              -1.40   -30400.00
01722               4.20   -30400.00
01723               1.40   -31200.00
01724              -0.40   -30400.00
01725               3.60   -31200.00
01726               3.00   -32000.00
01727               0.80   -32000.00
01728               3.60   -31200.00
01729               2.00   -32000.00
01730              -0.60   -32000.00
01731               4.20   -32000.00
01732               1.80   -32000.00
01733               0.20   -32000.00
01734               4.20   -32800.00
01735               1.80   -32000.00
01736               1.40   -32000.00
01737               2.20   -32800.00
01738               2.00   -32000.00
01739               1.40   -32800.00
01740               2.60   -32000.00
01741               3.00   -32000.00
01742               1.00   -32800.00
01743               2.60   -32000.00
01744               2.80   -32000.00
01745               1.00   -32000.00
01746               2.60   -32000.00
01747               2.00   -32000.00
01748               1.00   -32000.00
01749               2.20   -32000.00
01750               2.60   -32000.00
01751               1.40   -31200.00
01752               1.80   -32000.00
01753               2.80   -30400.00
01754               2.00   -31200.00
01755               1.40   -30400.00
01756               2.40   -30400.00
01757               1.80   -29600.00
01758               2.00   -29600.00
01759               2.60   -30400.00
01760               1.20   -30400.00
01761               2.00   -29600.00
01762               2.00   -29600.00
01763               1.20   -29600.00
01764               1.80   -28000.00
01765               2.00   -28800.00
01766               1.20   -28000.00
01767               1.80   -28000.00
01768               2.20   -27200.00
01769               2.00   -27200.00
01770               1.80   -27200.00
01771               2.00   -26400.00
01772               0.80   -26400.00
01773               2.00   -25600.00
01774               1.40   -25600.00
01775               1.00   -25600.00
01776               2.20   -24800.00
01777               1.60   -24000.00
01778               1.00   -24000.00
01779               2.00   -24000.00
01780               1.40   -23200.00
01781               1.20   -23200.00
01782               1.80   -22400.00
01783               1.40   -22400.00
01784               1.40   -21600.00
01785               1.80   -20800.00
01786               1.00   -20800.00
01787               1.00   -20000.00
01788               1.40   -19200.00
01789               1.20   -19200.00
01790               1.20   -18400.00
01791               1.40   -17600.00
01792               1.20   -17600.00
01793               1.20   -16800.00
01794               1.00   -16800.00
01795               1.20   -16800.00
01796               1.20   -15200.00
01797               1.00   -15200.00
01798               1.20   -14400.00
01799               0.80   -13600.00
01800               0.40   -13600.00
01801               1.00   -12800.00
01802               0.60   -12800.00
01803               0.60   -11200.00
01804               1.20   -11200.00
01805               1.00   -10400.00
01806               0.40    -9600.00
01807               0.60    -9600.00
01808               0.60    -9600.00
01809               0.80    -8000.00
01810               0.40    -8000.00
01811               0.20    -7200.00
01812               0.20    -6400.00
01813               0.40    -6400.00
01814               0.20    -4800.00
01815              -0.40    -4800.00
01816              -0.20    -4000.00
01817               0.40    -3200.00
01818              -0.20    -3200.00
01819               0.20    -1600.00
01820               0.20    -1600.00
01821              -0.40    -1600.00
01822               0.20        0.00
01823               0.40        0.00
01824               0.40     1600.00
01825               1.80      800.00
01826               3.20     1600.00
01827              -2.80     1600.00
01828              -1.00     2400.00
01829               1.00     3200.00
01830              -0.60     3200.00
01831               1.80     4800.00
01832              21.20     6400.00
01833              22.20     6400.00
01834             -25.00     8000.00
01835             -13.80     8000.00
01836              25.00     8000.00
01837             -25.00     8000.00
01838               2.00     8800.00
01839              25.00     9600.00
01840             -25.00     9600.00
01841              25.00    11200.00
01842              25.00    11200.00
01843             -25.00    11200.00
01844              25.00    12800.00
01845             -17.00    12800.00
01846             -23.60    13600.00
01847              25.00    14400.00
01848             -25.00    14400.00
01849              25.00    15200.00
01850              23.00    15200.00
01851             -25.00    16000.00
01852              25.00    16000.00
01853              16.40    16800.00
01854             -25.00    17600.00
01855              -6.20    18400.00
01856              25.00    19200.00
01857             -25.00    19200.00
01858               4.40    20000.00
01859              25.00    20000.00
01860             -25.00    20800.00
01861              13.60    21600.00
01862              -0.20    21600.00
01863             -14.80    22400.00
01864               1.60    22400.00
01865               6.80    24000.00
01866             -11.40    23200.00
01867               6.80    24000.00
01868               3.60    24000.00
01869             -16.60    24800.00
01870              10.20    24800.00
01871              -7.00    25600.00
01872              -5.20    25600.00
01873               3.40    26400.00
01874              -1.20    27200.00
01875              -7.00    27200.00
01876               1.20    27200.00
01877               2.00    28000.00
01878             -10.80    28000.00
01879               6.00    28000.00
01880              -2.60    28800.00
01881              -9.20    28800.00
01882               2.80    28800.00
01883              -3.40    28800.00
01884              -4.40    30400.00
01885               2.60    30400.00
01886              -3.00    29600.00
01887              -4.60    30400.00
01888              -0.20    31200.00
01889              -4.40    31200.00
01890              -3.40    31200.00
01891              -1.40    31200.00
01892              -2.20    31200.00
01893              -2.60    32000.00
01894              -1.20    32000.00
01895              -3.60    32000.00
01896              -4.80    32800.00
01897              -0.20    32000.00
01898              -4.40    32000.00
01899              -2.80    32000.00
01900              -1.20    32800.00
01901              -3.80    32800.00
01902              -1.20    32800.00
01903              -2.80    32000.00
01904              -2.80    32800.00
01905              -3.00    32000.00
01906              -2.80    32800.00
01907              -1.80    32800.00
01908              -4.00    32800.00
01909              -2.60    32000.00
01910              -2.20    32800.00
01911              -2.80    32800.00
01912              -1.20    32800.00
01913              -3.40    32000.00
01914              -2.80    32800.00
01915              -2.60    32000.00
01916              -2.80    32800.00
01917              -2.20    32000.00
01918              -2.80    32000.00
01919              -2.20    32000.00
01920              -2.00    31200.00
01921              -2.80    31200.00
01922              -2.20    31200.00
01923              -3.40    31200.00
01924              -2.80    30400.00
01925              -2.20    30400.00
01926              -2.80    31200.00
01927              -2.20    29600.00
01928              -2.00    30400.00
01929              -2.00    29600.00
01930              -1.80    28800.00
01931              -2.60    28800.00
01932              -2.80    28800.00
01933              -2.80    28000.00
01934              -2.20    28000.00
01935              -2.80    27200.00
01936              -2.40    27200.00
01937              -2.00    27200.00
01938              -2.60    26400.00
01939              -1.40    26400.00
01940              -2.60    25600.00
01941              -2.80    25600.00
01942              -1.80    25600.00
01943              -2.00    24800.00
01944              -2.20    24800.00
01945              -2.20    24000.00
01946              -2.60    24000.00
01947              -2.00    24000.00
01948              -2.00    22400.00
01949              -2.20    22400.00
01950              -2.60    22400.00
01951              -2.20    20800.00
01952              -2.20    20800.00
01953              -2.60    20000.00
01954              -2.20    20800.00
01955              -2.00    19200.00
01956              -1.80    19200.00
01957              -1.40    18400.00
01958              -2.20    17600.00
01959              -2.00    17600.00
01960              -2.20    16800.00
01961              -2.20    16000.00
01962              -1.40    16000.00
01963              -2.00    15200.00
01964              -2.00    15200.00
01965              -1.80    14400.00
01966              -1.20    13600.00
01967              -2.20    13600.00
01968              -1.80    12800.00
01969              -1.20    12000.00
01970              -1.40    12000.00
01971              -1.80    11200.00
01972              -1.20    10400.00
01973              -1.40     9600.00
01974              -1.40     9600.00
01975              -1.60     8800.00
01976              -1.20     8800.00
01977              -1.40     8000.00
01978              -1.00     6400.00
01979              -1.20     6400.00
01980              -1.00     5600.00
01981              -1.00     5600.00
01982              -1.20     4800.00
01983              -1.00     4000.00
01984              -0.60     3200.00
01985              -0.80     3200.00
01986              -1.00     1600.00
01987              -1.00     1600.00
01988              -0.60      800.00
01989              -0.40        0.00
01990               0.00        0.00
01991              -0.20     -800.00
01992               2.80    -1600.00
01993               0.60    -1600.00
01994              -2.20    -2400.00
01995               1.20    -3200.00
01996               1.40    -3200.00
01997              -0.60    -4000.00
01998               2.00    -4000.00
01999              12.60    -4800.00
02000              25.00    -6400.00
02001             -25.00    -8000.00
02002             -25.00    -8000.00
02003              23.60    -8000.00
02004               6.40    -8800.00
02005             -25.00    -8800.00
02006              25.00    -8800.00
02007              25.00   -10400.00
02008             -25.00    -9600.00
02009              25.00   -11200.00
02010              25.00   -12000.00
02011             -25.00   -12800.00
02012              25.00   -13600.00
02013             -11.20   -12800.00
02014              -8.40   -14400.00
02015              24.80   -14400.00
02016             -25.00   -15200.00
02017              24.60   -16000.00
02018               6.00   -16000.00
02019             -25.00   -16800.00
02020              19.60   -16800.00
02021              14.80   -17600.00
02022             -25.00   -18400.00
02023               9.20   -18400.00
02024              25.00   -19200.00
02025             -25.00   -19200.00
02026              19.60   -20000.00
02027              18.80   -20800.00
02028             -25.00   -20800.00
02029              12.40   -21600.00
02030               5.80   -22400.00
02031             -14.40   -22400.00
02032               7.00   -23200.00
02033              10.20   -23200.00
02034             -11.60   -24000.00
02035              11.60   -24000.00
02036               2.60   -24800.00
02037              -8.80   -24800.00
02038              10.20   -25600.00
02039              -2.20   -25600.00
02040              -1.20   -25600.00
02041               6.20   -26400.00
02042               1.80   -27200.00
02043              -3.80   -27200.00
02044               6.00   -27200.00
02045               2.00   -28000.00
02046              -3.80   -28800.00
02047               8.20   -28800.00
02048              -0.40   -28800.00
02049              -2.00   -28800.00
02050               6.20   -28800.00
02051               0.40   -29600.00
02052               0.00   -28800.00
02053               5.80   -29600.00
02054               0.40   -29600.00
02055               0.20   -30400.00
02056               4.20   -30400.00
02057               0.20   -30400.00
02058               0.60   -30400.00
02059               3.60   -30400.00
02060               2.20   -32000.00
02061               1.00   -31200.00
02062               3.20   -32000.00
02063               1.20   -32000.00
02064               0.80   -32000.00
02065               3.60   -32000.00
02066               1.00   -32000.00
02067               2.00   -32000.00
02068               2.60   -32800.00
02069               1.20   -32000.00
02070               2.20   -32000.00
02071               1.40   -32800.00
02072               2.00   -32800.00
02073               2.00   -32000.00
02074               2.00   -32800.00
02075               2.20   -32000.00
02076               1.40   -32000.00
02077               2.40   -32000.00
02078               2.00   -32000.00
02079               1.40   -32000.00
02080               2.20   -32000.00
02081               1.80   -32800.00
02082               1.80   -32000.00
02083               1.80   -32000.00
02084               2.20   -32000.00
02085               2.00   -32000.00
02086               1.80   -31200.00
02087               2.20   -30400.00
02088               2.00   -32000.00
02089               1.80   -30400.00
02090               1.80   -30400.00
02091               1.80   -30400.00
02092               2.20   -29600.00
02093               2.00   -29600.00
02094               1.80   -29600.00
02095               2.20   -29600.00
02096               1.80   -28800.00
02097               1.40   -28800.00
02098               2.20   -28800.00
02099               1.40   -28800.00
02100               1.80   -28800.00
02101               2.40   -27200.00
02102               1.80   -27200.00
02103               1.40   -27200.00
02104               1.80   -27200.00
02105               2.00   -26400.00
02106               1.80   -26400.00
02107               1.80   -25600.00
02108               1.00   -24800.00
02109               1.20   -24800.00
02110               2.00   -24000.00
02111               1.40   -24000.00
02112               1.80   -24000.00
02113               1.80   -23200.00
02114               1.20   -23200.00
02115               1.80   -22400.00
02116               1.80   -22400.00
02117               1.40   -21600.00
02118               1.40   -20800.00
02119               1.60   -20800.00
02120               1.40   -20000.00
02121               1.00   -19200.00
02122               1.20   -19200.00
02123               1.20   -18400.00
02124               1.00   -18400.00
02125               1.40   -17600.00
02126               1.20   -17600.00
02127               1.00   -16800.00
02128               1.00   -16000.00
02129               1.20   -16000.00
02130               1.80   -16000.00
02131               1.00   -14400.00
02132              -0.20   -14400.00
02133               1.80   -13600.00
02134               2.00   -12800.00
02135              -0.60   -12800.00
02136              -0.40   -11200.00
02137               2.20   -11200.00
02138               1.00   -11200.00
02139              -1.00   -10400.00
02140               1.00   -10400.00
02141               1.40    -9600.00
02142              -0.20    -9600.00
02143              -0.40    -8000.00
02144               1.00    -7200.00
02145               1.20    -7200.00
02146              -0.60    -6400.00
02147               0.80    -5600.00
02148               0.40    -4800.00
02149              -1.40    -4800.00
02150               0.40    -3200.00
02151               1.00    -3200.00
02152              -0.60    -3200.00
02153              -0.60    -1600.00
02154               0.60    -1600.00
02155              -0.60     -800.00
02156              -1.00        0.00
02157               0.40        0.00
02158               1.60     1600.00
02159               3.60     1600.00
02160               1.00     1600.00
02161              -2.00     2400.00
02162               0.60     3200.00
02163               0.20     3200.00
02164              -2.00     4000.00
02165               7.60     4800.00
02166              25.00     7200.00
02167             -10.00     7200.00
02168             -25.00     8000.00
02169              15.00     8000.00
02170              15.40     8000.00
02171             -25.00     8000.00
02172              25.00     9600.00
02173              20.60     9600.00
02174             -25.00     9600.00
02175              25.00    11200.00
02176             -23.40    11200.00
02177             -25.00    12000.00
02178              25.00    12800.00
02179             -25.00    12800.00
02180              25.00    14400.00
02181              13.00    14400.00
02182             -25.00    14400.00
02183              25.00    15200.00
02184             -25.00    16000.00
02185             -19.60    16000.00
02186              25.00    16800.00
02187              -4.20    17600.00
02188             -25.00    17600.00
02189              24.40    18400.00
02190              13.80    19200.00
02191             -25.00    19200.00
02192              25.00    20800.00
02193              -2.00    20800.00
02194             -22.20    21600.00
02195              21.00    21600.00
02196             -12.40    22400.00
02197              -8.60    22400.00
02198               6.80    23200.00
02199              -0.60    24000.00
02200             -11.20    24000.00
02201              15.00    24000.00
02202             -11.00    24000.00
02203              -5.80    24800.00
02204               8.20    25600.00
02205             -12.40    25600.00
02206               1.80    26400.00
02207               1.80    26400.00
02208              -3.60    27200.00
02209              -6.00    27200.00
02210               5.80    27200.00
02211              -6.80    27200.00
02212              -6.20    28000.00
02213               7.80    28000.00
02214              -9.40    28800.00
02215              -3.80    28800.00
02216               3.20    29600.00
02217              -7.00    28800.00
02218              -2.20    30400.00
02219               2.60    30400.00
02220              -5.40    30400.00
02221              -2.60    30400.00
02222              -0.40    30400.00
02223              -4.40    31200.00
02224              -2.80    31200.00
02225              -1.80    31200.00
02226              -1.20    31200.00
02227              -3.00    32000.00
02228              -2.20    32000.00
02229              -3.80    32800.00
02230              -2.80    32000.00
02231              -2.00    32800.00
02232              -4.20    32800.00
02233               0.20    32000.00
02234              -3.40    32000.00
02235              -3.00    32800.00
02236              -1.00    32800.00
02237              -4.40    32800.00
02238              -2.80    32800.00
02239              -2.00    32000.00
02240              -1.40    32800.00
02241              -3.40    32800.00
02242              -3.00    32800.00
02243              -1.40    32800.00
02244              -4.40    32000.00
02245              -2.00    32800.00
02246              -1.20    32000.00
02247              -4.60    32800.00
02248              -2.80    32000.00
02249              -1.80    32000.00
02250              -2.60    32000.00
02251              -2.80    31200.00
02252              -2.00    32000.00
02253              -1.80    32000.00
02254              -3.40    32000.00
02255              -2.40    31200.00
02256              -2.60    31200.00
02257              -3.80    31200.00
02258              -2.00    30400.00
02259              -2.20    30400.00
02260              -2.80    30400.00
02261              -2.80    29600.00
02262              -2.20    29600.00
02263              -1.80    28800.00
02264              -3.00    28800.00
02265              -2.20    28800.00
02266              -2.00    28000.00
02267              -2.60    28800.00
02268              -2.20    28000.00
02269              -2.20    28000.00
02270              -2.40    27200.00
02271              -2.80    27200.00
02272              -2.20    27200.00
02273              -2.00    25600.00
02274              -3.40    25600.00
02275              -2.40    24800.00
02276              -1.80    24800.00
02277              -2.40    24800.00
02278              -1.80    24000.00
02279              -2.60    24000.00
02280              -2.80    24000.00
02281              -2.20    23200.00
02282              -2.20    22400.00
02283              -2.00    22400.00
02284              -2.20    22400.00
02285              -2.00    21600.00
02286              -2.00    20800.00
02287              -2.40    20800.00
02288              -2.20    20000.00
02289              -2.00    19200.00
02290              -2.20    18400.00
02291              -2.20    18400.00
02292              -1.20    17600.00
02293              -1.20    17600.00
02294              -3.00    16800.00
02295              -2.60    16000.00
02296              -0.40    15200.00
02297              -2.20    15200.00
02298              -3.40    14400.00
02299              -0.40    14400.00
02300              -0.20    13600.00
02301              -2.80    12800.00
02302              -2.80    12800.00
02303               0.00    12000.00
02304              -1.00    11200.00
02305              -3.60    11200.00
02306              -0.40     9600.00
02307               0.20     9600.00
02308              -3.00     8800.00
02309              -1.00     8000.00
02310              -0.20     8000.00
02311              -3.60     7200.00
02312              -1.60     6400.00
02313               1.00     7200.00
02314              -1.40     5600.00
02315              -0.60     4800.00
02316               0.20     4000.00
02317              -2.00     4000.00
02318              -1.20     3200.00
02319              -0.40     2400.00
02320              -1.40     1600.00
02321              -0.40     1600.00
02322              -0.60      800.00
02323              -1.20        0.00
02324              -0.20        0.00
02325               1.20     -800.00
02326               3.60     -800.00
02327              -1.20    -1600.00
02328              -0.80    -2400.00
02329               0.60    -3200.00
02330               0.60    -3200.00
02331              -0.20    -4000.00
02332               5.00    -4000.00
02333              21.40    -5600.00
02334              15.00    -7200.00
02335             -25.00    -8000.00
02336             -12.40    -8000.00
02337              25.00    -8000.00
02338             -23.80    -8800.00
02339             -25.00    -8000.00
02340              25.00   -10400.00
02341             -10.80   -10400.00
02342             -25.00   -10400.00
02343              25.00   -11200.00
02344             -25.00   -11200.00
02345             -25.00   -12800.00
02346              25.00   -13600.00
02347             -25.00   -12800.00
02348              21.20   -14400.00
02349              -4.00   -14400.00
02350             -16.20   -16000.00
02351              25.00   -16000.00
02352             -18.00   -16800.00
02353             -11.40   -16800.00
02354              25.00   -17600.00
02355              -5.80   -17600.00
02356             -25.00   -17600.00
02357              25.00   -19200.00
02358              -3.80   -18400.00
02359             -25.00   -20000.00
02360              25.00   -20000.00
02361              -7.00   -20800.00
02362             -13.80   -21600.00
02363              18.60   -21600.00
02364              -6.60   -22400.00
02365              -9.40   -22400.00
02366              14.80   -23200.00
02367              -1.00   -23200.00
02368              -6.20   -24000.00
02369              15.00   -24800.00
02370              -7.80   -24000.00
02371               0.20   -25600.00
02372               8.00   -25600.00
02373              -5.40   -25600.00
02374               2.60   -26400.00
02375               5.80   -26400.00
02376              -1.20   -27200.00
02377              -0.60   -27200.00
02378               8.20   -28000.00
02379              -3.00   -28000.00
02380               0.80   -28000.00
02381               7.40   -28800.00
02382              -4.40   -28800.00
02383               2.00   -28800.00
02384               5.40   -28800.00
02385              -1.60   -29600.00
02386               2.80   -29600.00
02387               5.00   -29600.00
02388              -1.20   -29600.00
02389               2.60   -30400.00
02390               2.80   -30400.00
02391              -0.60   -30400.00
02392               2.20   -30400.00
02393               3.60   -32000.00
02394               1.20   -31200.00
02395               1.80   -32000.00
02396               3.60   -32000.00
02397              -0.20   -32000.00
02398               2.20   -32000.00
02399               3.00   -32000.00
02400               0.60   -32000.00
02401               2.80   -32000.00
02402               1.80   -32000.00
02403               1.40   -32800.00
02404               1.80   -32800.00
02405               1.80   -32800.00
02406               2.00   -32800.00
02407               1.80   -32000.00
02408               2.80   -32000.00
02409               1.60   -32800.00
02410               1.80   -32000.00
02411               3.00   -32800.00
02412               1.80   -32000.00
02413               1.80   -32000.00
02414               2.20   -32000.00
02415               1.00   -32000.00
02416               1.80   -32000.00
02417               2.20   -32000.00
02418               1.80   -32000.00
02419               1.40   -32000.00
02420               2.20   -31200.00
02421               2.00   -31200.00
02422               1.80   -30400.00
02423               2.60   -31200.00
02424               1.80   -30400.00
02425               2.00   -30400.00
02426               2.80   -30400.00
02427               1.20   -29600.00
02428               1.40   -29600.00
02429               2.00   -29600.00
02430               1.80   -28800.00
02431               1.80   -28800.00
02432               1.40   -28800.00
02433               2.00   -28800.00
02434               2.20   -28800.00
02435               2.00   -28000.00
02436               1.40   -27200.00
02437               2.00   -27200.00
02438               2.00   -27200.00
02439               1.20   -26400.00
02440               2.20   -25600.00
02441               2.00   -25600.00
02442               1.00   -25600.00
02443               2.00   -25600.00
02444               2.20   -24000.00
02445               1.00   -24000.00
02446               1.40   -24000.00
02447               1.40   -23200.00
02448               1.40   -23200.00
02449               1.00   -22400.00
02450               1.80   -22400.00
02451               2.00   -21600.00
02452               1.40   -21600.00
02453               1.80   -20000.00
02454               1.40   -20000.00
02455               1.20   -20000.00
02456               1.00   -18400.00
02457               0.80   -18400.00
02458               1.40   -17600.00
02459               1.20   -17600.00
02460               1.00   -16800.00
02461               1.40   -16800.00
02462               1.20   -16800.00
02463               0.60   -16000.00
02464               1.00   -14400.00
02465               1.00   -15200.00
02466               0.60   -13600.00
02467               0.40   -13600.00
02468               1.20   -12800.00
02469               0.60   -12000.00
02470               0.40   -12000.00
02471               1.00   -11200.00
02472               0.40   -10400.00
02473               0.00   -10400.00
02474               0.40    -9600.00
02475               0.20    -8000.00
02476               1.00    -8000.00
02477               1.00    -8000.00
02478               0.60    -7200.00
02479               0.20    -6400.00
02480               0.20    -6400.00
02481              -0.20    -4800.00
02482              -0.60    -4000.00
02483               0.40    -4000.00
02484               0.20    -3200.00
02485               0.20    -3200.00
02486               0.80    -2400.00
02487              -0.60    -1600.00
02488               0.20     -800.00
02489               0.20     -800.00
02490              -0.40     -800.00
02491               1.00      800.00
02492               0.60     1600.00
02493               3.00     1600.00
02494              -1.00     1600.00
02495              -1.40     2400.00
02496               1.40     3200.00
02497               0.80     3200.00
02498              -1.00     4800.00
02499              15.40     5600.00
02500              25.00     7200.00
02501             -25.00     7200.00
02502             -25.00     8000.00
02503              25.00     8000.00
02504             -15.60     8000.00
02505             -24.40     8800.00
02506              25.00     9600.00
02507             -25.00     9600.00
02508              -9.60    11200.00
02509              25.00    11200.00
02510             -25.00    11200.00
02511              25.00    12800.00
02512              25.00    12000.00
02513             -25.00    12800.00
02514              25.00    13600.00
02515             -25.00    14400.00
02516               2.00    14400.00
02517              25.00    15200.00
02518             -25.00    16000.00
02519              14.00    16800.00
02520              25.00    17600.00
02521             -23.00    17600.00
02522             -21.20    17600.00
02523              25.00    18400.00
02524             -25.00    19200.00
02525             -17.40    19200.00
02526              25.00    20000.00
02527             -25.00    21600.00
02528               2.80    21600.00
02529              10.00    22400.00
02530             -16.40    21600.00
02531              -1.20    22400.00
02532               9.20    23200.00
02533              -9.40    24000.00
02534              -1.00    24000.00
02535              10.20    24000.00
02536             -18.20    24000.00
02537               6.80    24800.00
02538              -1.80    25600.00
02539              -8.60    25600.00
02540               2.60    25600.00
02541              -0.60    27200.00
02542              -4.60    27200.00
02543              -2.40    27200.00
02544               4.60    28000.00
02545             -10.60    28000.00
02546               2.00    28000.00
02547               1.40    28800.00
02548             -10.20    28800.00
02549               1.40    28800.00
02550              -1.00    28800.00
02551              -6.00    29600.00
02552               0.40    30400.00
02553              -1.20    30400.00
02554              -5.20    30400.00
02555              -0.60    31200.00
02556              -2.60    31200.00
02557              -4.00    30400.00
02558              -1.80    31200.00
02559              -1.00    31200.00
02560              -2.80    31200.00
02561              -2.20    32000.00
02562              -2.20    32000.00
02563              -5.20    32800.00
02564              -0.40    32800.00
02565              -2.80    32000.00
02566              -4.00    32000.00
02567              -0.40    32800.00
02568              -4.20    32000.00
02569              -2.20    32800.00
02570              -2.00    32800.00
02571              -2.80    32800.00
02572              -2.80    32800.00
02573              -2.60    32800.00
02574              -1.00    32800.00
02575              -3.80    32000.00
02576              -2.80    32800.00
02577              -2.00    32800.00
02578              -3.40    32000.00
02579              -1.60    32800.00
02580              -3.00    32000.00
02581              -3.00    32800.00
02582              -1.80    32800.00
02583              -2.60    32000.00
02584              -2.00    32000.00
02585              -2.80    32000.00
02586              -3.00    32000.00
02587              -2.60    32800.00
02588              -2.60    31200.00
02589              -2.20    31200.00
02590              -3.00    31200.00
02591              -2.20    30400.00
02592              -2.00    30400.00
02593              -2.80    30400.00
02594              -2.60    30400.00
02595              -2.60    29600.00
02596              -2.40    30400.00
02597              -2.20    28800.00
02598              -2.80    28800.00
02599              -2.80    28800.00
02600              -2.80    28800.00
02601              -2.20    28000.00
02602              -2.20    28000.00
02603              -2.80    27200.00
02604              -2.80    27200.00
02605              -2.60    27200.00
02606              -2.20    26400.00
02607              -2.60    25600.00
02608              -3.00    25600.00
02609              -2.00    25600.00
02610              -2.00    24800.00
02611              -2.00    24800.00
02612              -2.00    24000.00
02613              -2.80    24000.00
02614              -2.60    23200.00
02615              -2.60    23200.00
02616              -2.20    22400.00
02617              -2.20    22400.00
02618              -2.20    21600.00
02619              -1.80    20800.00
02620              -2.20    20800.00
02621              -2.20    20000.00
02622              -2.00    19200.00
02623              -2.00    19200.00
02624              -1.40    18400.00
02625              -2.00    18400.00
02626              -1.80    17600.00
02627              -2.00    17600.00
02628              -2.00    16800.00
02629              -1.40    16000.00
02630              -2.00    15200.00
02631              -2.00    15200.00
02632              -1.80    14400.00
02633              -1.80    14400.00
02634              -1.20    13600.00
02635              -1.60    12800.00
02636              -1.80    12800.00
02637              -1.00    12000.00
02638              -1.40    11200.00
02639              -1.20    11200.00
02640              -1.40     9600.00
02641              -1.20     9600.00
02642              -1.20     8800.00
02643              -1.20     8000.00
02644              -1.20     8000.00
02645              -1.20     7200.00
02646              -1.40     6400.00
02647              -0.60     6400.00
02648              -1.00     5600.00
02649              -0.80     4800.00
02650              -0.80     4800.00
02651              -0.60     3200.00
02652              -0.60     3200.00
02653              -0.60     2400.00
02654              -0.60     1600.00
02655              -0.60     1600.00
02656              -0.60        0.00
02657              -0.20        0.00
02658               0.00     -800.00
02659               1.80    -1600.00
02660               2.00    -1600.00
02661              -2.00    -1600.00
02662               0.20    -3200.00
02663               1.20    -3200.00
02664               0.20    -4000.00
02665               0.40    -4000.00
02666               9.20    -4800.00
02667              25.00    -6400.00
02668             -11.20    -8000.00
02669             -25.00    -8000.00
02670              13.40    -8000.00
02671              18.80    -8800.00
02672             -25.00    -8800.00
02673               9.40    -8800.00
02674              25.00   -10400.00
02675             -25.00    -9600.00
02676              14.00   -11200.00
02677              25.00   -11200.00
02678             -25.00   -12000.00
02679              25.00   -12800.00
02680              15.20   -12800.00
02681             -25.00   -13600.00
02682              25.00   -13600.00
02683             -25.00   -14400.00
02684              12.20   -16000.00
02685              20.60   -16000.00
02686             -25.00   -16800.00
02687              10.80   -17600.00
02688              22.20   -17600.00
02689             -25.00   -17600.00
02690              -6.00   -18400.00
02691              25.00   -19200.00
02692             -25.00   -19200.00
02693               2.20   -20000.00
02694              25.00   -20800.00
02695             -24.20   -20800.00
02696               3.60   -21600.00
02697              12.60   -22400.00
02698             -13.00   -22400.00
02699               0.20   -22400.00
02700              14.60   -23200.00
02701              -9.40   -24000.00
02702               5.00   -24000.00
02703               9.00   -24000.00
02704             -10.80   -25600.00
02705               8.40   -25600.00
02706               1.20   -26400.00
02707              -3.80   -25600.00
02708               5.80   -26400.00
02709               3.60   -26400.00
02710              -4.20   -27200.00
02711               4.20   -27200.00
02712               5.40   -28000.00
02713              -5.40   -28000.00
02714               6.40   -28800.00
02715               3.00   -28000.00
02716              -4.20   -28800.00
02717               5.80   -29600.00
02718               3.00   -29600.00
02719              -1.40   -29600.00
02720               5.20   -29600.00
02721               2.20   -29600.00
02722              -0.80   -30400.00
02723               3.80   -30400.00
02724               1.20   -30400.00
02725               0.20   -30400.00
02726               3.00   -32000.00
02727               2.20   -31200.00
02728               0.80   -32000.00
02729               2.60   -32000.00
02730               1.80   -32000.00
02731               1.00   -32000.00
02732               3.60   -32000.00
02733               1.00   -32000.00
02734               2.00   -32000.00
02735               3.00   -32000.00
02736               1.20   -32000.00
02737               2.20   -32000.00
02738               1.00   -32000.00
02739               1.80   -32800.00
02740               2.20   -32000.00
02741               1.40   -32000.00
02742               2.60   -32000.00
02743               1.80   -32800.00
02744               1.20   -32800.00
02745               3.00   -32000.00
02746               2.00   -32800.00
02747               1.20   -32000.00
02748               2.60   -32000.00
02749               2.00   -32000.00
02750               1.00   -32000.00
02751               2.60   -32000.00
02752               1.40   -32000.00
02753               1.00   -32000.00
02754               2.80   -30400.00
02755               2.00   -30400.00
02756               1.80   -30400.00
02757               2.00   -31200.00
02758               1.60   -30400.00
02759               2.20   -30400.00
02760               2.20   -30400.00
02761               1.20   -29600.00
02762               2.60   -29600.00
02763               1.40   -29600.00
02764               1.40   -28800.00
02765               2.00   -28800.00
02766               1.40   -28000.00
02767               1.60   -28800.00
02768               2.20   -27200.00
02769               1.20   -27200.00
02770               1.80   -27200.00
02771               2.20   -27200.00
02772               2.00   -26400.00
02773               1.40   -26400.00
02774               2.40   -25600.00
02775               1.20   -25600.00
02776               1.20   -25600.00
02777               2.80   -24800.00
02778               1.40   -24800.00
02779               1.20   -24800.00
02780               2.00   -23200.00
02781               0.80   -23200.00
02782               1.20   -23200.00
02783               2.40   -22400.00
02784               1.40   -22400.00
02785               1.20   -20800.00
02786               2.00   -20800.00
02787               1.00   -20000.00
02788               0.60   -20000.00
02789               1.80   -19200.00
02790               1.20   -18400.00
02791               1.00   -18400.00
02792               1.60   -17600.00
02793               0.60   -17600.00
02794               0.60   -16800.00
02795               1.20   -16800.00
02796               1.00   -16000.00
02797               1.20   -16000.00
02798               1.00   -14400.00
02799               0.60   -14400.00
02800               1.00   -13600.00
02801               0.60   -13600.00
02802               0.40   -12800.00
02803               0.40   -12000.00
02804               0.60   -11200.00
02805               0.40   -11200.00
02806               0.40   -10400.00
02807               0.40   -10400.00
02808               0.40    -9600.00
02809               0.80    -8800.00
02810               0.60    -8000.00
02811               0.20    -8000.00
02812               0.60    -7200.00
02813               0.40    -6400.00
02814               0.20    -6400.00
02815               0.40    -4800.00
02816              -0.20    -4800.00
02817              -0.40    -4000.00
02818               0.20    -4000.00
02819               0.20    -2400.00
02820              -0.20    -2400.00
02821              -0.20    -1600.00
02822               0.20     -800.00
02823              -0.20        0.00
02824               0.60        0.00
02825               1.00      800.00
02826               2.00     1600.00
02827               2.40     2400.00
02828              -2.20     2400.00
02829               0.20     2400.00
02830               1.60     3200.00
02831              -1.80     4000.00
02832               3.40     4000.00
02833              25.00     5600.00
02834               9.20     7200.00
02835             -25.00     7200.00
02836               1.00     8000.00
02837              25.00     8000.00
02838             -25.00     8000.00
02839              25.00     9600.00
02840              25.00     9600.00
02841             -25.00    10400.00
02842              25.00    11200.00
02843              25.00    11200.00
02844             -25.00    12000.00
02845              25.00    12800.00
02846             -25.00    12800.00
02847               8.40    14400.00
02848              25.00    13600.00
02849             -25.00    14400.00
02850              25.00    16000.00
02851              -0.60    15200.00
02852             -25.00    16000.00
02853              25.00    16800.00
02854               7.40    17600.00
02855             -25.00    17600.00
02856               8.40    18400.00
02857              25.00    18400.00
02858             -25.00    20000.00
02859              22.60    20000.00
02860              18.60    20000.00
02861             -25.00    20800.00
02862              19.60    22400.00
02863              -6.00    21600.00
02864             -13.40    22400.00
02865               3.60    23200.00
02866               5.60    22400.00
02867             -13.20    24000.00
02868              11.60    24000.00
02869              -2.60    24000.00
02870             -13.60    24800.00
02871              10.20    24800.00
02872             -10.00    25600.00
02873              -2.20    25600.00
02874               2.20    25600.00
02875              -1.20    27200.00
02876              -7.60    27200.00
02877               2.20    27200.00
02878              -1.20    28000.00
02879              -9.40    28000.00
02880               6.80    28800.00
02881              -5.20    28800.00
02882              -6.80    28000.00
02883               3.40    29600.00
02884              -4.60    29600.00
02885              -3.60    28800.00
02886               2.00    30400.00
02887              -4.40    30400.00
02888              -3.60    30400.00
02889              -0.20    30400.00
02890              -4.40    31200.00
02891              -2.80    31200.00
02892              -1.40    31200.00
02893              -2.00    31200.00
02894              -2.80    32800.00
02895              -0.80    32000.00
02896              -3.60    32000.00
02897              -4.20    32000.00
02898              -0.40    32000.00
02899              -4.40    32800.00
02900              -2.00    32000.00
02901              -1.80    32800.00
02902              -3.80    32800.00
02903              -1.20    32800.00
02904              -3.00    32800.00
02905              -2.20    32000.00
02906              -3.00    32800.00
02907              -2.20    32800.00
02908              -1.40    32800.00
02909              -3.80    32000.00
02910              -2.20    32800.00
02911              -2.80    32000.00
02912              -2.80    32800.00
02913              -2.20    32800.00
02914              -3.20    32000.00
02915              -2.60    32800.00
02916              -2.60    32800.00
02917              -2.20    32000.00
02918              -2.00    32000.00
02919              -3.00    32000.00
02920              -2.00    31200.00
02921              -2.60    32000.00
02922              -2.80    31200.00
02923              -2.60    31200.00
02924              -3.40    31200.00
02925              -2.20    31200.00
02926              -2.60    30400.00
02927              -3.00    30400.00
02928              -2.60    30400.00
02929              -2.80    29600.00
02930              -2.20    29600.00
02931              -2.40    28800.00
02932              -2.80    28800.00
02933              -2.60    28800.00
02934              -2.60    28000.00
02935              -2.20    28000.00
02936              -2.80    28000.00
02937              -2.80    27200.00
02938              -2.60    27200.00
02939              -3.00    27200.00
02940              -2.00    26400.00
02941              -2.80    26400.00
02942              -3.00    25600.00
02943              -2.00    25600.00
02944              -2.00    24800.00
02945              -2.00    24800.00
02946              -2.60    24000.00
02947              -2.60    24000.00
02948              -2.00    23200.00
02949              -2.20    23200.00
02950              -2.20    22400.00
02951              -2.20    22400.00
02952              -2.20    21600.00
02953              -2.20    20800.00
02954              -2.60    20800.00
02955              -2.20    19200.00
02956              -2.00    19200.00
02957              -2.00    18400.00
02958              -1.20    18400.00
02959              -1.80    17600.00
02960              -2.00    17600.00
02961              -2.00    17600.00
02962              -1.40    16000.00
02963              -1.40    16000.00
02964              -2.00    15200.00
02965              -1.60    14400.00
02966              -1.80    14400.00
02967              -1.80    13600.00
02968              -1.40    12800.00
02969              -2.20    12800.00
02970              -1.40    12000.00
02971              -1.20    11200.00
02972              -1.20    11200.00
02973              -1.20    10400.00
02974              -1.40    10400.00
02975              -0.60     9600.00
02976              -1.20     8800.00
02977              -1.40     8800.00
02978              -1.40     8000.00
02979              -1.20     7200.00
02980              -1.20     6400.00
02981              -0.60     5600.00
02982              -0.60     5600.00
02983              -1.00     4000.00
02984              -0.80     4000.00
02985              -0.60     3200.00
02986              -0.80     2400.00
02987              -1.20     2400.00
02988              -0.60     1600.00
02989              -1.00      800.00
02990              -1.00        0.00
02991               0.20        0.00
02992               0.40     -800.00
02993               3.00     -800.00
02994               0.20    -1600.00
02995              -1.80    -2400.00
02996               1.00    -3200.00
02997               0.60    -3200.00
02998              -1.00    -4000.00
02999               3.00    -4000.00
03000              16.20    -4800.00
03001              23.40    -6400.00
03002             -25.00    -8000.00
03003             -25.00    -8000.00
03004              25.00    -8000.00
03005              -6.20    -8800.00
03006             -25.00    -8800.00
03007              25.00    -9600.00
03008              25.00   -10400.00
03009             -25.00   -10400.00
03010              25.00   -11200.00
03011               9.00   -11200.00
03012             -25.00   -12000.00
03013              25.00   -12800.00
03014             -25.00   -12800.00
03015               6.80   -13600.00
03016              13.80   -14400.00
03017             -25.00   -15200.00
03018              25.00   -16000.00
03019              -5.80   -16000.00
03020             -20.40   -16800.00
03021              25.00   -16800.00
03022               6.60   -17600.00
03023             -25.00   -18400.00
03024              21.00   -19200.00
03025              14.00   -19200.00
03026             -25.00   -19200.00
03027              25.00   -20000.00
03028               8.40   -20000.00
03029             -21.40   -21600.00
03030              17.00   -22400.00
03031               0.20   -22400.00
03032             -13.00   -22400.00
03033              11.40   -23200.00
03034               5.40   -23200.00
03035             -10.20   -24000.00
03036              14.80   -24000.00
03037              -2.60   -24800.00
03038              -5.40   -24800.00
03039              11.60   -25600.00
03040              -4.40   -25600.00
03041              -0.20   -26400.00
03042               7.60   -26400.00
03043               0.40   -27200.00
03044              -3.80   -26400.00
03045               8.00   -27200.00
03046              -0.40   -28000.00
03047              -2.60   -28000.00
03048               8.20   -28800.00
03049              -2.20   -28800.00
03050              -0.20   -28800.00
03051               6.20   -29600.00
03052              -1.20   -29600.00
03053               1.00   -28800.00
03054               6.00   -30400.00
03055              -1.00   -30400.00
03056               1.40   -30400.00
03057               4.20   -31200.00
03058              -1.20   -30400.00
03059               1.40   -30400.00
03060               3.80   -32000.00
03061               1.00   -32000.00
03062               0.80   -31200.00
03063               3.60   -32000.00
03064              -0.40   -32000.00
03065               1.80   -32000.00
03066               4.40   -32000.00
03067               0.40   -32000.00
03068               2.00   -32000.00
03069               2.60   -32000.00
03070               1.00   -32000.00
03071               1.60   -32000.00
03072               2.00   -32800.00
03073               2.20   -32000.00
03074               1.00   -32000.00
03075               2.80   -32800.00
03076               2.00   -32800.00
03077               0.40   -32800.00
03078               2.60   -32000.00
03079               2.20   -32000.00
03080               1.80   -32000.00
03081               2.20   -32000.00
03082               2.20   -32000.00
03083               2.00   -32000.00
03084               1.80   -32000.00
03085               1.80   -31200.00
03086               1.80   -32000.00
03087               2.00   -31200.00
03088               2.60   -32000.00
03089               2.00   -31200.00
03090               1.80   -30400.00
03091               2.00   -30400.00
03092               2.00   -30400.00
03093               2.00   -30400.00
03094               2.00   -29600.00
03095               1.80   -29600.00
03096               2.00   -28800.00
03097               2.00   -29600.00
03098               2.00   -28800.00
03099               1.80   -28800.00
03100               2.00   -28800.00
03101               2.00   -28000.00
03102               2.00   -27200.00
03103               2.00   -27200.00
03104               1.80   -27200.00
03105               1.40   -26400.00
03106               1.80   -26400.00
03107               1.80   -26400.00
03108               1.80   -25600.00
03109               1.40   -25600.00
03110               1.40   -24800.00
03111               1.80   -24000.00
03112               1.20   -24000.00
03113               1.40   -24000.00
03114               1.80   -23200.00
03115               1.20   -23200.00
03116               1.40   -22400.00
03117               1.80   -22400.00
03118               1.20   -21600.00
03119               1.00   -20800.00
03120               2.00   -20800.00
03121               1.20   -20000.00
03122               0.40   -19200.00
03123               1.40   -18400.00
03124               1.00   -18400.00
03125               1.00   -18400.00
03126               1.40   -16800.00
03127               0.40   -17600.00
03128               0.60   -16800.00
03129               1.00   -16000.00
03130               1.00   -16000.00
03131               1.00   -15200.00
03132               1.00   -14400.00
03133               1.00   -13600.00
03134               1.00   -13600.00
03135               0.60   -12800.00
03136               1.00   -12800.00
03137               0.20   -11200.00
03138               0.60   -11200.00
03139               1.00   -10400.00
03140               0.20   -10400.00
03141               0.20    -9600.00
03142               0.40    -8800.00
03143               0.60    -8000.00
03144               0.20    -8000.00
03145               0.40    -7200.00
03146               0.60    -7200.00
03147               0.20    -6400.00
03148               0.60    -4800.00
03149               0.40    -4800.00
03150               0.20    -4000.00
03151              -0.20    -4000.00
03152               0.40    -3200.00
03153              -0.20    -2400.00
03154              -0.40    -1600.00
03155              -0.60    -1600.00
03156               0.60     -800.00
03157               0.40        0.00
03158               0.00      800.00
03159               0.80        0.00
03160               3.40     1600.00
03161              -0.20     1600.00
03162              -0.60     2400.00
03163               1.20     3200.00
03164               0.40     3200.00
03165              -1.20     4000.00
03166              10.00     5600.00
03167              25.00     6400.00
03168             -25.00     8000.00
03169             -25.00     8000.00
03170              24.60     8000.00
03171               3.00     8000.00
03172             -25.00     8000.00
03173              25.00     9600.00
03174             -12.40     9600.00
03175             -25.00    10400.00
03176              25.00    11200.00
03177             -25.00    11200.00
03178              -8.60    12800.00
03179              25.00    12000.00
03180             -25.00    12800.00
03181              25.00    14400.00
03182             -19.00    14400.00
03183             -25.00    14400.00
03184              25.00    15200.00
03185             -25.00    16000.00
03186              -3.80    16800.00
03187              25.00    17600.00
03188             -13.40    17600.00
03189             -25.00    18400.00
03190              25.00    18400.00
03191              -4.00    19200.00
03192             -25.00    20000.00
03193              25.00    20800.00
03194             -17.40    20800.00
03195             -11.40    20800.00
03196              17.40    21600.00
03197             -15.60    21600.00
03198              -5.40    22400.00
03199               8.40    23200.00
03200              -4.40    23200.00
03201              -7.60    24000.00
03202              14.80    24800.00
03203             -15.60    24800.00
03204               0.40    24800.00
03205               4.20    25600.00
03206             -11.80    25600.00
03207               2.00    25600.00
03208               0.80    27200.00
03209              -3.00    27200.00
03210              -5.00    27200.00
03211               6.00    27200.00
03212              -8.60    28000.00
03213              -2.60    28000.00
03214               5.40    28800.00
03215             -10.00    28800.00
03216              -0.60    28800.00
03217               0.80    28800.00
03218              -6.80    29600.00
03219               0.00    30400.00
03220               0.20    30400.00
03221              -5.40    30400.00
03222              -0.60    31200.00
03223              -2.00    31200.00
03224              -4.40    31200.00
03225              -1.60    31200.00
03226              -1.20    32800.00
03227              -2.80    31200.00
03228              -2.00    31200.00
03229              -0.60    31200.00
03230              -5.40    32800.00
03231              -2.00    32000.00
03232              -1.00    32000.00
03233              -4.60    32800.00
03234              -0.80    32800.00
03235              -3.40    32000.00
03236              -2.60    32800.00
03237              -2.00    32800.00
03238              -3.00    32800.00
03239              -2.00    32800.00
03240              -3.40    32800.00
03241              -0.60    32800.00
03242              -2.60    32000.00
03243              -3.60    32800.00
03244              -2.00    32800.00
03245              -3.40    32800.00
03246              -2.20    32000.00
03247              -3.00    32000.00
03248              -3.80    32800.00
03249              -2.20    32000.00
03250              -2.60    32800.00
03251              -2.60    32000.00
03252              -2.80    32000.00
03253              -2.60    32000.00
03254              -2.60    31200.00
03255              -2.40    31200.00
03256              -2.20    31200.00
03257              -3.60    31200.00
03258              -2.60    31200.00
03259              -1.80    30400.00
03260              -3.40    30400.00
03261              -2.80    30400.00
03262              -2.60    29600.00
03263              -3.00    29600.00
03264              -2.80    29600.00
03265              -2.80    28800.00
03266              -2.60    28800.00
03267              -2.80    28800.00
03268              -2.80    28000.00
03269              -2.00    28000.00
03270              -2.80    27200.00
03271              -2.80    28000.00
03272              -2.20    27200.00
03273              -2.60    25600.00
03274              -2.60    26400.00
03275              -2.80    25600.00
03276              -2.20    25600.00
03277              -2.20    24800.00
03278              -2.20    24800.00
03279              -2.00    24800.00
03280              -3.00    24000.00
03281              -2.60    24000.00
03282              -2.00    22400.00
03283              -2.60    22400.00
03284              -2.20    21600.00
03285              -2.20    21600.00
03286              -2.20    21600.00
03287              -2.00    20800.00
03288              -2.20    20000.00
03289              -2.60    19200.00
03290              -2.20    19200.00
03291              -1.20    19200.00
03292              -2.00    18400.00
03293              -2.00    18400.00
03294              -1.40    17600.00
03295              -2.20    16800.00
03296              -1.80    16000.00
03297              -1.20    15200.00
03298              -2.00    14400.00
03299              -1.80    15200.00
03300              -1.80    14400.00
03301              -1.40    13600.00
03302              -1.80    12800.00
03303              -2.00    12000.00
03304              -1.00    12000.00
03305              -1.40    11200.00
03306              -1.80    11200.00
03307              -0.80    10400.00
03308              -1.20     9600.00
03309              -2.00     8800.00
03310              -1.00     8800.00
03311              -1.40     8000.00
03312              -1.60     8000.00
03313              -1.20     6400.00
03314              -1.20     5600.00
03315              -1.20     5600.00
03316              -1.00     4800.00
03317              -1.00     4000.00
03318              -1.00     3200.00
03319              -0.60     3200.00
03320              -1.40     2400.00
03321              -1.20     1600.00
03322              -0.40      800.00
03323              -1.00        0.00
03324              -0.40        0.00
03325               0.20     -800.00
03326               0.60     -800.00
03327               2.80    -1600.00
03328              -1.80    -1600.00
03329              -0.60    -2400.00
03330               1.40    -3200.00
03331               0.40    -3200.00
03332              -0.40    -4000.00
03333               7.00    -4800.00
03334              24.00    -6400.00
03335               4.20    -7200.00
03336             -25.00    -7200.00
03337              -0.40    -8000.00
03338              25.00    -8000.00
03339             -25.00    -8800.00
03340             -14.80    -8000.00
03341              25.00    -9600.00
03342             -25.00    -9600.00
03343             -25.00   -10400.00
03344              25.00   -11200.00
03345             -25.00   -12000.00
03346               0.20   -12800.00
03347              25.00   -12800.00
03348             -25.00   -12800.00
03349              25.00   -14400.00
03350             -18.20   -14400.00
03351              -3.80   -15200.00
03352              25.00   -16000.00
03353             -23.80   -16800.00
03354              -1.80   -16800.00
03355              25.00   -17600.00
03356             -15.20   -18400.00
03357             -19.80   -18400.00
03358              25.00   -19200.00
03359             -16.60   -18400.00
03360             -14.20   -20000.00
03361              25.00   -20000.00
03362             -16.60   -20800.00
03363              -6.00   -21600.00
03364              18.00   -22400.00
03365             -10.20   -22400.00
03366              -5.20   -22400.00
03367              16.40   -23200.00
03368              -6.00   -23200.00
03369              -1.80   -24000.00
03370              14.20   -24000.00
03371             -10.40   -24800.00
03372               3.60   -25600.00
03373               6.60   -25600.00
03374              -4.40   -25600.00
03375               2.60   -27200.00
03376               5.00   -26400.00
03377              -2.00   -27200.00
03378               0.60   -27200.00
03379               8.20   -28000.00
03380              -4.20   -28000.00
03381               2.20   -28800.00
03382               5.20   -28800.00
03383              -4.40   -28800.00
03384               3.20   -28800.00
03385               4.20   -28800.00
03386              -1.40   -29600.00
03387               3.80   -29600.00
03388               3.40   -29600.00
03389              -1.20   -29600.00
03390               3.40   -30400.00
03391               2.20   -30400.00
03392              -0.40   -30400.00
03393               2.60   -31200.00
03394               3.40   -32000.00
03395               0.60   -32000.00
03396               1.80   -32000.00
03397               2.80   -32800.00
03398              -0.20   -32000.00
03399               2.80   -32000.00
03400               2.40   -32000.00
03401               1.00   -32000.00
03402               2.80   -32000.00
03403               1.40   -32000.00
03404               2.00   -32000.00
03405               2.00   -32000.00
03406               2.00   -32000.00
03407               2.00   -32800.00
03408               1.80   -32800.00
03409               2.80   -32000.00
03410               1.00   -32000.00
03411               2.00   -32800.00
03412               3.20   -32800.00
03413               1.40   -32000.00
03414               2.00   -32000.00
03415               2.60   -32000.00
03416               1.20   -32000.00
03417               2.00   -32000.00
03418               2.60   -32000.00
03419               1.40   -31200.00
03420               2.40   -32000.00
03421               2.60   -31200.00
03422               1.40   -31200.00
03423               2.20   -31200.00
03424               1.80   -30400.00
03425               1.80   -30400.00
03426               2.60   -29600.00
03427               2.00   -29600.00
03428               2.20   -29600.00
03429               2.20   -29600.00
03430               1.00   -28800.00
03431               2.40   -28800.00
03432               2.20   -28800.00
03433               1.00   -28800.00
03434               2.20   -28800.00
03435               1.40   -28800.00
03436               1.80   -27200.00
03437               2.20   -27200.00
03438               1.80   -27200.00
03439               2.40   -26400.00
03440               1.80   -26400.00
03441               2.20   -25600.00
03442               1.40   -25600.00
03443               1.20   -25600.00
03444               2.60   -24000.00
03445               1.40   -24800.00
03446               0.60   -24000.00
03447               2.00   -24000.00
03448               0.80   -23200.00
03449               1.20   -23200.00
03450               1.80   -22400.00
03451               1.20   -22400.00
03452               0.60   -20800.00
03453               1.80   -20000.00
03454               1.40   -20800.00
03455               1.20   -20000.00
03456               1.40   -19200.00
03457               0.80   -18400.00
03458               1.00   -18400.00
03459               1.20   -17600.00
03460               0.40   -17600.00
03461               1.00   -16800.00
03462               1.00   -16800.00
03463               0.20   -16000.00
03464               1.20   -15200.00
03465               1.00   -15200.00
03466               0.20   -14400.00
03467               1.40   -13600.00
03468               1.00   -13600.00
03469               0.20   -12800.00
03470               1.00   -12000.00
03471               0.80   -11200.00
03472               0.40   -11200.00
03473               1.00   -10400.00
03474               0.60    -9600.00
03475              -0.20    -9600.00
03476               0.40    -8800.00
03477               1.00    -8000.00
03478              -0.20    -7200.00
03479               0.40    -7200.00
03480               0.60    -6400.00
03481               0.40    -5600.00
03482               0.40    -4800.00
03483               0.40    -4800.00
03484               0.20    -4000.00
03485               0.40    -3200.00
03486               0.20    -3200.00
03487               0.20    -2400.00
03488               0.20    -1600.00
03489              -0.20     -800.00
03490              -0.40        0.00
03491               1.00        0.00
03492               0.40      800.00
03493               1.00     1600.00
03494               3.80     1600.00
03495              -2.20     2400.00
03496              -1.00     3200.00
03497               2.20     3200.00
03498              -0.60     4000.00
03499               1.00     4800.00
03500              20.40     5600.00
03501              25.00     7200.00
03502             -25.00     8000.00
03503             -17.20     8000.00
03504              25.00     8000.00
03505             -25.00     8000.00
03506              -3.60     8800.00
03507              25.00     9600.00
03508             -25.00     9600.00
03509              25.00    11200.00
03510              25.00    11200.00
03511             -25.00    12000.00
03512              25.00    12800.00
03513              -8.20    12800.00
03514             -25.00    12800.00
03515              25.00    14400.00
03516             -25.00    14400.00
03517              25.00    15200.00
03518              25.00    15200.00
03519             -25.00    16000.00
03520              24.60    16800.00
03521              18.60    17600.00
03522             -25.00    17600.00
03523              -9.20    18400.00
03524              25.00    19200.00
03525             -25.00    19200.00
03526               0.60    20000.00
03527              25.00    20800.00
03528             -25.00    20800.00
03529              11.80    21600.00
03530               2.60    21600.00
03531             -15.80    22400.00
03532               1.20    22400.00
03533               8.60    23200.00
03534             -11.80    24000.00
03535               5.00    24000.00
03536               5.20    24000.00
03537             -17.40    24800.00
03538              10.00    24800.00
03539              -6.20    25600.00
03540              -5.80    25600.00
03541               3.00    25600.00
03542              -1.20    27200.00
03543              -6.60    27200.00
03544              -0.20    27200.00
03545               2.60    28000.00
03546             -10.60    28000.00
03547               5.20    28800.00
03548              -1.40    28800.00
03549              -8.60    28800.00
03550               3.40    28800.00
03551              -3.00    29600.00
03552              -4.60    28800.00
03553               2.00    29600.00
03554              -3.40    30400.00
03555              -4.60    30400.00
03556               0.40    31200.00
03557              -3.80    31200.00
03558              -3.60    31200.00
03559              -1.20    31200.00
03560              -1.80    32000.00
03561              -2.80    31200.00
03562              -0.60    32000.00
03563              -2.20    32000.00
03564              -5.00    32000.00
03565              -0.20    32000.00
03566              -3.60    32800.00
03567              -3.00    32800.00
03568              -1.00    32000.00
03569              -3.80    32800.00
03570              -1.40    32800.00
03571              -3.00    32800.00
03572              -2.80    32800.00
03573              -2.60    32000.00
03574              -2.80    32800.00
03575              -1.20    32800.00
03576              -3.60    32800.00
03577              -2.40    32000.00
03578              -2.20    32800.00
03579              -3.00    32800.00
03580              -1.80    32000.00
03581              -3.00    32800.00
03582              -2.80    32000.00
03583              -2.60    32000.00
03584              -3.00    32000.00
03585              -2.80    32000.00
03586              -3.20    32000.00
03587              -2.60    31200.00
03588              -2.20    31200.00
03589              -2.60    31200.00
03590              -2.60    31200.00
03591              -3.60    31200.00
03592              -2.20    31200.00
03593              -2.20    30400.00
03594              -2.80    29600.00
03595              -2.60    30400.00
03596              -2.80    28800.00
03597              -2.60    29600.00
03598              -2.20    29600.00
03599              -2.80    28800.00
03600              -2.60    28800.00
03601              -2.80    28800.00
03602              -2.40    28000.00
03603              -2.40    28000.00
03604              -2.80    27200.00
03605              -2.20    27200.00
03606              -2.40    26400.00
03607              -2.20    26400.00
03608              -2.60    25600.00
03609              -2.20    25600.00
03610              -2.40    24800.00
03611              -2.20    24800.00
03612              -1.80    24800.00
03613              -2.20    24000.00
03614              -2.80    24000.00
03615              -1.80    24000.00
03616              -2.20    23200.00
03617              -2.20    22400.00
03618              -2.00    22400.00
03619              -2.20    21600.00
03620              -2.20    21600.00
03621              -2.00    20800.00
03622              -2.00    20800.00
03623              -2.60    20000.00
03624              -2.20    19200.00
03625              -1.00    18400.00
03626              -1.40    18400.00
03627              -2.40    17600.00
03628              -1.40    16800.00
03629              -1.20    16800.00
03630              -2.20    16000.00
03631              -2.20    15200.00
03632              -0.80    15200.00
03633              -2.40    14400.00
03634              -2.20    14400.00
03635              -0.60    12800.00
03636              -2.00    12800.00
03637              -2.20    12800.00
03638              -0.60    11200.00
03639              -1.80    11200.00
03640              -1.80     9600.00
03641              -1.20     9600.00
03642              -1.20     8800.00
03643              -1.20     8800.00
03644              -1.60     8800.00
03645              -1.80     8000.00
03646              -0.60     7200.00
03647              -2.00     6400.00
03648              -1.40     6400.00
03649              -0.20     4800.00
03650              -2.00     4800.00
03651              -2.20     4000.00
03652               0.20     4000.00
03653              -0.60     2400.00
03654              -2.20     2400.00
03655               0.00     1600.00
03656              -0.20      800.00
03657              -0.80        0.00
03658               0.40        0.00
03659              -0.60     -800.00
03660               2.00    -1600.00
03661               1.80    -1600.00
03662              -2.80    -1600.00
03663               0.60    -3200.00
03664               2.00    -3200.00
03665              -1.20    -4000.00
03666               1.40    -4800.00
03667              12.40    -4800.00
03668              25.00    -7200.00
03669             -25.00    -7200.00
03670             -25.00    -8000.00
03671              22.40    -8000.00
03672               9.00    -9600.00
03673             -25.00    -8800.00
03674              25.00    -8800.00
03675              25.00   -10400.00
03676             -25.00   -10400.00
03677              25.00   -11200.00
03678              25.00   -11200.00
03679             -25.00   -12000.00
03680              25.00   -12800.00
03681              -6.00   -13600.00
03682             -11.40   -14400.00
03683              25.00   -14400.00
03684             -25.00   -14400.00
03685              22.20   -16000.00
03686               9.80   -16000.00
03687             -25.00   -16800.00
03688              18.20   -16800.00
03689              16.40   -17600.00
03690             -25.00   -18400.00
03691               6.20   -18400.00
03692              25.00   -19200.00
03693             -25.00   -20000.00
03694              16.60   -20000.00
03695              21.80   -20800.00
03696             -25.00   -20800.00
03697              11.40   -21600.00
03698               7.40   -22400.00
03699             -14.20   -22400.00
03700               5.80   -23200.00
03701              11.60   -23200.00
03702             -11.40   -23200.00
03703              10.00   -24000.00
03704               3.80   -24000.00
03705              -9.00   -25600.00
03706               9.80   -25600.00
03707              -2.20   -25600.00
03708              -1.00   -26400.00
03709               6.60   -26400.00
03710               1.40   -27200.00
03711              -3.00   -27200.00
03712               5.80   -28000.00
03713               2.00   -27200.00
03714              -4.00   -28800.00
03715               7.40   -28800.00
03716               0.20   -28800.00
03717              -2.20   -28800.00
03718               5.40   -28800.00
03719               1.00   -29600.00
03720              -0.40   -29600.00
03721               5.20   -29600.00
03722               1.40   -29600.00
03723               0.20   -30400.00
03724               3.00   -30400.00
03725               1.00   -30400.00
03726               0.60   -31200.00
03727               2.60   -30400.00
03728               3.00   -32000.00
03729               0.60   -32000.00
03730               2.60   -32000.00
03731               1.20   -32000.00
03732               0.80   -32000.00
03733               3.60   -32000.00
03734               1.00   -32000.00
03735               2.00   -32000.00
03736               3.40   -32000.00
03737               1.60   -32000.00
03738               2.20   -32000.00
03739               2.00   -32800.00
03740               2.00   -32800.00
03741               1.40   -32000.00
03742               2.60   -32800.00
03743               2.00   -32000.00
03744               0.20   -32000.00
03745               3.40   -32800.00
03746               2.60   -32000.00
03747               1.80   -32000.00
03748               3.40   -32000.00
03749               2.00   -32000.00
03750               1.00   -32000.00
03751               1.80   -31200.00
03752               2.00   -32000.00
03753               1.80   -32000.00
03754               2.40   -32000.00
03755               3.00   -30400.00
03756               1.80   -30400.00
03757               1.80   -30400.00
03758               2.00   -30400.00
03759               1.40   -29600.00
03760               2.00   -30400.00
03761               2.20   -29600.00
03762               1.80   -29600.00
03763               3.00   -29600.00
03764               2.00   -28800.00
03765               2.00   -29600.00
03766               2.60   -28800.00
03767               1.00   -28000.00
03768               1.60   -28800.00
03769               2.00   -27200.00
03770               1.00   -28000.00
03771               1.20   -27200.00
03772               1.80   -27200.00
03773               2.00   -26400.00
03774               2.00   -26400.00
03775               2.20   -25600.00
03776               0.60   -25600.00
03777               1.40   -25600.00
03778               1.60   -24000.00
03779               1.00   -24000.00
03780               2.00   -24000.00
03781               1.80   -23200.00
03782               1.20   -23200.00
03783               1.80   -22400.00
03784               1.40   -22400.00
03785               1.00   -21600.00
03786               1.20   -21600.00
03787               0.60   -20800.00
03788               1.20   -20800.00
03789               1.00   -20000.00
03790               1.00   -19200.00
03791               1.60   -18400.00
03792               2.00   -17600.00
03793               1.20   -17600.00
03794               0.60   -17600.00
03795               1.20   -16800.00
03796               0.60   -16800.00
03797               0.40   -16000.00
03798               1.20   -15200.00
03799               0.80   -14400.00
03800               1.00   -14400.00
03801               1.40   -13600.00
03802               1.00   -13600.00
03803               0.40   -13600.00
03804               0.40   -12800.00
03805               0.80   -11200.00
03806               0.40   -10400.00
03807               0.60   -10400.00
03808               0.80    -9600.00
03809               0.40    -9600.00
03810               1.20    -8800.00
03811               0.60    -8000.00
03812               0.20    -8000.00
03813               0.80    -7200.00
03814              -0.20    -6400.00
03815               0.20    -6400.00
03816               0.60    -4800.00
03817               0.00    -4800.00
03818               0.40    -4000.00
03819               0.60    -3200.00
03820              -0.40    -2400.00
03821               0.20    -1600.00
03822              -0.20    -1600.00
03823              -0.60     -800.00
03824              -0.20     -800.00
03825               0.40      800.00
03826               0.40     1600.00
03827               3.40     1600.00
03828               1.80     1600.00
03829              -2.20     2400.00
03830               0.80     3200.00
03831               1.20     3200.00
03832              -2.00     4800.00
03833               6.60     4800.00
03834              25.00     7200.00
03835              -6.80     7200.00
03836             -25.00     8000.00
03837              13.00     8000.00
03838              18.20     8000.00
03839             -25.00     8000.00
03840              25.00     9600.00
03841              25.00     9600.00
03842             -25.00     9600.00
03843              25.00    11200.00
03844             -14.00    11200.00
03845             -25.00    12000.00
03846              25.00    12800.00
03847             -25.00    12800.00
03848              25.00    14400.00
03849              20.20    14400.00
03850             -25.00    14400.00
03851              25.00    15200.00
03852             -23.60    16000.00
03853             -23.80    16000.00
03854              25.00    16000.00
03855              -2.60    17600.00
03856             -25.00    18400.00
03857              22.00    18400.00
03858              17.00    19200.00
03859             -25.00    19200.00
03860              25.00    20800.00
03861               1.60    20800.00
03862             -24.60    20800.00
03863              21.40    21600.00
03864             -11.60    21600.00
03865             -10.40    22400.00
03866               6.20    23200.00
03867               1.00    23200.00
03868             -11.80    24000.00
03869              15.00    24800.00
03870              -9.20    24000.00
03871              -7.00    24800.00
03872               8.40    25600.00
03873             -11.60    25600.00
03874               0.60    25600.00
03875               1.80    27200.00
03876              -1.60    27200.00
03877              -6.60    27200.00
03878               4.40    27200.00
03879              -4.60    28000.00
03880              -7.00    28000.00
03881               6.80    28000.00
03882              -8.00    28800.00
03883              -3.60    28800.00
03884               2.80    28800.00
03885              -6.00    29600.00
03886              -1.40    29600.00
03887               1.80    29600.00
03888              -5.00    30400.00
03889              -2.40    30400.00
03890              -0.80    30400.00
03891              -4.60    31200.00
03892              -2.60    30400.00
03893              -1.20    31200.00
03894              -2.00    31200.00
03895              -2.60    31200.00
03896              -0.60    32800.00
03897              -4.40    32000.00
03898              -3.60    32000.00
03899              -0.20    32000.00
03900              -4.60    32000.00
03901              -1.00    32800.00
03902              -2.20    32000.00
03903              -3.00    32800.00
03904              -1.20    32800.00
03905              -3.60    32000.00
03906              -2.60    32800.00
03907              -3.40    32800.00
03908              -1.80    32800.00
03909              -2.00    32800.00
03910              -3.60    32000.00
03911              -1.80    32800.00
03912              -2.80    32800.00
03913              -2.20    32000.00
03914              -2.40    32800.00
03915              -3.80    32000.00
03916              -2.40    32800.00
03917              -2.80    32000.00
03918              -2.80    32800.00
03919              -2.80    32000.00
03920              -2.80    32000.00
03921              -2.40    31200.00
03922              -2.20    31200.00
03923              -2.80    31200.00
03924              -2.80    30400.00
03925              -2.80    30400.00
03926              -2.20    30400.00
03927              -2.60    30400.00
03928              -2.60    30400.00
03929              -2.40    29600.00
03930              -3.00    30400.00
03931              -2.20    28800.00
03932              -2.80    28800.00
03933              -2.60    28000.00
03934              -2.60    28800.00
03935              -2.60    28800.00
03936              -1.80    28000.00
03937              -2.60    27200.00
03938              -2.60    27200.00
03939              -2.00    27200.00
03940              -2.60    27200.00
03941              -2.00    26400.00
03942              -2.80    25600.00
03943              -2.60    25600.00
03944              -2.00    24800.00
03945              -2.20    24800.00
03946              -2.00    24800.00
03947              -2.40    24000.00
03948              -2.20    24000.00
03949              -1.80    23200.00
03950              -2.00    22400.00
03951              -2.00    22400.00
03952              -2.20    21600.00
03953              -2.00    21600.00
03954              -1.80    21600.00
03955              -2.40    20800.00
03956              -2.00    20800.00
03957              -2.20    19200.00
03958              -1.80    18400.00
03959              -1.40    18400.00
03960              -2.20    18400.00
03961              -1.80    17600.00
03962              -1.80    17600.00
03963              -1.20    16000.00
03964              -1.80    16000.00
03965              -1.60    15200.00
03966              -2.00    14400.00
03967              -2.00    14400.00
03968              -2.00    13600.00
03969              -1.60    12800.00
03970              -2.80    12000.00
03971              -1.60    12000.00
03972              -1.40    12000.00
03973              -1.40    10400.00
03974              -1.80    11200.00
03975              -1.20     9600.00
03976              -1.40     8800.00
03977              -1.20     8000.00
03978              -1.20     8800.00
03979              -1.20     8000.00
03980              -1.40     7200.00
03981              -1.20     6400.00
03982              -1.20     5600.00
03983              -1.00     5600.00
03984              -1.20     4800.00
03985              -1.20     3200.00
03986              -0.80     3200.00
03987              -1.00     2400.00
03988              -1.40     2400.00
03989              -1.00     1600.00
03990              -1.00      800.00
03991              -0.60        0.00
03992              -0.20        0.00
03993               0.60    -1600.00
03994               3.60    -1600.00
03995              -1.20    -1600.00
03996              -1.20    -2400.00
03997               1.40    -2400.00
03998               0.60    -3200.00
03999              -1.00    -4000.00
04000               4.40    -4800.00
04001              19.60    -6400.00
04002              16.80    -7200.00
04003             -25.00    -7200.00
04004             -15.00    -8000.00
04005              25.00    -8800.00
04006             -19.60    -8000.00
04007             -25.00    -8000.00
04008              25.00   -10400.00
04009              -3.60   -10400.00
04010             -25.00   -10400.00
04011              25.00   -11200.00
04012             -25.00   -11200.00
04013             -25.00   -12800.00
04014              25.00   -12800.00
04015             -25.00   -13600.00
04016              20.00   -14400.00
04017              -0.60   -14400.00
04018             -19.40   -15200.00
04019              25.00   -16000.00
04020             -16.20   -16000.00
04021             -13.00   -16800.00
04022              25.00   -16800.00
04023              -3.00   -17600.00
04024             -25.00   -18400.00
04025              25.00   -18400.00
04026              -0.60   -19200.00
04027             -25.00   -19200.00
04028              25.00   -20000.00
04029              -3.80   -20800.00
04030             -15.00   -20800.00
04031              19.00   -21600.00
04032              -5.40   -22400.00
04033             -10.20   -22400.00
04034              14.40   -23200.00
04035              -0.40   -23200.00
04036              -7.40   -24000.00
04037              15.40   -24000.00
04038              -7.00   -24800.00
04039              -1.20   -25600.00
04040               9.00   -25600.00
04041              -5.20   -26400.00
04042               2.20   -26400.00
04043               6.20   -27200.00
04044              -1.20   -27200.00
04045              -1.20   -27200.00
04046               8.60   -27200.00
04047              -3.40   -28000.00
04048              -0.80   -28800.00
04049               8.40   -28800.00
04050              -3.20   -28800.00
04051               0.00   -28800.00
04052               5.00   -28800.00
04053              -0.40   -28800.00
04054               2.60   -29600.00
04055               3.60   -30400.00
04056              -0.60   -30400.00
04057               3.80   -30400.00
04058               2.60   -30400.00
04059              -1.20   -30400.00
04060               3.40   -30400.00
04061               3.60   -31200.00
04062               0.20   -32000.00
04063               2.00   -32000.00
04064               2.80   -32000.00
04065              -1.80   -32000.00
04066               3.20   -31200.00
04067               4.20   -32000.00
04068              -0.40   -32000.00
04069               3.40   -32000.00
04070               3.40   -32000.00
04071               1.00   -32000.00
04072               1.20   -32800.00
04073               2.60   -32000.00
04074               2.60   -32800.00
04075               2.00   -32000.00
04076               3.20   -32800.00
04077               1.80   -32800.00
04078               1.20   -32000.00
04079               2.60   -32000.00
04080               1.20   -32000.00
04081               2.00   -32000.00
04082               2.60   -32000.00
04083               2.00   -32000.00
04084               2.80   -32000.00
04085               1.80   -32000.00
04086               2.00   -32000.00
04087               3.60   -30400.00
04088               1.60   -31200.00
04089               1.00   -30400.00
04090               2.80   -31200.00
04091               2.60   -30400.00
04092               0.60   -30400.00
04093               2.60   -30400.00
04094               3.60   -30400.00
04095               1.00   -29600.00
04096               1.20   -29600.00
04097               3.00   -28800.00
04098               1.00   -28800.00
04099               1.00   -28800.00
04100               3.40   -28800.00
04101               1.80   -28000.00
04102               0.40   -28000.00
04103               3.00   -27200.00
04104               2.20   -27200.00
04105               0.20   -27200.00
04106               2.00   -27200.00
04107               2.20   -26400.00
04108               0.60   -26400.00
04109               1.00   -26400.00
04110               3.00   -25600.00
04111               1.80   -25600.00
04112               0.40   -24800.00
04113               3.00   -24000.00
04114               1.40   -24000.00
04115              -1.00   -23200.00
04116               1.80   -23200.00
04117               2.20   -23200.00
04118               0.20   -22400.00
04119               1.40   -21600.00
04120               2.20   -21600.00
04121               1.00   -20000.00
04122               0.80   -20000.00
04123               2.20   -20000.00
04124               1.20   -20000.00
04125               0.00   -18400.00
04126               2.00   -17600.00
04127               1.20   -17600.00
04128              -0.20   -16800.00
04129               1.80   -16800.00
04130               2.00   -16000.00
04131               0.40   -16000.00
04132               0.60   -15200.00
04133               1.40   -14400.00
04134               0.40   -13600.00
04135               0.40   -13600.00
04136               1.60   -12800.00
04137               1.20   -12000.00
04138               0.20   -11200.00
04139               1.20   -11200.00
04140               1.20   -11200.00
04141               0.20   -10400.00
04142               0.20    -8800.00
04143               0.60    -8800.00
04144               0.40    -8000.00
04145               0.20    -8000.00
04146               0.20    -8000.00
04147               0.60    -6400.00
04148               0.00    -6400.00
04149               0.60    -5600.00
04150               1.20    -4800.00
04151               0.20    -4000.00
04152               0.00    -3200.00
04153               0.60    -3200.00
04154               0.20    -2400.00
04155              -0.40    -1600.00
04156               0.20     -800.00
04157               0.20     -800.00
04158              -0.60        0.00
04159               0.20      800.00
04160               1.00      800.00
04161               3.00     1600.00
04162              -1.40     1600.00
04163              -0.60     2400.00
04164               1.80     3200.00
04165              -0.40     3200.00
04166              -0.40     4000.00
04167              14.20     4800.00
04168              25.00     6400.00
04169             -25.00     7200.00
04170             -25.00     8000.00
04171              25.00     8000.00
04172             -12.80     8000.00
04173             -25.00     8800.00
04174              25.00     9600.00
04175             -25.00     9600.00
04176             -18.00    11200.00
04177              25.00    11200.00
04178             -25.00    11200.00
04179              25.00    12800.00
04180              25.00    12000.00
04181             -25.00    13600.00
04182              25.00    14400.00
04183             -25.00    14400.00
04184              -4.20    15200.00
04185              25.00    15200.00
04186             -25.00    16000.00
04187              12.20    16800.00
04188              25.00    17600.00
04189             -23.00    17600.00
04190             -22.60    18400.00
04191              25.00    19200.00
04192             -24.60    18400.00
04193             -21.40    19200.00
04194              25.00    20800.00
04195             -25.00    20800.00
04196              -1.20    20800.00
04197              12.20    22400.00
04198             -16.00    22400.00
04199              -3.80    23200.00
04200               9.20    22400.00
04201              -6.20    24000.00
04202              -3.60    24000.00
04203              11.60    24000.00
04204             -16.20    24800.00
04205               4.40    24800.00
04206              -2.00    25600.00
04207              -7.60    25600.00
04208               3.00    25600.00
04209              -1.20    27200.00
04210              -2.80    27200.00
04211              -3.00    27200.00
04212               4.40    28000.00
04213             -10.00    28000.00
04214               1.00    28000.00
04215               2.60    28800.00
04216             -10.00    28800.00
04217               1.60    28800.00
04218              -0.60    28800.00
04219              -6.00    29600.00
04220               2.00    30400.00
04221              -0.80    30400.00
04222              -5.40    30400.00
04223              -0.60    30400.00
04224              -2.80    30400.00
04225              -4.20    31200.00
04226              -2.00    30400.00
04227              -1.00    31200.00
04228              -2.20    32000.00
04229              -2.20    32000.00
04230              -1.20    32000.00
04231              -4.60    32000.00
04232              -1.80    31200.00
04233              -2.80    32800.00
04234              -3.00    32800.00
04235              -1.00    32000.00
04236              -4.60    32800.00
04237              -0.60    32000.00
04238              -2.60    33600.00
04239              -4.20    32800.00
04240              -2.00    32800.00
04241              -3.40    32800.00
04242              -1.80    32800.00
04243              -2.60    32000.00
04244              -2.60    32800.00
04245              -2.20    32800.00
04246              -3.00    32000.00
04247              -1.80    32800.00
04248              -3.40    32000.00
04249              -3.00    32800.00
04250              -2.60    32000.00
04251              -3.00    32000.00
04252              -2.20    32000.00
04253              -3.00    31200.00
04254              -2.40    32000.00
04255              -1.80    31200.00
04256              -2.60    31200.00
04257              -2.60    31200.00
04258              -3.40    31200.00
04259              -2.20    31200.00
04260              -2.00    30400.00
04261              -2.80    30400.00
04262              -2.00    30400.00
04263              -2.60    29600.00
04264              -2.80    29600.00
04265              -2.20    28800.00
04266              -2.80    28800.00
04267              -2.60    28800.00
04268              -2.60    28000.00
04269              -2.00    28000.00
04270              -2.00    28000.00
04271              -2.80    28000.00
04272              -2.00    27200.00
04273              -2.20    27200.00
04274              -2.40    26400.00
04275              -2.00    26400.00
04276              -2.80    25600.00
04277              -2.60    24800.00
04278              -2.20    25600.00
04279              -2.20    24800.00
04280              -2.00    24000.00
04281              -2.80    24000.00
04282              -2.00    24000.00
04283              -2.20    23200.00
04284              -2.40    22400.00
04285              -2.00    22400.00
04286              -2.20    21600.00
04287              -1.80    20800.00
04288              -2.00    20800.00
04289              -2.00    20000.00
04290              -2.20    19200.00
04291              -2.20    19200.00
04292              -1.80    18400.00
04293              -2.20    18400.00
04294              -2.40    18400.00
04295              -2.00    17600.00
04296              -2.00    16000.00
04297              -1.40    16000.00
04298              -2.20    15200.00
04299              -1.40    15200.00
04300              -2.00    14400.00
04301              -1.80    13600.00
04302              -1.40    12800.00
04303              -1.40    12800.00
04304              -2.20    12000.00
04305              -1.40    12000.00
04306              -1.80    12000.00
04307              -1.40    11200.00
04308              -1.80     9600.00
04309              -1.60     9600.00
04310              -1.40     8800.00
04311              -1.60     8000.00
04312              -1.20     8000.00
04313              -1.40     7200.00
04314              -1.40     6400.00
04315              -0.80     5600.00
04316              -1.20     5600.00
04317              -1.20     4800.00
04318              -1.00     4800.00
04319              -0.60     3200.00
04320              -1.00     2400.00
04321              -1.20     2400.00
04322              -0.60     1600.00
04323              -1.00      800.00
04324              -0.60        0.00
04325              -0.40        0.00
04326               0.20     -800.00
04327               2.00     -800.00
04328               1.80    -1600.00
04329              -2.00    -1600.00
04330               1.00    -2400.00
04331               0.40    -3200.00
04332               0.20    -4000.00
04333               1.20    -4000.00
04334               8.20    -4800.00
04335              25.00    -6400.00
04336              -7.60    -7200.00
04337             -25.00    -8000.00
04338              10.60    -8000.00
04339              21.80    -8800.00
04340             -25.00    -8000.00
04341               4.40    -8800.00
04342              25.00   -10400.00
04343             -25.00   -10400.00
04344               6.80   -11200.00
04345              25.00   -12800.00
04346             -25.00   -12800.00
04347              25.00   -12800.00
04348              20.00   -12800.00
04349             -25.00   -13600.00
04350              25.00   -14400.00
04351             -25.00   -14400.00
04352               8.40   -16000.00
04353              23.40   -16000.00
04354             -25.00   -16000.00
04355               7.40   -16800.00
04356              23.60   -17600.00
04357             -23.40   -17600.00
04358              -9.00   -18400.00
04359              25.00   -19200.00
04360             -25.00   -19200.00
04361              -0.20   -20000.00
04362              25.00   -20000.00
04363             -23.80   -20800.00
04364               3.00   -21600.00
04365              14.00   -22400.00
04366             -13.00   -22400.00
04367               0.20   -23200.00
04368              14.40   -23200.00
04369              -9.80   -24000.00
04370               4.20   -24000.00
04371               8.60   -24800.00
04372             -11.00   -24800.00
04373               7.60   -25600.00
04374               1.80   -25600.00
04375              -3.40   -26400.00
04376               4.60   -26400.00
04377               3.80   -26400.00
04378              -3.80   -27200.00
04379               3.60   -27200.00
04380               6.00   -27200.00
04381              -5.20   -27200.00
04382               6.00   -28800.00
04383               3.40   -28800.00
04384              -4.20   -28800.00
04385               5.40   -29600.00
04386               2.60   -29600.00
04387              -2.00   -29600.00
04388               5.40   -29600.00
04389               1.80   -29600.00
04390              -0.80   -30400.00
04391               4.40   -31200.00
04392               1.40   -30400.00
04393               0.20   -31200.00
04394               3.60   -32000.00
04395               2.60   -32000.00
04396               0.60   -32000.00
04397               2.80   -32000.00
04398               2.00   -32000.00
04399               0.20   -32000.00
04400               3.40   -32000.00
04401               1.80   -32000.00
04402               1.40   -32000.00
04403               2.80   -32000.00
04404               2.00   -32000.00
04405               2.20   -32000.00
04406               1.80   -32000.00
04407               1.80   -32000.00
04408               2.00   -32000.00
04409               2.00   -32000.00
04410               2.60   -32000.00
04411               1.60   -32000.00
04412               2.60   -32800.00
04413               2.60   -32000.00
04414               2.00   -32000.00
04415               2.80   -32000.00
04416               3.40   -32000.00
04417               0.60   -32000.00
04418               2.40   -32000.00
04419               1.80   -32000.00
04420               0.40   -32000.00
04421               2.00   -31200.00
04422               2.00   -32000.00
04423               2.60   -31200.00
04424               2.60   -30400.00
04425               2.60   -30400.00
04426               2.80   -30400.00
04427               1.00   -30400.00
04428               1.40   -29600.00
04429               1.60   -29600.00
04430               0.60   -28800.00
04431               1.80   -29600.00
04432               3.00   -28800.00
04433               2.00   -28800.00
04434               2.00   -28800.00
04435               2.80   -28000.00
04436               1.40   -28000.00
04437               1.20   -27200.00
04438               1.40   -27200.00
04439               0.20   -27200.00
04440               1.60   -26400.00
04441               1.80   -25600.00
04442               2.20   -26400.00
04443               2.60   -25600.00
04444               1.80   -24800.00
04445               2.60   -24000.00
04446               1.40   -24800.00
04447               1.20   -24000.00
04448               1.40   -24000.00
04449               1.00   -23200.00
04450               1.00   -22400.00
04451               1.20   -22400.00
04452               1.60   -22400.00
04453               2.00   -21600.00
04454               1.80   -20800.00
04455               1.40   -20000.00
04456               0.60   -20000.00
04457               0.60   -20000.00
04458               1.00   -18400.00
04459               1.40   -18400.00
04460               1.80   -18400.00
04461               1.80   -17600.00
04462               1.40   -16800.00
04463               1.20   -16000.00
04464               1.00   -16000.00
04465               0.60   -15200.00
04466               0.20   -14400.00
04467               0.40   -14400.00
04468               1.00   -13600.00
04469               0.60   -13600.00
04470               1.20   -12800.00
04471               1.20   -12800.00
04472               1.20   -11200.00
04473               1.20   -11200.00
04474               0.40   -10400.00
04475               0.20   -10400.00
04476              -0.20    -9600.00
04477               0.20    -8000.00
04478               0.80    -8000.00
04479               0.60    -7200.00
04480               0.60    -7200.00
04481               0.40    -6400.00
04482               0.40    -5600.00
04483               0.20    -4800.00
04484               0.20    -4800.00
04485               0.20    -4000.00
04486               0.40    -3200.00
04487               0.20    -3200.00
04488              -0.20    -1600.00
04489               0.20    -1600.00
04490               0.20     -800.00
04491               0.40        0.00
04492               0.20      800.00
04493               0.20        0.00
04494               2.00     1600.00
04495               2.20     1600.00
04496              -3.00     2400.00
04497               0.20     3200.00
04498               1.40     3200.00
04499              -1.40     3200.00
04500               3.60     4800.00
04501              25.00     5600.00
04502              12.20     7200.00
04503             -25.00     7200.00
04504              -2.80     8000.00
04505              25.00     8000.00
04506             -25.00     8000.00
04507              20.20     8800.00
04508              25.00     9600.00
04509             -25.00     9600.00
04510              25.00    11200.00
04511              25.00    11200.00
04512             -25.00    12000.00
04513              25.00    12800.00
04514             -25.00    12800.00
04515               1.00    13600.00
04516              25.00    14400.00
04517             -25.00    14400.00
04518              25.00    15200.00
04519               4.60    16000.00
04520             -25.00    16000.00
04521              25.00    16800.00
04522               9.40    17600.00
04523             -25.00    17600.00
04524               5.20    18400.00
04525              25.00    19200.00
04526             -25.00    19200.00
04527              19.40    20800.00
04528              22.20    20800.00
04529             -25.00    21600.00
04530              19.00    21600.00
04531              -4.80    21600.00
04532             -13.80    22400.00
04533               3.80    23200.00
04534               5.80    23200.00
04535             -13.20    24000.00
04536              10.60    24000.00
04537              -1.00    24800.00
04538             -14.00    24800.00
04539              10.80    24800.00
04540              -9.40    25600.00
04541              -2.20    25600.00
04542               2.60    27200.00
04543              -1.20    26400.00
04544              -7.00    27200.00
04545               2.00    27200.00
04546              -0.60    28000.00
04547             -10.00    28000.00
04548               6.60    28000.00
04549              -4.60    28800.00
04550              -7.00    28800.00
04551               3.60    28800.00
04552              -4.40    29600.00
04553              -4.40    29600.00
04554               2.60    30400.00
04555              -3.60    30400.00
04556              -4.40    30400.00
04557               0.20    31200.00
04558              -3.80    31200.00
04559              -3.40    31200.00
04560              -1.80    31200.00
04561              -2.60    31200.00
04562              -2.80    31200.00
04563              -0.40    32000.00
04564              -4.20    32000.00
04565              -4.20    31200.00
04566               0.40    32800.00
04567              -4.60    32000.00
04568              -1.80    32800.00
04569              -1.00    32800.00
04570              -4.40    32800.00
04571              -1.40    32000.00
04572              -3.00    32800.00
04573              -3.00    32000.00
04574              -3.20    32800.00
04575              -2.20    32000.00
04576              -1.40    32800.00
04577              -3.60    32000.00
04578              -2.20    32000.00
04579              -2.20    32800.00
04580              -2.40    32000.00
04581              -2.20    32800.00
04582              -3.60    32800.00
04583              -2.20    32800.00
04584              -3.40    32000.00
04585              -2.60    32000.00
04586              -1.80    32000.00
04587              -3.60    32000.00
04588              -2.80    31200.00
04589              -1.80    31200.00
04590              -2.20    31200.00
04591              -3.80    31200.00
04592              -2.80    30400.00
04593              -1.00    30400.00
04594              -2.80    30400.00
04595              -3.00    30400.00
04596              -1.20    30400.00
04597              -2.80    30400.00
04598              -3.00    29600.00
04599              -1.40    29600.00
04600              -2.80    28800.00
04601              -3.00    28800.00
04602              -2.20    28000.00
04603              -1.60    28000.00
04604              -2.80    27200.00
04605              -2.80    27200.00
04606              -1.40    27200.00
04607              -2.60    27200.00
04608              -2.60    26400.00
04609              -1.60    25600.00
04610              -2.60    25600.00
04611              -2.20    24800.00
04612              -2.00    24800.00
04613              -1.80    24800.00
04614              -3.00    24000.00
04615              -2.00    24000.00
04616              -1.40    22400.00
04617              -2.80    22400.00
04618              -2.00    22400.00
04619              -2.00    21600.00
04620              -2.40    21600.00
04621              -1.80    20800.00
04622              -2.20    20800.00
04623              -2.00    20000.00
04624              -2.60    19200.00
04625              -2.20    19200.00
04626              -1.80    18400.00
04627              -2.00    17600.00
04628              -2.00    17600.00
04629              -2.00    16800.00
04630              -1.80    16000.00
04631              -1.80    15200.00
04632              -2.00    16000.00
04633              -2.00    15200.00
04634              -1.80    14400.00
04635              -1.40    13600.00
04636              -1.40    12800.00
04637              -2.20    12800.00
04638              -1.40    12000.00
04639              -1.20    11200.00
04640              -1.80    11200.00
04641              -1.80    10400.00
04642              -1.20     9600.00
04643              -1.40     9600.00
04644              -1.40     8000.00
04645              -1.00     8000.00
04646              -1.00     7200.00
04647              -1.20     7200.00
04648              -1.20     6400.00
04649              -1.00     5600.00
04650              -1.00     4800.00
04651              -1.40     4800.00
04652              -1.20     4000.00
04653              -0.60     3200.00
04654              -0.60     2400.00
04655              -1.00     2400.00
04656              -0.40     1600.00
04657              -0.60      800.00
04658              -0.40        0.00
04659               0.00        0.00
04660               0.20     -800.00
04661               3.00    -1600.00
04662               0.00    -1600.00
04663              -1.80    -1600.00
04664               1.80    -3200.00
04665               0.40    -3200.00
04666              -0.60    -4000.00
04667               2.60    -4800.00
04668              15.00    -4800.00
04669              24.40    -6400.00
04670             -25.00    -7200.00
04671             -25.00    -8000.00
04672              25.00    -8000.00
04673              -2.60    -8800.00
04674             -25.00    -8000.00
04675              25.00    -9600.00
04676              25.00   -10400.00
04677             -25.00   -10400.00
04678              25.00   -11200.00
04679              16.00   -11200.00
04680             -25.00   -12000.00
04681              25.00   -13600.00
04682             -25.00   -13600.00
04683               3.40   -13600.00
04684              16.80   -14400.00
04685             -25.00   -15200.00
04686              25.00   -16000.00
04687              -3.00   -16000.00
04688             -21.60   -16800.00
04689              23.80   -17600.00
04690               9.20   -17600.00
04691             -25.00   -17600.00
04692              18.00   -19200.00
04693              16.60   -19200.00
04694             -25.00   -18400.00
04695              25.00   -20800.00
04696              10.80   -20000.00
04697             -23.00   -21600.00
04698              16.20   -22400.00
04699               1.40   -22400.00
04700             -13.80   -22400.00
04701              10.60   -22400.00
04702               6.80   -23200.00
04703             -11.00   -24000.00
04704              14.20   -24000.00
04705              -1.40   -24800.00
04706              -6.80   -24000.00
04707              10.60   -25600.00
04708              -3.80   -25600.00
04709              -0.60   -26400.00
04710               7.00   -26400.00
04711               0.80   -27200.00
04712              -3.80   -27200.00
04713               7.80   -27200.00
04714               0.40   -28800.00
04715              -3.20   -28000.00
04716               8.80   -28800.00
04717              -1.40   -28800.00
04718              -1.00   -28800.00
04719               6.00   -28800.00
04720              -0.60   -29600.00
04721               0.40   -29600.00
04722               5.80   -29600.00
04723              -0.20   -30400.00
04724               1.00   -31200.00
04725               4.20   -30400.00
04726              -0.20   -31200.00
04727               1.20   -31200.00
04728               4.20   -31200.00
04729               1.80   -32000.00
04730               0.60   -32000.00
04731               3.80   -32000.00
04732               0.40   -32000.00
04733               1.20   -32000.00
04734               3.80   -31200.00
04735               0.80   -32000.00
04736               2.60   -32000.00
04737               2.80   -32000.00
04738               1.80   -32000.00
04739               2.40   -32000.00
04740               1.80   -32000.00
04741               2.20   -32000.00
04742               2.00   -32000.00
04743               2.80   -32000.00
04744               2.20   -32000.00
04745               1.40   -32000.00
04746               2.60   -32800.00
04747               1.40   -32000.00
04748               1.80   -32000.00
04749               2.20   -32800.00
04750               1.80   -32000.00
04751               1.80   -32000.00
04752               2.20   -32000.00
04753               2.20   -32000.00
04754               1.40   -31200.00
04755               2.20   -32000.00
04756               2.60   -30400.00
04757               1.20   -31200.00
04758               2.00   -31200.00
04759               1.60   -30400.00
04760               1.40   -30400.00
04761               2.80   -30400.00
04762               1.80   -29600.00
04763               1.80   -29600.00
04764               2.60   -29600.00
04765               1.40   -28800.00
04766               2.00   -28800.00
04767               2.40   -28800.00
04768               1.40   -28800.00
04769               1.80   -28000.00
04770               2.60   -28000.00
04771               1.40   -28000.00
04772               1.20   -27200.00
04773               2.00   -27200.00
04774               1.40   -26400.00
04775               1.80   -25600.00
04776               2.00   -25600.00
04777               1.00   -24800.00
04778               1.80   -25600.00
04779               2.20   -24800.00
04780               1.20   -24000.00
04781               2.00   -24000.00
04782               1.80   -23200.00
04783               1.40   -23200.00
04784               1.40   -22400.00
04785               1.80   -22400.00
04786               1.20   -22400.00
04787               1.20   -20800.00
04788               1.40   -20800.00
04789               1.40   -20000.00
04790               1.00   -20000.00
04791               1.40   -19200.00
04792               1.40   -18400.00
04793               1.40   -18400.00
04794               1.40   -17600.00
04795               1.80   -17600.00
04796               1.40   -16800.00
04797               0.60   -16800.00
04798               1.40   -15200.00
04799               1.40   -16000.00
04800               0.40   -14400.00
04801               1.00   -14400.00
04802               1.00   -13600.00
04803               0.40   -12800.00
04804               0.60   -12800.00
04805               1.00   -11200.00
04806               1.20   -11200.00
04807               0.40   -10400.00
04808               0.40   -10400.00
04809               1.00    -9600.00
04810               0.40    -9600.00
04811               0.40    -8000.00
04812               0.60    -8000.00
04813               0.40    -7200.00
04814               0.00    -7200.00
04815              -0.20    -6400.00
04816               0.60    -5600.00
04817               0.40    -4800.00
04818              -0.40    -4000.00
04819               0.40    -3200.00
04820               0.40    -3200.00
04821              -0.40    -2400.00
04822              -0.20    -1600.00
04823              -0.20    -1600.00
04824              -0.40     -800.00
04825               0.20        0.00
04826               0.40        0.00
04827               0.60     1600.00
04828               3.00     1600.00
04829              -0.20     1600.00
04830              -2.00     2400.00
04831               1.00     2400.00
04832               0.40     3200.00
04833              -1.20     3200.00
04834               9.80     4800.00
04835              25.00     6400.00
04836             -21.80     7200.00
04837             -25.00     8000.00
04838              22.80     8000.00
04839               5.80     8000.00
04840             -25.00     8000.00
04841              25.00     9600.00
04842              -4.20     9600.00
04843             -25.00    10400.00
04844              25.00    11200.00
04845             -25.00    11200.00
04846             -16.60    12000.00
04847              25.00    12800.00
04848             -25.00    12800.00
04849              25.00    14400.00
04850             -11.80    14400.00
04851             -25.00    15200.00
04852              25.00    16000.00
04853             -25.00    15200.00
04854              -7.20    16000.00
04855              25.00    17600.00
04856             -11.60    17600.00
04857             -25.00    17600.00
04858              25.00    18400.00
04859               0.20    19200.00
04860             -25.00    19200.00
04861              25.00    20800.00
04862             -14.60    20800.00
04863             -13.80    21600.00
04864              18.60    21600.00
04865             -15.40    21600.00
04866              -6.20    22400.00
04867               8.20    23200.00
04868              -3.80    23200.00
04869              -8.60    24000.00
04870              15.40    24000.00
04871             -14.20    24000.00
04872              -0.60    24800.00
04873               5.40    25600.00
04874             -11.60    26400.00
04875               2.00    25600.00
04876               1.00    27200.00
04877              -2.80    27200.00
04878              -5.80    27200.00
04879               5.80    27200.00
04880              -8.40    27200.00
04881              -3.60    28000.00
04882               5.40    28800.00
04883             -10.20    28800.00
04884              -1.20    28800.00
04885               1.40    30400.00
04886              -6.60    28800.00
04887              -0.20    29600.00
04888               0.40    30400.00
04889              -5.80    30400.00
04890              -1.20    30400.00
04891              -1.20    31200.00
04892              -4.60    31200.00
04893              -2.20    30400.00
04894              -1.80    31200.00
04895              -3.00    31200.00
04896              -2.60    32000.00
04897              -1.20    32000.00
04898              -5.40    32000.00
04899              -2.20    32800.00
04900              -1.00    32000.00
04901              -4.60    32800.00
04902              -0.40    32000.00
04903              -3.20    32800.00
04904              -2.80    32000.00
04905              -1.60    32800.00
04906              -3.00    32800.00
04907              -2.60    32800.00
04908              -3.20    32800.00
04909              -1.40    32000.00
04910              -2.80    32800.00
04911              -3.40    32800.00
04912              -2.00    32000.00
04913              -3.00    32800.00
04914              -1.80    32000.00
04915              -2.80    32000.00
04916              -3.40    32800.00
04917              -2.00    32800.00
04918              -2.80    32000.00
04919              -2.20    32000.00
04920              -2.60    32000.00
04921              -2.80    31200.00
04922              -2.20    31200.00
04923              -2.80    31200.00
04924              -2.40    31200.00
04925              -3.00    31200.00
04926              -2.60    31200.00
04927              -1.80    30400.00
04928              -2.40    30400.00
04929              -2.00    30400.00
04930              -2.80    29600.00
04931              -2.80    29600.00
04932              -1.40    29600.00
04933              -2.80    28800.00
04934              -2.80    28800.00
04935              -2.00    28800.00
04936              -2.00    28800.00
04937              -2.60    28000.00
04938              -2.80    27200.00
04939              -2.20    27200.00
04940              -2.80    27200.00
04941              -2.60    26400.00
04942              -1.80    26400.00
04943              -2.80    25600.00
04944              -2.60    25600.00
04945              -2.20    24800.00
04946              -2.20    24800.00
04947              -2.20    24000.00
04948              -3.00    24000.00
04949              -1.80    24000.00
04950              -2.20    22400.00
04951              -2.40    22400.00
04952              -1.80    22400.00
04953              -2.20    21600.00
04954              -2.20    21600.00
04955              -1.80    20800.00
04956              -2.40    20800.00
04957              -2.60    19200.00
04958              -1.80    19200.00
04959              -1.80    18400.00
04960              -2.60    18400.00
04961              -2.20    17600.00
04962              -2.20    17600.00
04963              -2.60    17600.00
04964              -1.40    16000.00
04965              -1.00    15200.00
04966              -1.80    15200.00
04967              -1.80    14400.00
04968              -1.20    13600.00
04969              -1.80    13600.00
04970              -2.00    12800.00
04971              -2.00    12800.00
04972              -1.00    12000.00
04973              -1.80    11200.00
04974              -1.40    11200.00
04975              -1.20     9600.00
04976              -1.80     9600.00
04977              -2.20     8800.00
04978              -1.00     8800.00
04979              -1.20     8000.00
04980              -1.00     8000.00
04981              -0.80     6400.00
04982              -0.60     6400.00
04983              -1.00     5600.00
04984              -1.00     4800.00
04985              -1.40     4800.00
04986              -0.60     3200.00
04987              -0.60     2400.00
04988              -1.40     2400.00
04989              -1.20     2400.00
04990              -0.60     1600.00
04991              -0.80        0.00
04992              -0.40        0.00
04993               0.20     -800.00
04994               1.40     -800.00
04995               3.40    -1600.00
04996              -1.80    -2400.00
04997              -0.40    -2400.00
04998               1.40    -3200.00
04999               0.20    -4000.00
05000              -0.40    -4000.00
