Unit:(mV)
                     CH1         CH2
Frequency              ? 300.098 kHz
00001               0.60    -4000.00
00002               7.40    -4800.00
00003              23.60    -6400.00
00004               3.60    -7200.00
00005             -25.00    -8000.00
00006               1.20    -8000.00
00007              24.20    -8000.00
00008             -25.00    -9600.00
00009             -21.40    -9600.00
00010              25.00   -10400.00
00011              -7.20   -10400.00
00012             -25.00   -10400.00
00013              25.00   -12000.00
00014             -25.00   -12000.00
00015             -25.00   -12800.00
00016              25.00   -13600.00
00017             -25.00   -13600.00
00018              25.00   -14400.00
00019             -15.00   -14400.00
00020              -9.00   -16000.00
00021              25.00   -16000.00
00022             -25.00   -16800.00
00023              -3.00   -17600.00
00024              25.00   -17600.00
00025             -17.60   -17600.00
00026             -17.40   -19200.00
00027              25.00   -18400.00
00028             -14.00   -20000.00
00029             -11.80   -20000.00
00030              25.00   -20000.00
00031             -18.00   -20800.00
00032               0.40   -21600.00
00033              15.40   -22400.00
00034             -15.60   -22400.00
00035               3.80   -23200.00
00036              12.60   -23200.00
00037              -9.40   -24000.00
00038               5.20   -24000.00
00039              11.60   -24800.00
00040             -13.40   -25600.00
00041              10.00   -25600.00
00042               4.20   -26400.00
00043              -7.60   -26400.00
00044              10.00   -26400.00
00045               0.40   -27200.00
00046              -2.00   -27200.00
00047               5.80   -27200.00
00048               2.20   -28800.00
00049              -1.80   -28800.00
00050               6.20   -28800.00
00051               1.00   -28800.00
00052              -1.40   -28800.00
00053               6.20   -29600.00
00054              -0.40   -29600.00
00055               1.40   -29600.00
00056               5.80   -30400.00
00057               0.20   -30400.00
00058               1.80   -30400.00
00059               4.40   -30400.00
00060              -0.40   -30400.00
00061               2.80   -31200.00
00062               3.80   -32000.00
00063               1.00   -32000.00
00064               3.80   -32000.00
00065               1.40   -32000.00
00066               1.20   -32000.00
00067               2.20   -32000.00
00068               2.60   -32000.00
00069               2.00   -32000.00
00070               2.80   -32000.00
00071               3.00   -32800.00
00072               1.80   -32800.00
00073               2.80   -32000.00
00074               1.80   -32800.00
00075               2.60   -32800.00
00076               3.40   -32800.00
00077               1.60   -32000.00
00078               2.80   -32000.00
00079               2.00   -32800.00
00080               1.00   -32800.00
00081               2.60   -32800.00
00082               2.60   -32800.00
00083               1.80   -32000.00
00084               2.20   -32000.00
00085               2.80   -32000.00
00086               1.80   -32000.00
00087               2.00   -32000.00
00088               2.80   -32000.00
00089               2.00   -32000.00
00090               2.60   -32000.00
00091               2.60   -31200.00
00092               1.80   -31200.00
00093               2.60   -30400.00
00094               1.80   -30400.00
00095               2.00   -30400.00
00096               2.80   -30400.00
00097               0.80   -29600.00
00098               1.60   -29600.00
00099               2.40   -29600.00
00100               1.80   -28800.00
00101               1.80   -29600.00
00102               2.20   -28800.00
00103               1.80   -28800.00
00104               1.40   -28000.00
00105               2.00   -27200.00
00106               1.80   -27200.00
00107               1.80   -27200.00
00108               2.60   -27200.00
00109               1.80   -26400.00
00110               1.80   -25600.00
00111               2.00   -25600.00
00112               1.20   -25600.00
00113               2.00   -24800.00
00114               2.00   -24000.00
00115               1.20   -24000.00
00116               1.80   -23200.00
00117               1.40   -23200.00
00118               1.40   -23200.00
00119               1.80   -22400.00
00120               1.40   -22400.00
00121               1.00   -20800.00
00122               2.00   -20800.00
00123               1.80   -20000.00
00124               0.40   -20000.00
00125               1.80   -18400.00
00126               1.20   -19200.00
00127               1.00   -18400.00
00128               1.80   -17600.00
00129               1.00   -17600.00
00130               0.60   -16800.00
00131               1.20   -16000.00
00132               0.40   -16000.00
00133               1.00   -14400.00
00134               1.40   -14400.00
00135               0.40   -14400.00
00136               1.20   -13600.00
00137               1.00   -12800.00
00138               0.60   -12800.00
00139               0.60   -12000.00
00140               0.60   -11200.00
00141               0.60   -11200.00
00142               0.40   -10400.00
00143               0.40    -9600.00
00144               0.40    -9600.00
00145              -0.20    -8800.00
00146               0.40    -8000.00
00147               0.20    -7200.00
00148               0.40    -6400.00
00149               0.20    -6400.00
00150               0.00    -4800.00
00151               0.20    -4800.00
00152               0.20    -4000.00
00153              -0.20    -4000.00
00154               0.00    -3200.00
00155               0.20    -2400.00
00156              -0.40    -1600.00
00157              -0.40    -1600.00
00158              -0.60     -800.00
00159              -0.20        0.00
00160               0.20        0.00
00161              -0.20     1600.00
00162               2.60     1600.00
00163               1.00     2400.00
00164              -2.60     2400.00
00165               0.60     4000.00
00166               1.00     3200.00
00167              -2.20     4800.00
00168               5.00     4800.00
00169              25.00     6400.00
00170               8.60     7200.00
00171             -25.00     8000.00
00172               0.20     8000.00
00173              24.20     8800.00
00174             -25.00     8800.00
00175               2.20     9600.00
00176              25.00     9600.00
00177             -25.00     9600.00
00178              25.00    11200.00
00179              25.00    11200.00
00180             -25.00    12000.00
00181              25.00    12800.00
00182             -25.00    12800.00
00183              -4.40    14400.00
00184              25.00    14400.00
00185             -25.00    14400.00
00186              25.00    16000.00
00187              19.40    16000.00
00188             -25.00    16000.00
00189              25.00    16800.00
00190               8.40    17600.00
00191             -25.00    18400.00
00192              10.60    19200.00
00193              25.00    19200.00
00194             -25.00    19200.00
00195              22.20    20800.00
00196              14.20    20800.00
00197             -25.00    21600.00
00198              25.00    21600.00
00199             -16.80    22400.00
00200             -11.60    22400.00
00201              12.60    24000.00
00202              -6.60    24000.00
00203              -9.00    24000.00
00204              15.40    24800.00
00205             -10.00    24800.00
00206             -10.60    24800.00
00207              14.60    25600.00
00208             -17.80    26400.00
00209               2.20    25600.00
00210               4.40    27200.00
00211              -8.60    27200.00
00212              -0.20    27200.00
00213               0.40    28000.00
00214              -5.40    28000.00
00215              -3.40    28800.00
00216               3.40    28800.00
00217              -8.40    28800.00
00218              -1.20    28800.00
00219               0.40    29600.00
00220              -7.40    30400.00
00221               0.80    30400.00
00222              -0.60    30400.00
00223              -6.20    30400.00
00224               0.20    31200.00
00225              -2.80    31200.00
00226              -6.00    31200.00
00227               0.40    32000.00
00228              -4.40    32000.00
00229              -2.60    31200.00
00230              -0.60    32800.00
00231              -4.00    32000.00
00232              -3.00    32800.00
00233              -3.00    32000.00
00234              -2.60    32000.00
00235              -3.80    32800.00
00236              -1.60    32800.00
00237              -3.00    32800.00
00238              -3.60    32000.00
00239              -1.00    32800.00
00240              -4.60    32800.00
00241              -2.20    32800.00
00242              -2.60    32800.00
00243              -3.80    32800.00
00244              -1.00    33600.00
00245              -3.80    33600.00
00246              -2.80    32800.00
00247              -1.80    33600.00
00248              -3.40    33600.00
00249              -3.00    32800.00
00250              -2.80    32800.00
00251              -2.80    32800.00
00252              -3.00    32800.00
00253              -2.20    32000.00
00254              -2.60    32800.00
00255              -3.40    31200.00
00256              -2.20    32000.00
00257              -2.80    31200.00
00258              -2.80    32000.00
00259              -2.20    31200.00
00260              -3.40    31200.00
00261              -2.20    31200.00
00262              -2.20    31200.00
00263              -3.40    31200.00
00264              -2.20    30400.00
00265              -2.60    30400.00
00266              -2.80    30400.00
00267              -2.20    29600.00
00268              -2.80    29600.00
00269              -2.80    28800.00
00270              -2.60    28800.00
00271              -2.00    28000.00
00272              -3.60    28000.00
00273              -2.40    28000.00
00274              -2.20    26400.00
00275              -3.40    27200.00
00276              -1.40    26400.00
00277              -2.20    26400.00
00278              -2.00    25600.00
00279              -1.40    25600.00
00280              -3.60    24800.00
00281              -1.80    24800.00
00282              -3.80    24000.00
00283              -3.80    24000.00
00284              -1.80    23200.00
00285              -3.00    22400.00
00286              -1.20    22400.00
00287              -1.00    21600.00
00288              -1.40    21600.00
00289              -1.20    21600.00
00290              -3.40    20800.00
00291              -3.00    20800.00
00292              -3.00    19200.00
00293              -3.00    19200.00
00294              -1.20    18400.00
00295              -1.80    18400.00
00296              -1.80    17600.00
00297              -0.60    16800.00
00298              -1.40    16000.00
00299              -2.00    16000.00
00300              -1.80    15200.00
00301              -2.20    14400.00
00302              -2.60    14400.00
00303              -1.80    13600.00
00304              -1.20    12800.00
00305              -1.20    12800.00
00306              -0.60    12000.00
00307              -0.60    12000.00
00308              -1.40    11200.00
00309              -2.20    10400.00
00310              -2.00     9600.00
00311              -1.20     8800.00
00312              -2.00     8800.00
00313              -1.00     8000.00
00314              -0.40     8000.00
00315              -0.60     7200.00
00316              -0.40     6400.00
00317              -0.40     5600.00
00318              -1.20     4800.00
00319              -1.20     4800.00
00320              -1.40     4800.00
00321              -1.00     3200.00
00322              -0.40     2400.00
00323              -0.60     1600.00
00324              -0.20     1600.00
00325               0.20        0.00
00326              -0.40        0.00
00327               0.00        0.00
00328               1.20     -800.00
00329               2.60     -800.00
00330              -1.80    -1600.00
00331               0.20    -3200.00
00332               1.40    -3200.00
00333               0.80    -3200.00
00334              -0.20    -4000.00
00335               5.40    -4000.00
00336              19.60    -6400.00
00337              16.00    -7200.00
00338             -25.00    -7200.00
00339             -13.20    -8000.00
00340              25.00    -8000.00
00341             -16.20    -8800.00
00342             -25.00    -9600.00
00343              25.00    -9600.00
00344              25.00   -10400.00
00345             -25.00   -10400.00
00346              25.00   -11200.00
00347              10.00   -12000.00
00348             -25.00   -12800.00
00349              25.00   -13600.00
00350             -25.00   -13600.00
00351              13.80   -14400.00
00352               4.20   -14400.00
00353             -25.00   -16000.00
00354              25.00   -16000.00
00355             -17.00   -16800.00
00356             -17.40   -16800.00
00357              25.00   -17600.00
00358              -6.00   -17600.00
00359             -25.00   -18400.00
00360              25.00   -19200.00
00361               2.60   -19200.00
00362             -25.00   -20000.00
00363              25.00   -20800.00
00364              -6.20   -20800.00
00365             -11.40   -20800.00
00366              20.40   -22400.00
00367             -11.80   -22400.00
00368              -2.80   -23200.00
00369              14.00   -23200.00
00370              -5.00   -24000.00
00371              -1.00   -24000.00
00372              14.80   -24800.00
00373             -11.80   -24800.00
00374               4.40   -25600.00
00375               9.00   -25600.00
00376             -10.00   -26400.00
00377               8.60   -26400.00
00378               3.40   -26400.00
00379              -2.20   -27200.00
00380               3.60   -27200.00
00381               4.60   -27200.00
00382              -1.80   -28000.00
00383               3.00   -28800.00
00384               5.00   -28800.00
00385              -2.20   -28800.00
00386               3.80   -29600.00
00387               2.80   -29600.00
00388              -0.80   -29600.00
00389               4.60   -29600.00
00390               2.40   -30400.00
00391              -0.60   -30400.00
00392               4.80   -30400.00
00393               1.20   -30400.00
00394               1.00   -31200.00
00395               5.00   -31200.00
00396               1.00   -32000.00
00397               2.80   -32000.00
00398               2.60   -31200.00
00399               1.00   -32000.00
00400               2.20   -32000.00
00401               2.80   -32000.00
00402               2.00   -32000.00
00403               2.20   -32000.00
00404               3.00   -32000.00
00405               1.20   -32000.00
00406               2.80   -32800.00
00407               2.20   -32800.00
00408               1.40   -32800.00
00409               3.40   -32800.00
00410               1.40   -32800.00
00411               2.20   -32000.00
00412               3.40   -32800.00
00413               1.40   -32800.00
00414               2.60   -32800.00
00415               2.60   -32800.00
00416               1.20   -32000.00
00417               2.00   -32000.00
00418               2.60   -32000.00
00419               1.80   -32800.00
00420               2.40   -32000.00
00421               2.60   -31200.00
00422               1.80   -32000.00
00423               2.20   -31200.00
00424               2.40   -32000.00
00425               1.00   -30400.00
00426               2.20   -30400.00
00427               2.00   -32000.00
00428               1.20   -30400.00
00429               3.20   -30400.00
00430               2.20   -29600.00
00431               1.80   -29600.00
00432               2.80   -29600.00
00433               2.00   -28800.00
00434               1.40   -28800.00
00435               2.00   -28800.00
00436               2.00   -28000.00
00437               1.80   -28800.00
00438               2.00   -27200.00
00439               2.00   -27200.00
00440               1.80   -27200.00
00441               2.20   -26400.00
00442               2.00   -26400.00
00443               1.60   -25600.00
00444               2.20   -25600.00
00445               1.80   -25600.00
00446               1.80   -24800.00
00447               2.20   -24800.00
00448               1.60   -24000.00
00449               1.40   -24000.00
00450               2.00   -23200.00
00451               1.20   -22400.00
00452               1.00   -23200.00
00453               1.80   -20800.00
00454               1.20   -22400.00
00455               1.20   -20800.00
00456               2.20   -20800.00
00457               1.00   -20000.00
00458               1.20   -20000.00
00459               2.00   -18400.00
00460               0.40   -18400.00
00461               1.40   -17600.00
00462               1.80   -17600.00
00463               0.20   -16800.00
00464               1.40   -16000.00
00465               1.40   -16000.00
00466               0.40   -16000.00
00467               1.20   -14400.00
00468               1.20   -14400.00
00469               0.60   -14400.00
00470               0.60   -13600.00
00471               0.60   -12800.00
00472               0.40   -12000.00
00473               0.40   -12000.00
00474               1.20   -11200.00
00475               0.20   -10400.00
00476               1.00    -9600.00
00477               0.20    -9600.00
00478              -0.20    -8800.00
00479               0.60    -8000.00
00480               0.20    -7200.00
00481              -0.20    -7200.00
00482               0.40    -6400.00
00483              -0.20    -4800.00
00484              -0.20    -4800.00
00485               0.40    -4800.00
00486              -0.40    -3200.00
00487              -0.20    -3200.00
00488               0.20    -2400.00
00489              -0.60    -2400.00
00490              -0.40    -1600.00
00491              -0.20     -800.00
00492              -0.40        0.00
00493               0.20        0.00
00494               0.20      800.00
00495               1.80     1600.00
00496               2.20     2400.00
00497              -3.00     1600.00
00498              -0.20     3200.00
00499               1.40     3200.00
00500              -2.00     4000.00
00501               2.60     4800.00
00502              19.40     5600.00
00503              23.60     7200.00
00504             -25.00     7200.00
00505             -16.60     8000.00
00506              25.00     8000.00
00507             -22.80     8800.00
00508             -23.60     9600.00
00509              25.00    10400.00
00510             -25.00     9600.00
00511             -18.20    12000.00
00512              25.00    12000.00
00513             -25.00    12000.00
00514              25.00    12800.00
00515               9.00    12800.00
00516             -25.00    13600.00
00517              25.00    14400.00
00518             -25.00    14400.00
00519              17.40    15200.00
00520              25.00    16000.00
00521             -25.00    16000.00
00522              25.00    16000.00
00523              25.00    18400.00
00524             -25.00    18400.00
00525              -5.20    18400.00
00526              25.00    19200.00
00527             -25.00    19200.00
00528               2.20    20800.00
00529              25.00    20800.00
00530             -25.00    20800.00
00531              20.60    21600.00
00532              -4.20    22400.00
00533             -21.00    22400.00
00534              13.20    22400.00
00535              -1.80    24000.00
00536             -12.20    24000.00
00537              12.00    24800.00
00538              -1.20    24800.00
00539             -18.80    25600.00
00540              15.80    25600.00
00541             -12.40    25600.00
00542              -5.40    26400.00
00543               8.60    27200.00
00544              -9.60    27200.00
00545              -1.80    27200.00
00546               0.60    28000.00
00547              -3.80    28000.00
00548              -5.80    28000.00
00549               3.80    28800.00
00550              -6.80    28800.00
00551              -4.40    28800.00
00552               2.00    30400.00
00553              -7.00    30400.00
00554              -1.00    30400.00
00555               1.00    30400.00
00556              -6.20    30400.00
00557              -1.20    30400.00
00558              -1.20    31200.00
00559              -6.60    31200.00
00560              -0.20    32000.00
00561              -3.00    32800.00
00562              -3.80    32000.00
00563               0.20    32000.00
00564              -3.60    32800.00
00565              -3.60    32800.00
00566              -2.80    32000.00
00567              -2.20    32800.00
00568              -3.60    32800.00
00569              -2.00    33600.00
00570              -2.20    33600.00
00571              -4.20    32800.00
00572              -0.60    32800.00
00573              -4.40    32800.00
00574              -2.80    33600.00
00575              -1.80    32800.00
00576              -4.40    33600.00
00577              -1.00    33600.00
00578              -3.00    33600.00
00579              -3.60    32800.00
00580              -1.60    33600.00
00581              -2.80    32000.00
00582              -2.80    33600.00
00583              -2.80    33600.00
00584              -2.80    32800.00
00585              -2.80    32800.00
00586              -2.60    32000.00
00587              -2.60    32800.00
00588              -3.40    32800.00
00589              -2.00    32000.00
00590              -3.00    31200.00
00591              -3.00    32000.00
00592              -1.80    31200.00
00593              -3.80    32000.00
00594              -3.00    31200.00
00595              -1.20    30400.00
00596              -3.60    31200.00
00597              -2.80    30400.00
00598              -2.00    30400.00
00599              -3.40    29600.00
00600              -2.20    29600.00
00601              -2.80    28800.00
00602              -3.20    28800.00
00603              -2.00    28800.00
00604              -2.80    28000.00
00605              -2.80    28000.00
00606              -2.20    28000.00
00607              -2.80    27200.00
00608              -2.80    27200.00
00609              -2.00    27200.00
00610              -3.00    25600.00
00611              -3.00    25600.00
00612              -1.20    24800.00
00613              -3.00    24800.00
00614              -2.20    24800.00
00615              -2.00    24800.00
00616              -3.00    24000.00
00617              -2.00    24000.00
00618              -2.20    22400.00
00619              -2.60    22400.00
00620              -1.80    22400.00
00621              -2.20    21600.00
00622              -2.20    21600.00
00623              -2.00    20800.00
00624              -2.60    20800.00
00625              -2.40    19200.00
00626              -1.80    19200.00
00627              -2.00    18400.00
00628              -2.20    18400.00
00629              -1.40    17600.00
00630              -2.00    17600.00
00631              -2.00    16000.00
00632              -0.80    16000.00
00633              -2.60    15200.00
00634              -1.80    15200.00
00635              -1.40    14400.00
00636              -2.00    13600.00
00637              -1.20    13600.00
00638              -1.80    12800.00
00639              -1.60    12800.00
00640              -1.20    12000.00
00641              -1.20    11200.00
00642              -1.40    10400.00
00643              -1.80     9600.00
00644              -1.00     9600.00
00645              -1.00     8800.00
00646              -1.20     8000.00
00647              -0.60     8000.00
00648              -1.40     7200.00
00649              -1.00     6400.00
00650              -0.60     5600.00
00651              -1.20     5600.00
00652              -0.40     4800.00
00653              -1.00     4000.00
00654              -1.00     3200.00
00655              -0.40     3200.00
00656              -0.60     2400.00
00657              -1.00      800.00
00658              -0.40     1600.00
00659              -0.20        0.00
00660              -0.40        0.00
00661               0.80     -800.00
00662               3.80    -1600.00
00663              -1.20    -1600.00
00664              -0.60    -1600.00
00665               1.80    -3200.00
00666               0.40    -3200.00
00667              -1.00    -3200.00
00668               3.60    -4800.00
00669              14.80    -5600.00
00670              24.40    -6400.00
00671             -25.00    -7200.00
00672             -25.00    -8000.00
00673              25.00    -8000.00
00674              -1.60    -8800.00
00675             -25.00    -8800.00
00676              25.00    -9600.00
00677              25.00   -10400.00
00678             -25.00   -10400.00
00679              25.00   -11200.00
00680              25.00   -11200.00
00681             -25.00   -12000.00
00682              25.00   -13600.00
00683              -9.00   -13600.00
00684              -4.20   -14400.00
00685              21.20   -14400.00
00686             -25.00   -15200.00
00687              25.00   -16000.00
00688               1.40   -16000.00
00689             -25.00   -16800.00
00690              25.00   -17600.00
00691               7.60   -17600.00
00692             -25.00   -17600.00
00693              16.20   -18400.00
00694              18.00   -20000.00
00695             -25.00   -20000.00
00696              25.00   -20000.00
00697               7.40   -20800.00
00698             -19.80   -20800.00
00699              20.20   -22400.00
00700              -5.20   -22400.00
00701              -8.60   -23200.00
00702              13.40   -23200.00
00703               0.40   -24000.00
00704              -6.80   -24000.00
00705              16.20   -24000.00
00706              -6.00   -24000.00
00707              -3.60   -25600.00
00708              13.40   -25600.00
00709              -9.00   -26400.00
00710               4.00   -26400.00
00711               7.40   -26400.00
00712              -2.80   -27200.00
00713               1.80   -26400.00
00714               6.00   -27200.00
00715              -1.80   -28000.00
00716               1.80   -28800.00
00717               6.00   -28800.00
00718              -2.80   -28800.00
00719               3.60   -29600.00
00720               3.80   -29600.00
00721              -1.20   -29600.00
00722               4.40   -29600.00
00723               3.60   -30400.00
00724              -1.00   -30400.00
00725               4.20   -30400.00
00726               2.40   -30400.00
00727               0.00   -31200.00
00728               4.20   -31200.00
00729               2.00   -32000.00
00730               2.00   -32000.00
00731               3.00   -32000.00
00732               1.80   -32000.00
00733               1.20   -32000.00
00734               2.60   -32000.00
00735               2.20   -32000.00
00736               1.20   -32000.00
00737               3.60   -32000.00
00738               2.00   -32000.00
00739               1.80   -32000.00
00740               2.80   -32800.00
00741               1.00   -32800.00
00742               3.00   -32800.00
00743               2.20   -32800.00
00744               1.40   -32800.00
00745               3.00   -32000.00
00746               1.80   -32000.00
00747               2.00   -32800.00
00748               2.60   -32000.00
00749               2.20   -32800.00
00750               2.00   -32000.00
00751               2.00   -32800.00
00752               2.60   -32000.00
00753               2.00   -32000.00
00754               2.20   -31200.00
00755               2.80   -32000.00
00756               1.80   -31200.00
00757               2.60   -30400.00
00758               2.00   -31200.00
00759               1.80   -30400.00
00760               2.20   -30400.00
00761               1.80   -30400.00
00762               2.40   -30400.00
00763               2.80   -30400.00
00764               2.00   -29600.00
00765               2.20   -29600.00
00766               2.60   -29600.00
00767               2.00   -28800.00
00768               1.80   -28800.00
00769               2.80   -28800.00
00770               2.00   -28000.00
00771               1.80   -28000.00
00772               2.00   -27200.00
00773               1.40   -27200.00
00774               2.60   -26400.00
00775               2.20   -26400.00
00776               0.60   -25600.00
00777               2.60   -25600.00
00778               2.00   -25600.00
00779               1.00   -24800.00
00780               2.00   -25600.00
00781               2.60   -24000.00
00782               2.20   -24000.00
00783               0.60   -24000.00
00784               1.80   -22400.00
00785               2.20   -22400.00
00786              -0.20   -22400.00
00787               2.00   -22400.00
00788               2.60   -20800.00
00789               1.20   -20000.00
00790               2.20   -20000.00
00791               1.20   -20000.00
00792              -0.20   -19200.00
00793               1.00   -18400.00
00794               1.40   -17600.00
00795               1.20   -17600.00
00796               1.80   -16800.00
00797               1.00   -16000.00
00798               0.60   -16000.00
00799               1.60   -15200.00
00800              -0.60   -15200.00
00801               1.00   -15200.00
00802               1.80   -13600.00
00803              -0.20   -13600.00
00804               1.00   -12800.00
00805               0.40   -12800.00
00806              -0.60   -11200.00
00807               1.40   -11200.00
00808               1.20   -10400.00
00809              -0.60   -10400.00
00810               0.40    -9600.00
00811              -0.20    -8800.00
00812              -0.60    -8000.00
00813               0.80    -7200.00
00814               0.40    -7200.00
00815               0.40    -6400.00
00816               0.40    -6400.00
00817              -0.40    -4800.00
00818               0.00    -4000.00
00819              -0.40    -4000.00
00820              -0.60    -3200.00
00821               0.60    -2400.00
00822               0.40    -1600.00
00823              -1.00    -1600.00
00824               0.40     -800.00
00825              -0.20     -800.00
00826              -1.00        0.00
00827              -0.20      800.00
00828               1.60     1600.00
00829               2.60     2400.00
00830              -2.80     2400.00
00831               0.20     3200.00
00832               2.00     3200.00
00833              -1.40     4000.00
00834               0.60     4800.00
00835              13.80     5600.00
00836              25.00     7200.00
00837             -25.00     8000.00
00838             -25.00     8000.00
00839              25.00     8800.00
00840              -6.60     8000.00
00841             -25.00     8800.00
00842              25.00     9600.00
00843              -2.00     9600.00
00844             -25.00    11200.00
00845              25.00    12000.00
00846             -25.00    12000.00
00847              -5.20    12800.00
00848              25.00    12800.00
00849             -25.00    13600.00
00850              25.00    14400.00
00851             -25.00    14400.00
00852             -25.00    15200.00
00853              25.00    15200.00
00854             -25.00    16000.00
00855               5.40    16800.00
00856              25.00    17600.00
00857             -25.00    17600.00
00858             -19.40    18400.00
00859              25.00    19200.00
00860             -20.60    19200.00
00861             -19.80    20800.00
00862              25.00    20800.00
00863             -25.00    20800.00
00864               7.00    20800.00
00865              10.00    22400.00
00866             -25.00    22400.00
00867              11.40    22400.00
00868               2.80    24000.00
00869             -13.40    24000.00
00870               5.80    24800.00
00871               6.60    24800.00
00872             -22.00    25600.00
00873              12.20    25600.00
00874              -3.60    25600.00
00875             -12.20    26400.00
00876               9.80    27200.00
00877              -8.20    27200.00
00878              -3.20    27200.00
00879               1.00    28000.00
00880              -2.20    28000.00
00881              -6.60    28000.00
00882               2.20    28800.00
00883              -4.20    28800.00
00884              -6.80    28800.00
00885               2.80    28800.00
00886              -5.80    30400.00
00887              -3.40    30400.00
00888               2.00    30400.00
00889              -5.40    30400.00
00890              -2.80    30400.00
00891               0.00    31200.00
00892              -6.20    31200.00
00893              -1.20    31200.00
00894              -1.40    31200.00
00895              -4.60    32000.00
00896              -0.40    32000.00
00897              -3.00    32000.00
00898              -3.80    32800.00
00899              -2.60    32800.00
00900              -2.60    32000.00
00901              -2.80    32800.00
00902              -2.60    32800.00
00903              -2.00    32800.00
00904              -4.40    32800.00
00905              -1.20    32800.00
00906              -3.40    33600.00
00907              -3.60    33600.00
00908              -1.00    32800.00
00909              -4.20    32800.00
00910              -1.40    32800.00
00911              -2.20    32800.00
00912              -4.40    32800.00
00913              -2.00    32800.00
00914              -2.80    32800.00
00915              -3.00    33600.00
00916              -2.80    32000.00
00917              -3.00    32800.00
00918              -3.00    32000.00
00919              -2.80    32000.00
00920              -2.60    32800.00
00921              -2.80    32000.00
00922              -2.40    32800.00
00923              -2.80    32000.00
00924              -2.80    31200.00
00925              -2.20    32000.00
00926              -3.40    31200.00
00927              -2.80    31200.00
00928              -2.00    30400.00
00929              -3.20    31200.00
00930              -2.80    30400.00
00931              -3.00    30400.00
00932              -3.00    30400.00
00933              -2.40    30400.00
00934              -3.00    28800.00
00935              -2.60    28800.00
00936              -2.60    28800.00
00937              -2.80    28000.00
00938              -2.20    28000.00
00939              -2.80    28000.00
00940              -2.60    27200.00
00941              -2.40    27200.00
00942              -2.20    27200.00
00943              -2.60    26400.00
00944              -2.80    25600.00
00945              -2.20    25600.00
00946              -2.20    24800.00
00947              -2.80    24800.00
00948              -2.20    24000.00
00949              -2.80    24000.00
00950              -2.20    24000.00
00951              -2.20    23200.00
00952              -2.00    23200.00
00953              -2.00    22400.00
00954              -2.20    21600.00
00955              -1.80    21600.00
00956              -2.00    20800.00
00957              -2.40    20000.00
00958              -2.20    20000.00
00959              -2.20    18400.00
00960              -1.80    19200.00
00961              -2.00    18400.00
00962              -2.00    17600.00
00963              -1.80    17600.00
00964              -2.00    16000.00
00965              -1.40    16000.00
00966              -1.80    15200.00
00967              -1.80    15200.00
00968              -1.20    14400.00
00969              -1.60    14400.00
00970              -1.20    13600.00
00971              -1.40    12800.00
00972              -1.40    12000.00
00973              -1.20    12000.00
00974              -1.00    11200.00
00975              -1.20    11200.00
00976              -2.00    10400.00
00977              -1.00     9600.00
00978              -0.60     8800.00
00979              -1.40     8000.00
00980              -0.60     8000.00
00981              -2.00     7200.00
00982              -0.40     6400.00
00983               0.20     5600.00
00984              -1.80     5600.00
00985              -1.20     4800.00
00986               0.40     4000.00
00987              -1.20     3200.00
00988              -1.00     2400.00
00989              -0.20     2400.00
00990              -1.00     1600.00
00991              -0.40      800.00
00992              -0.40      800.00
00993              -0.60        0.00
00994               0.20     -800.00
00995               3.80    -1600.00
00996               0.20    -1600.00
00997              -2.20    -1600.00
00998               1.20    -3200.00
00999               1.40    -3200.00
01000              -0.60    -3200.00
01001               2.20    -4000.00
01002              11.80    -4800.00
01003              25.00    -6400.00
01004             -21.40    -7200.00
01005             -25.00    -8000.00
01006              18.80    -8000.00
01007              11.60    -8000.00
01008             -25.00    -8800.00
01009               7.80    -9600.00
01010              25.00   -10400.00
01011             -25.00   -10400.00
01012              -1.40   -11200.00
01013              25.00   -12800.00
01014             -25.00   -12000.00
01015              20.60   -12800.00
01016              15.00   -13600.00
01017             -20.40   -14400.00
01018              25.00   -14400.00
01019             -25.00   -14400.00
01020              20.20   -16000.00
01021              21.00   -16000.00
01022             -25.00   -16800.00
01023              18.40   -17600.00
01024              21.00   -17600.00
01025             -25.00   -18400.00
01026               1.80   -19200.00
01027              25.00   -19200.00
01028             -25.00   -18400.00
01029              11.60   -20000.00
01030              21.20   -20800.00
01031             -24.00   -20800.00
01032              15.40   -22400.00
01033               4.00   -22400.00
01034             -13.40   -23200.00
01035              10.80   -23200.00
01036               6.20   -23200.00
01037             -10.20   -24000.00
01038              14.00   -24000.00
01039               1.00   -24800.00
01040             -10.20   -24000.00
01041              14.60   -25600.00
01042              -4.40   -25600.00
01043              -1.40   -26400.00
01044              10.00   -27200.00
01045              -1.80   -27200.00
01046              -0.20   -27200.00
01047               6.20   -27200.00
01048               0.20   -28800.00
01049              -0.40   -28000.00
01050               6.60   -28800.00
01051              -1.80   -28800.00
01052               1.20   -28800.00
01053               5.40   -29600.00
01054              -1.20   -29600.00
01055               3.00   -30400.00
01056               4.40   -30400.00
01057              -1.20   -30400.00
01058               3.00   -30400.00
01059               3.40   -30400.00
01060              -0.60   -31200.00
01061               3.60   -31200.00
01062               2.80   -31200.00
01063               1.80   -32000.00
01064               2.80   -32000.00
01065               1.40   -32000.00
01066               1.20   -32000.00
01067               2.00   -32000.00
01068               2.00   -32000.00
01069               1.60   -32000.00
01070               3.40   -32800.00
01071               2.20   -32000.00
01072               1.80   -32800.00
01073               3.40   -32000.00
01074               0.60   -32800.00
01075               2.20   -32800.00
01076               2.60   -32800.00
01077               1.20   -32000.00
01078               3.40   -32800.00
01079               2.00   -32000.00
01080               1.80   -32800.00
01081               3.00   -32800.00
01082               1.80   -32800.00
01083               1.80   -32000.00
01084               2.60   -32800.00
01085               2.20   -32800.00
01086               1.40   -32000.00
01087               2.60   -32000.00
01088               2.40   -32000.00
01089               2.00   -32000.00
01090               2.80   -32000.00
01091               2.00   -31200.00
01092               2.00   -31200.00
01093               2.20   -29600.00
01094               1.80   -30400.00
01095               3.00   -31200.00
01096               2.20   -29600.00
01097               2.00   -29600.00
01098               2.60   -29600.00
01099               2.60   -28800.00
01100               1.40   -28800.00
01101               2.20   -28800.00
01102               2.40   -28800.00
01103               1.80   -28000.00
01104               1.80   -28000.00
01105               2.60   -27200.00
01106               1.80   -27200.00
01107               1.80   -27200.00
01108               2.00   -26400.00
01109               2.20   -26400.00
01110               1.80   -25600.00
01111               1.40   -25600.00
01112               2.00   -25600.00
01113               2.20   -24800.00
01114               1.40   -24800.00
01115               2.00   -24000.00
01116               1.60   -23200.00
01117               1.20   -23200.00
01118               1.80   -22400.00
01119               1.40   -22400.00
01120               1.00   -21600.00
01121               1.60   -20800.00
01122               1.40   -20800.00
01123               1.20   -20800.00
01124               1.00   -19200.00
01125               1.20   -20000.00
01126               1.20   -18400.00
01127               1.20   -18400.00
01128               1.40   -17600.00
01129               1.00   -16800.00
01130               1.00   -16800.00
01131               1.00   -16000.00
01132               0.60   -16000.00
01133               0.60   -15200.00
01134               1.00   -14400.00
01135               1.00   -14400.00
01136               0.60   -12800.00
01137               0.60   -13600.00
01138               0.40   -12800.00
01139               0.60   -12000.00
01140               1.00   -11200.00
01141               0.40   -11200.00
01142               0.60   -10400.00
01143               0.40    -9600.00
01144              -0.20    -8800.00
01145               0.40    -8000.00
01146               0.60    -8000.00
01147               0.20    -7200.00
01148               0.40    -6400.00
01149               0.40    -6400.00
01150              -0.20    -4800.00
01151               0.40    -4800.00
01152               0.40    -4000.00
01153              -0.20    -3200.00
01154               0.20    -3200.00
01155               0.20    -2400.00
01156              -0.60    -1600.00
01157              -0.20    -1600.00
01158              -0.20     -800.00
01159              -0.20        0.00
01160               0.40      800.00
01161               0.40     1600.00
01162               3.40     1600.00
01163              -1.60     1600.00
01164              -1.20     2400.00
01165               1.40     3200.00
01166               0.20     3200.00
01167              -1.20     4800.00
01168               9.20     4800.00
01169              25.00     6400.00
01170             -19.80     7200.00
01171             -25.00     8000.00
01172              19.80     8800.00
01173               8.40     8800.00
01174             -25.00     8800.00
01175              25.00     9600.00
01176              25.00     9600.00
01177             -25.00    10400.00
01178              25.00    11200.00
01179              -7.00    12000.00
01180             -25.00    12800.00
01181              25.00    12800.00
01182             -25.00    13600.00
01183              25.00    14400.00
01184               8.60    14400.00
01185             -25.00    15200.00
01186              25.00    15200.00
01187             -25.00    16000.00
01188             -23.60    17600.00
01189              25.00    16800.00
01190             -18.00    17600.00
01191             -25.00    18400.00
01192              25.00    19200.00
01193               1.20    20000.00
01194             -25.00    20000.00
01195              25.00    20800.00
01196             -18.20    21600.00
01197             -11.00    21600.00
01198              22.80    21600.00
01199             -25.00    22400.00
01200               3.00    23200.00
01201               7.80    24000.00
01202             -11.80    24000.00
01203              -1.40    24000.00
01204              13.80    24800.00
01205             -20.20    24800.00
01206               3.60    25600.00
01207               5.40    25600.00
01208             -17.80    25600.00
01209               9.20    27200.00
01210              -3.40    27200.00
01211              -6.00    27200.00
01212               1.00    28000.00
01213              -1.00    28000.00
01214              -7.00    28000.00
01215               0.60    28000.00
01216              -0.60    28800.00
01217              -8.60    28800.00
01218               2.00    29600.00
01219              -3.40    30400.00
01220              -5.60    29600.00
01221               2.60    30400.00
01222              -4.20    30400.00
01223              -4.60    31200.00
01224               0.60    31200.00
01225              -5.40    31200.00
01226              -3.20    32800.00
01227              -0.40    31200.00
01228              -5.00    32000.00
01229              -0.60    32000.00
01230              -2.20    32000.00
01231              -4.20    32000.00
01232              -2.80    32800.00
01233              -3.00    32000.00
01234              -2.60    32800.00
01235              -3.40    33600.00
01236              -1.20    32800.00
01237              -3.80    32000.00
01238              -2.20    32800.00
01239              -2.20    33600.00
01240              -4.40    33600.00
01241              -1.40    32800.00
01242              -4.20    32800.00
01243              -2.20    32800.00
01244              -1.40    32800.00
01245              -4.40    32800.00
01246              -2.20    32800.00
01247              -2.20    32000.00
01248              -3.00    33600.00
01249              -2.80    32800.00
01250              -3.00    32800.00
01251              -2.80    32000.00
01252              -3.00    32000.00
01253              -2.60    32800.00
01254              -3.00    31200.00
01255              -3.00    32800.00
01256              -2.60    32000.00
01257              -3.00    32000.00
01258              -2.60    32000.00
01259              -3.20    31200.00
01260              -3.20    31200.00
01261              -1.80    31200.00
01262              -3.20    30400.00
01263              -3.00    30400.00
01264              -2.60    30400.00
01265              -3.20    30400.00
01266              -2.60    29600.00
01267              -2.80    28800.00
01268              -3.00    28800.00
01269              -2.80    28800.00
01270              -2.80    28000.00
01271              -2.20    28000.00
01272              -2.80    27200.00
01273              -2.80    28000.00
01274              -2.40    27200.00
01275              -2.60    27200.00
01276              -2.20    26400.00
01277              -3.00    25600.00
01278              -2.20    25600.00
01279              -2.00    25600.00
01280              -2.60    24800.00
01281              -2.20    24800.00
01282              -2.20    24800.00
01283              -2.60    24000.00
01284              -2.00    24000.00
01285              -2.20    23200.00
01286              -2.20    22400.00
01287              -2.40    22400.00
01288              -1.80    21600.00
01289              -2.00    20800.00
01290              -2.20    20800.00
01291              -2.00    20000.00
01292              -2.40    19200.00
01293              -1.40    19200.00
01294              -1.80    18400.00
01295              -2.00    17600.00
01296              -1.20    16800.00
01297              -2.20    17600.00
01298              -1.40    16000.00
01299              -1.40    16000.00
01300              -2.20    15200.00
01301              -1.20    15200.00
01302              -2.00    14400.00
01303              -1.60    13600.00
01304              -1.20    12800.00
01305              -1.40    12000.00
01306              -1.20    12000.00
01307              -1.20    11200.00
01308              -1.40    11200.00
01309              -1.20    10400.00
01310              -1.20     9600.00
01311              -0.60     8800.00
01312              -1.40     8800.00
01313              -1.20     8000.00
01314              -1.00     7200.00
01315              -1.20     6400.00
01316              -1.20     6400.00
01317              -0.60     5600.00
01318              -1.20     4800.00
01319              -0.60     4000.00
01320              -1.20     3200.00
01321              -0.40     3200.00
01322              -1.00     2400.00
01323              -1.00     1600.00
01324              -0.60     1600.00
01325              -0.40        0.00
01326              -0.40        0.00
01327              -0.20     -800.00
01328               2.80    -1600.00
01329               1.20    -1600.00
01330              -2.20    -1600.00
01331               1.80    -2400.00
01332               0.80    -3200.00
01333              -0.60    -3200.00
01334               1.00    -4000.00
01335               7.80    -4800.00
01336              25.00    -6400.00
01337              -4.40    -7200.00
01338             -25.00    -8000.00
01339               8.20    -8000.00
01340              21.40    -8800.00
01341             -25.00    -8800.00
01342             -13.00    -8800.00
01343              25.00   -10400.00
01344             -25.00   -10400.00
01345             -25.00   -10400.00
01346              25.00   -11200.00
01347             -25.00   -12000.00
01348              -8.60   -12800.00
01349              25.00   -13600.00
01350             -25.00   -13600.00
01351              25.00   -14400.00
01352             -24.00   -15200.00
01353               1.00   -16000.00
01354              25.00   -16000.00
01355             -25.00   -16000.00
01356               4.40   -17600.00
01357              25.00   -17600.00
01358             -22.20   -17600.00
01359             -11.80   -18400.00
01360              25.00   -19200.00
01361             -21.40   -19200.00
01362              -4.60   -20800.00
01363              25.00   -20000.00
01364             -21.40   -21600.00
01365               5.20   -21600.00
01366              12.40   -22400.00
01367             -15.40   -23200.00
01368               6.40   -22400.00
01369              11.60   -23200.00
01370             -10.40   -24000.00
01371               8.60   -24000.00
01372               8.60   -24800.00
01373             -13.80   -24800.00
01374              12.60   -25600.00
01375               0.60   -25600.00
01376              -6.00   -26400.00
01377              11.60   -26400.00
01378              -1.20   -27200.00
01379              -1.20   -27200.00
01380               6.80   -27200.00
01381               0.20   -28000.00
01382              -1.40   -28800.00
01383               6.60   -28800.00
01384              -0.60   -29600.00
01385              -0.20   -28800.00
01386               6.00   -29600.00
01387              -1.00   -29600.00
01388               1.80   -29600.00
01389               5.40   -29600.00
01390               0.00   -30400.00
01391               1.60   -29600.00
01392               4.40   -30400.00
01393              -1.00   -31200.00
01394               2.20   -30400.00
01395               3.40   -32000.00
01396               1.00   -31200.00
01397               2.80   -32000.00
01398               2.40   -32000.00
01399               1.00   -32000.00
01400               1.80   -32000.00
01401               2.60   -32000.00
01402               1.00   -32000.00
01403               2.60   -32000.00
01404               3.60   -32000.00
01405               1.00   -32000.00
01406               3.00   -32800.00
01407               1.80   -32000.00
01408               1.40   -32800.00
01409               3.40   -32800.00
01410               1.80   -32800.00
01411               2.20   -32800.00
01412               2.60   -32800.00
01413               1.60   -32000.00
01414               2.20   -32000.00
01415               2.20   -32000.00
01416               1.80   -32000.00
01417               2.00   -32800.00
01418               2.60   -32000.00
01419               2.20   -32000.00
01420               2.00   -32000.00
01421               2.60   -32000.00
01422               2.00   -31200.00
01423               2.20   -32000.00
01424               2.20   -30400.00
01425               1.40   -31200.00
01426               2.00   -31200.00
01427               2.20   -30400.00
01428               2.20   -29600.00
01429               3.00   -30400.00
01430               1.80   -29600.00
01431               1.80   -29600.00
01432               2.60   -28800.00
01433               2.00   -28800.00
01434               1.80   -28800.00
01435               2.00   -28800.00
01436               1.80   -28800.00
01437               1.80   -28000.00
01438               2.00   -27200.00
01439               2.20   -26400.00
01440               1.80   -26400.00
01441               2.00   -26400.00
01442               1.40   -26400.00
01443               1.80   -25600.00
01444               1.80   -25600.00
01445               1.40   -25600.00
01446               2.00   -24800.00
01447               1.80   -24000.00
01448               1.40   -24000.00
01449               1.80   -23200.00
01450               1.40   -23200.00
01451               1.40   -22400.00
01452               1.40   -22400.00
01453               1.40   -20800.00
01454               1.20   -21600.00
01455               1.00   -20800.00
01456               1.60   -20800.00
01457               1.00   -20000.00
01458               1.00   -19200.00
01459               1.40   -18400.00
01460               1.00   -18400.00
01461               1.00   -17600.00
01462               1.20   -16800.00
01463               1.20   -16800.00
01464               1.00   -16000.00
01465               1.00   -16000.00
01466               1.00   -15200.00
01467               0.60   -14400.00
01468               0.80   -14400.00
01469               0.60   -13600.00
01470               0.40   -12800.00
01471               1.00   -12800.00
01472               0.40   -12000.00
01473               0.60   -11200.00
01474               1.00   -11200.00
01475              -0.20   -10400.00
01476               0.40    -9600.00
01477               0.40    -9600.00
01478              -0.20    -8000.00
01479               1.00    -8000.00
01480               0.40    -7200.00
01481              -0.20    -6400.00
01482               0.60    -6400.00
01483               0.00    -6400.00
01484               0.00    -4800.00
01485               0.60    -4000.00
01486              -0.20    -4000.00
01487              -0.20    -3200.00
01488               0.20    -2400.00
01489              -0.40    -1600.00
01490              -0.40    -1600.00
01491               0.20     -800.00
01492              -0.20        0.00
01493               0.20      800.00
01494               0.40      800.00
01495               3.00     1600.00
01496               0.40     2400.00
01497              -2.20     2400.00
01498               1.00     3200.00
01499               1.00     4000.00
01500              -1.80     4800.00
01501               5.80     4800.00
01502              25.00     6400.00
01503              -0.60     8000.00
01504             -25.00     8000.00
01505               8.20     8000.00
01506              20.00     8800.00
01507             -25.00     8000.00
01508              17.20     9600.00
01509              25.00     9600.00
01510             -25.00     9600.00
01511              25.00    11200.00
01512              25.00    11200.00
01513             -25.00    12000.00
01514              25.00    12800.00
01515             -25.00    12800.00
01516              16.20    14400.00
01517              25.00    14400.00
01518             -25.00    14400.00
01519              25.00    16000.00
01520              -0.20    16000.00
01521             -25.00    16800.00
01522              25.00    16800.00
01523              -1.20    17600.00
01524             -25.00    18400.00
01525              17.60    19200.00
01526              19.40    19200.00
01527             -25.00    19200.00
01528              25.00    20800.00
01529               3.60    21600.00
01530             -25.00    21600.00
01531              25.00    21600.00
01532             -21.40    22400.00
01533              -6.20    22400.00
01534              11.00    23200.00
01535              -9.00    24000.00
01536              -7.00    24000.00
01537              15.40    24800.00
01538             -13.80    25600.00
01539              -6.00    25600.00
01540              12.20    25600.00
01541             -18.60    25600.00
01542               5.20    26400.00
01543               1.40    27200.00
01544              -8.20    27200.00
01545               0.60    27200.00
01546              -0.40    28000.00
01547              -6.40    28000.00
01548              -1.40    28800.00
01549               2.00    29600.00
01550              -9.00    28800.00
01551               0.40    29600.00
01552              -0.80    29600.00
01553              -7.00    29600.00
01554               1.80    30400.00
01555              -1.80    30400.00
01556              -6.00    30400.00
01557               0.60    31200.00
01558              -3.60    31200.00
01559              -4.60    31200.00
01560               0.40    31200.00
01561              -4.60    32800.00
01562              -1.40    32000.00
01563              -1.20    32000.00
01564              -4.20    32800.00
01565              -2.80    32800.00
01566              -2.60    32800.00
01567              -2.80    32800.00
01568              -3.40    32800.00
01569              -1.40    32800.00
01570              -3.60    32800.00
01571              -2.80    32800.00
01572              -1.20    33600.00
01573              -4.60    32800.00
01574              -1.40    33600.00
01575              -3.40    32800.00
01576              -3.80    32800.00
01577              -0.60    33600.00
01578              -4.40    33600.00
01579              -3.00    33600.00
01580              -2.20    32800.00
01581              -2.80    32800.00
01582              -3.40    32800.00
01583              -3.40    32000.00
01584              -2.60    32800.00
01585              -3.00    32800.00
01586              -3.60    32000.00
01587              -2.20    32800.00
01588              -2.80    32000.00
01589              -3.00    32000.00
01590              -2.80    31200.00
01591              -2.60    31200.00
01592              -3.00    31200.00
01593              -3.40    32000.00
01594              -2.20    30400.00
01595              -2.40    30400.00
01596              -3.20    31200.00
01597              -3.00    30400.00
01598              -2.80    30400.00
01599              -2.60    28800.00
01600              -3.00    28800.00
01601              -2.80    28800.00
01602              -2.60    28800.00
01603              -3.00    28800.00
01604              -2.20    28800.00
01605              -2.20    28000.00
01606              -2.80    27200.00
01607              -2.00    27200.00
01608              -2.60    26400.00
01609              -2.80    27200.00
01610              -2.80    25600.00
01611              -2.60    25600.00
01612              -2.00    25600.00
01613              -2.20    24800.00
01614              -2.00    24800.00
01615              -2.40    24000.00
01616              -2.60    24000.00
01617              -2.20    24000.00
01618              -2.20    23200.00
01619              -1.80    22400.00
01620              -2.80    22400.00
01621              -1.80    21600.00
01622              -1.20    21600.00
01623              -2.80    20800.00
01624              -2.20    19200.00
01625              -1.40    19200.00
01626              -1.80    19200.00
01627              -2.00    18400.00
01628              -1.80    17600.00
01629              -1.60    17600.00
01630              -2.20    16800.00
01631              -1.40    16000.00
01632              -1.20    16000.00
01633              -1.40    15200.00
01634              -2.20    14400.00
01635              -1.20    14400.00
01636              -1.00    13600.00
01637              -2.00    12800.00
01638              -1.20    12800.00
01639              -1.00    12000.00
01640              -2.00    11200.00
01641              -1.40    11200.00
01642              -0.40    10400.00
01643              -2.20     9600.00
01644              -0.80     8800.00
01645              -1.20     8000.00
01646              -1.40     8000.00
01647              -1.20     7200.00
01648              -1.20     6400.00
01649              -0.60     6400.00
01650              -0.80     5600.00
01651              -1.80     4800.00
01652              -0.80     4800.00
01653              -1.20     3200.00
01654              -1.00     3200.00
01655               0.20     2400.00
01656              -0.60     1600.00
01657              -1.40     1600.00
01658               0.20        0.00
01659              -0.60        0.00
01660              -1.00     -800.00
01661               2.60    -1600.00
01662               3.40     -800.00
01663              -2.80    -1600.00
01664               0.60    -3200.00
01665               1.80    -3200.00
01666              -0.60    -3200.00
01667               0.20    -4000.00
01668               6.60    -4800.00
01669              21.80    -6400.00
01670              10.00    -7200.00
01671             -25.00    -7200.00
01672              -5.40    -8000.00
01673              25.00    -8000.00
01674             -23.40    -9600.00
01675             -25.00    -9600.00
01676              25.00   -10400.00
01677              11.40   -10400.00
01678             -25.00   -10400.00
01679              25.00   -12000.00
01680              -8.80   -12000.00
01681             -25.00   -12800.00
01682              25.00   -12800.00
01683             -25.00   -13600.00
01684              21.00   -14400.00
01685              -5.20   -14400.00
01686             -18.60   -15200.00
01687              25.00   -16000.00
01688             -23.20   -16000.00
01689             -10.80   -16800.00
01690              25.00   -16800.00
01691             -11.60   -17600.00
01692             -22.20   -18400.00
01693              25.00   -19200.00
01694              -5.40   -19200.00
01695             -19.60   -20000.00
01696              25.00   -20800.00
01697             -13.00   -20800.00
01698              -5.20   -20800.00
01699              18.40   -22400.00
01700             -13.40   -23200.00
01701               1.00   -22400.00
01702              13.80   -23200.00
01703              -7.00   -24000.00
01704               1.20   -24000.00
01705              13.80   -24800.00
01706             -12.60   -24800.00
01707               6.60   -25600.00
01708               7.40   -25600.00
01709              -9.20   -26400.00
01710               8.60   -26400.00
01711               2.60   -27200.00
01712              -2.80   -27200.00
01713               4.40   -27200.00
01714               4.20   -28000.00
01715              -2.80   -28800.00
01716               5.00   -28800.00
01717               2.60   -28800.00
01718              -3.00   -29600.00
01719               5.80   -29600.00
01720               1.00   -29600.00
01721              -0.20   -29600.00
01722               5.80   -29600.00
01723               1.00   -29600.00
01724               0.20   -30400.00
01725               5.00   -30400.00
01726               0.20   -32000.00
01727               1.40   -31200.00
01728               4.40   -32000.00
01729               0.60   -32000.00
01730               3.00   -32000.00
01731               2.20   -32000.00
01732               1.00   -32000.00
01733               2.00   -32000.00
01734               2.80   -32000.00
01735               2.00   -32800.00
01736               2.00   -32800.00
01737               3.40   -32800.00
01738               1.00   -32000.00
01739               3.00   -32800.00
01740               2.00   -32800.00
01741               1.20   -32800.00
01742               3.40   -32800.00
01743               1.80   -32800.00
01744               2.20   -32800.00
01745               3.00   -32000.00
01746               1.60   -32000.00
01747               2.60   -32000.00
01748               2.60   -32000.00
01749               2.00   -32000.00
01750               1.80   -32000.00
01751               2.00   -32000.00
01752               2.20   -32000.00
01753               1.80   -32000.00
01754               2.60   -32000.00
01755               2.20   -32000.00
01756               2.00   -30400.00
01757               2.60   -31200.00
01758               1.80   -31200.00
01759               2.60   -30400.00
01760               2.60   -30400.00
01761               1.60   -30400.00
01762               2.60   -30400.00
01763               2.20   -29600.00
01764               2.00   -29600.00
01765               2.20   -28800.00
01766               2.20   -28800.00
01767               2.00   -28800.00
01768               1.80   -28800.00
01769               2.00   -28800.00
01770               2.00   -28000.00
01771               2.00   -28000.00
01772               2.00   -27200.00
01773               1.20   -27200.00
01774               2.00   -26400.00
01775               2.00   -26400.00
01776               1.40   -25600.00
01777               2.00   -25600.00
01778               1.40   -25600.00
01779               1.40   -24000.00
01780               1.80   -24800.00
01781               1.80   -24000.00
01782               1.20   -24000.00
01783               1.40   -24000.00
01784               1.60   -23200.00
01785               1.00   -22400.00
01786               1.40   -21600.00
01787               1.40   -22400.00
01788               1.20   -20800.00
01789               1.40   -20000.00
01790               1.00   -20000.00
01791               1.00   -20000.00
01792               1.80   -18400.00
01793               1.00   -18400.00
01794               1.00   -17600.00
01795               1.60   -17600.00
01796               0.40   -16800.00
01797               0.60   -16800.00
01798               1.40   -16000.00
01799               0.40   -15200.00
01800               0.60   -15200.00
01801               1.20   -14400.00
01802               1.00   -13600.00
01803               0.40   -13600.00
01804               1.20   -12800.00
01805               0.20   -12000.00
01806               1.00   -11200.00
01807               1.40   -11200.00
01808              -0.40   -11200.00
01809               0.60    -9600.00
01810               1.40    -9600.00
01811              -0.40    -8800.00
01812               0.40    -8000.00
01813               0.80    -7200.00
01814              -0.40    -7200.00
01815               0.40    -6400.00
01816               0.60    -5600.00
01817               0.20    -4800.00
01818               0.00    -4000.00
01819               0.40    -3200.00
01820               0.00    -3200.00
01821               0.20    -2400.00
01822              -0.20    -1600.00
01823              -0.40    -1600.00
01824               0.40     -800.00
01825              -0.60        0.00
01826               0.20        0.00
01827               0.60      800.00
01828               2.00     1600.00
01829               1.80     2400.00
01830              -2.00     2400.00
01831              -0.40     3200.00
01832               1.20     3200.00
01833              -0.60     4000.00
01834               2.80     4800.00
01835              22.00     5600.00
01836              18.20     7200.00
01837             -25.00     8000.00
01838              -8.60     8000.00
01839              25.00     8000.00
01840             -25.00     8000.00
01841             -12.20     8800.00
01842              25.00     9600.00
01843             -25.00     9600.00
01844               2.80    11200.00
01845              25.00    11200.00
01846             -25.00    11200.00
01847              25.00    12800.00
01848              -8.80    12800.00
01849             -25.00    14400.00
01850              25.00    14400.00
01851             -25.00    14400.00
01852              25.00    15200.00
01853              25.00    15200.00
01854             -25.00    16000.00
01855              25.00    17600.00
01856              18.00    17600.00
01857             -25.00    18400.00
01858               1.80    19200.00
01859              25.00    19200.00
01860             -25.00    19200.00
01861              11.60    20800.00
01862              24.60    20800.00
01863             -25.00    21600.00
01864              25.00    22400.00
01865             -10.60    22400.00
01866             -16.20    22400.00
01867              13.40    24000.00
01868              -3.80    24000.00
01869             -11.00    24000.00
01870              13.60    24800.00
01871              -5.40    24800.00
01872             -15.40    25600.00
01873              15.40    25600.00
01874             -15.00    25600.00
01875              -1.20    26400.00
01876               6.20    27200.00
01877              -9.40    27200.00
01878              -0.40    28000.00
01879              -0.20    28000.00
01880              -4.40    28000.00
01881              -4.20    28800.00
01882               3.40    28800.00
01883              -7.40    28800.00
01884              -2.00    29600.00
01885               1.00    29600.00
01886              -7.40    30400.00
01887               0.20    30400.00
01888               0.00    31200.00
01889              -6.20    31200.00
01890              -0.20    31200.00
01891              -2.20    30400.00
01892              -6.20    32000.00
01893               0.40    31200.00
01894              -3.60    32800.00
01895              -2.80    32000.00
01896              -0.40    32800.00
01897              -4.60    32000.00
01898              -2.80    32800.00
01899              -2.80    32800.00
01900              -2.80    32000.00
01901              -2.80    32800.00
01902              -1.80    33600.00
01903              -3.40    32800.00
01904              -3.40    32800.00
01905              -1.20    32800.00
01906              -5.20    33600.00
01907              -2.20    32800.00
01908              -2.20    33600.00
01909              -4.60    33600.00
01910              -0.60    32800.00
01911              -3.60    33600.00
01912              -3.80    32800.00
01913              -1.60    32800.00
01914              -3.80    32800.00
01915              -3.00    32800.00
01916              -2.60    32800.00
01917              -3.40    32800.00
01918              -2.80    32800.00
01919              -2.20    32000.00
01920              -3.40    32000.00
01921              -3.40    32800.00
01922              -2.20    31200.00
01923              -3.20    32000.00
01924              -2.60    32000.00
01925              -2.40    31200.00
01926              -3.60    31200.00
01927              -2.20    31200.00
01928              -2.40    30400.00
01929              -3.00    30400.00
01930              -2.20    30400.00
01931              -2.80    30400.00
01932              -2.60    29600.00
01933              -2.40    29600.00
01934              -3.40    29600.00
01935              -2.60    28800.00
01936              -2.80    28000.00
01937              -2.20    28000.00
01938              -2.20    28000.00
01939              -2.80    27200.00
01940              -2.60    27200.00
01941              -2.60    27200.00
01942              -2.20    26400.00
01943              -2.20    25600.00
01944              -2.60    25600.00
01945              -2.00    25600.00
01946              -2.20    24800.00
01947              -2.20    24800.00
01948              -2.20    24800.00
01949              -2.20    24000.00
01950              -2.00    23200.00
01951              -2.20    22400.00
01952              -2.00    22400.00
01953              -2.20    22400.00
01954              -2.20    21600.00
01955              -1.40    21600.00
01956              -2.20    20800.00
01957              -1.80    20800.00
01958              -2.00    19200.00
01959              -2.20    19200.00
01960              -1.40    18400.00
01961              -2.20    17600.00
01962              -1.80    17600.00
01963              -2.00    17600.00
01964              -1.80    16000.00
01965              -1.20    16000.00
01966              -2.00    16000.00
01967              -2.20    14400.00
01968              -1.40    14400.00
01969              -1.80    14400.00
01970              -2.00    12800.00
01971              -1.80    12800.00
01972              -1.20    12000.00
01973              -1.80    11200.00
01974              -1.40    11200.00
01975              -1.20    10400.00
01976              -1.40     9600.00
01977              -1.00     8800.00
01978              -1.00     8800.00
01979              -1.40     8000.00
01980              -0.60     8000.00
01981              -1.80     6400.00
01982              -1.00     5600.00
01983              -0.40     5600.00
01984              -1.40     4800.00
01985              -1.00     4800.00
01986               0.20     3200.00
01987              -1.40     3200.00
01988              -0.40     2400.00
01989              -0.60     1600.00
01990              -1.60     1600.00
01991               0.20      800.00
01992              -0.20        0.00
01993              -0.60     -800.00
01994               1.80     -800.00
01995               4.20    -1600.00
01996              -2.00    -1600.00
01997              -0.20    -2400.00
01998               1.80    -3200.00
01999              -0.60    -3200.00
02000              -0.60    -4000.00
02001               4.40    -4800.00
02002              17.00    -5600.00
02003              21.40    -7200.00
02004             -25.00    -8000.00
02005             -20.40    -8000.00
02006              25.00    -8000.00
02007              -8.40    -9600.00
02008             -25.00    -8800.00
02009              25.00    -9600.00
02010              25.00   -11200.00
02011             -25.00   -10400.00
02012              25.00   -11200.00
02013              25.00   -12000.00
02014             -25.00   -12800.00
02015              25.00   -12800.00
02016             -19.00   -13600.00
02017               5.00   -14400.00
02018              14.00   -14400.00
02019             -25.00   -15200.00
02020              25.00   -16000.00
02021              -6.80   -16000.00
02022             -24.20   -16800.00
02023              25.00   -17600.00
02024               2.00   -17600.00
02025             -25.00   -18400.00
02026              21.40   -19200.00
02027              11.80   -19200.00
02028             -25.00   -20000.00
02029              25.00   -20000.00
02030               1.20   -20800.00
02031             -15.80   -21600.00
02032              20.80   -21600.00
02033              -8.60   -22400.00
02034              -6.00   -23200.00
02035              13.80   -24000.00
02036              -2.20   -23200.00
02037              -5.00   -24000.00
02038              16.60   -24800.00
02039              -8.60   -24000.00
02040              -0.60   -25600.00
02041              12.20   -25600.00
02042              -9.80   -25600.00
02043               5.20   -26400.00
02044               6.00   -26400.00
02045              -3.00   -27200.00
02046               2.60   -27200.00
02047               5.20   -27200.00
02048              -2.20   -27200.00
02049               2.60   -28800.00
02050               4.80   -28800.00
02051              -3.40   -28800.00
02052               4.60   -29600.00
02053               2.60   -29600.00
02054              -1.20   -29600.00
02055               5.20   -30400.00
02056               2.80   -30400.00
02057              -0.80   -30400.00
02058               5.00   -31200.00
02059               1.40   -31200.00
02060               0.20   -32000.00
02061               4.20   -31200.00
02062               1.40   -32000.00
02063               2.60   -32000.00
02064               2.60   -32000.00
02065               1.40   -32000.00
02066               1.80   -32000.00
02067               2.60   -32000.00
02068               1.60   -32800.00
02069               1.80   -32000.00
02070               3.60   -32000.00
02071               1.40   -32800.00
02072               2.60   -32000.00
02073               2.80   -32800.00
02074               1.00   -32800.00
02075               3.00   -32800.00
02076               2.20   -32800.00
02077               1.80   -32800.00
02078               3.40   -32000.00
02079               1.80   -32000.00
02080               2.20   -32000.00
02081               3.00   -32800.00
02082               2.00   -32000.00
02083               2.20   -32800.00
02084               2.80   -32000.00
02085               2.00   -32000.00
02086               2.00   -32000.00
02087               2.60   -32000.00
02088               2.20   -31200.00
02089               2.00   -32000.00
02090               2.60   -30400.00
02091               1.80   -32000.00
02092               2.00   -30400.00
02093               2.20   -30400.00
02094               1.60   -30400.00
02095               2.60   -30400.00
02096               2.20   -30400.00
02097               1.60   -29600.00
02098               2.20   -29600.00
02099               2.00   -29600.00
02100               1.40   -28800.00
02101               2.00   -28800.00
02102               2.20   -28800.00
02103               1.40   -28000.00
02104               1.80   -27200.00
02105               2.00   -27200.00
02106               0.60   -27200.00
02107               2.20   -27200.00
02108               2.00   -26400.00
02109               1.00   -26400.00
02110               2.60   -25600.00
02111               1.20   -25600.00
02112               1.00   -25600.00
02113               2.60   -24800.00
02114               1.00   -24000.00
02115               1.00   -24000.00
02116               2.60   -23200.00
02117               1.00   -23200.00
02118               1.20   -23200.00
02119               1.80   -21600.00
02120               1.00   -21600.00
02121               1.20   -20800.00
02122               1.60   -20800.00
02123               1.00   -20000.00
02124               1.20   -19200.00
02125               1.20   -18400.00
02126               1.40   -19200.00
02127               1.40   -17600.00
02128               1.00   -17600.00
02129               1.00   -16800.00
02130               1.20   -16800.00
02131               0.60   -16000.00
02132               0.60   -16000.00
02133               1.20   -14400.00
02134               0.40   -14400.00
02135               1.00   -14400.00
02136               1.00   -13600.00
02137               0.40   -12800.00
02138               0.60   -12800.00
02139               1.00   -11200.00
02140               0.40   -11200.00
02141               0.60   -10400.00
02142               0.60    -9600.00
02143               0.40    -9600.00
02144               0.40    -8800.00
02145               0.80    -8000.00
02146               0.20    -8000.00
02147               0.20    -7200.00
02148               0.40    -6400.00
02149               0.20    -6400.00
02150               0.20    -4800.00
02151               0.40    -4800.00
02152               0.20    -4000.00
02153              -0.20    -3200.00
02154               0.40    -3200.00
02155              -0.20    -1600.00
02156              -0.40    -1600.00
02157               0.20     -800.00
02158              -0.20     -800.00
02159              -0.20        0.00
02160               0.40      800.00
02161               1.40     2400.00
02162               2.60     1600.00
02163              -2.20     2400.00
02164              -0.40     3200.00
02165               1.40     3200.00
02166              -1.20     3200.00
02167               0.80     4800.00
02168              15.80     5600.00
02169              25.00     7200.00
02170             -25.00     8000.00
02171             -25.00     8000.00
02172              25.00     8000.00
02173             -14.80     8000.00
02174             -25.00     8800.00
02175              25.00     9600.00
02176             -22.60     9600.00
02177             -25.00    11200.00
02178              25.00    11200.00
02179             -25.00    11200.00
02180              14.00    12800.00
02181              25.00    12800.00
02182             -25.00    12800.00
02183              25.00    13600.00
02184             -25.00    14400.00
02185              -5.80    15200.00
02186              25.00    15200.00
02187             -25.00    16000.00
02188              17.20    16800.00
02189              25.00    17600.00
02190             -25.00    18400.00
02191             -14.20    18400.00
02192              25.00    19200.00
02193             -25.00    19200.00
02194              -9.80    20800.00
02195              25.00    20800.00
02196             -25.00    20800.00
02197              13.20    22400.00
02198               3.60    21600.00
02199             -24.20    22400.00
02200              12.00    22400.00
02201               1.40    24000.00
02202             -12.60    23200.00
02203               8.40    24000.00
02204               3.80    24800.00
02205             -21.00    24800.00
02206              14.20    25600.00
02207              -7.60    25600.00
02208              -9.20    26400.00
02209               9.80    27200.00
02210              -8.60    27200.00
02211              -2.60    27200.00
02212               0.60    28000.00
02213              -2.80    28000.00
02214              -6.20    28000.00
02215               3.40    28800.00
02216              -4.60    28800.00
02217              -5.80    29600.00
02218               2.60    29600.00
02219              -6.00    30400.00
02220              -2.20    30400.00
02221               1.80    30400.00
02222              -5.80    31200.00
02223              -2.00    30400.00
02224              -0.60    31200.00
02225              -6.60    32000.00
02226              -1.00    31200.00
02227              -2.20    31200.00
02228              -4.20    32800.00
02229              -0.40    32000.00
02230              -3.40    32000.00
02231              -3.80    32800.00
02232              -2.80    32000.00
02233              -2.80    32800.00
02234              -3.60    32800.00
02235              -2.40    32800.00
02236              -2.00    33600.00
02237              -4.40    33600.00
02238              -1.20    32800.00
02239              -3.80    32800.00
02240              -3.40    32800.00
02241              -1.80    32800.00
02242              -4.60    32800.00
02243              -1.40    32800.00
02244              -2.80    33600.00
02245              -4.20    32800.00
02246              -1.60    32800.00
02247              -3.00    32800.00
02248              -3.00    33600.00
02249              -3.00    32800.00
02250              -3.20    32800.00
02251              -3.00    32000.00
02252              -2.80    32800.00
02253              -2.40    32800.00
02254              -3.20    32800.00
02255              -2.20    32000.00
02256              -3.00    32800.00
02257              -2.80    31200.00
02258              -2.20    31200.00
02259              -3.80    31200.00
02260              -2.80    31200.00
02261              -2.20    30400.00
02262              -2.80    30400.00
02263              -2.80    30400.00
02264              -2.60    30400.00
02265              -2.60    28800.00
02266              -2.80    29600.00
02267              -2.80    28800.00
02268              -2.20    28800.00
02269              -2.80    28800.00
02270              -2.20    28000.00
02271              -2.80    28000.00
02272              -3.00    28000.00
02273              -1.40    28000.00
02274              -2.60    27200.00
02275              -2.60    27200.00
02276              -1.80    26400.00
02277              -3.60    25600.00
02278              -2.00    25600.00
02279              -1.40    24800.00
02280              -3.40    24800.00
02281              -1.80    24800.00
02282              -2.20    24000.00
02283              -2.80    24000.00
02284              -1.40    23200.00
02285              -1.80    23200.00
02286              -2.40    21600.00
02287              -2.00    21600.00
02288              -1.80    21600.00
02289              -2.60    20800.00
02290              -2.00    20800.00
02291              -1.20    19200.00
02292              -1.20    19200.00
02293              -6.00    19200.00
02294               3.60    18400.00
02295              -6.00    17600.00
02296              -7.00    17600.00
02297               5.40    16000.00
02298              -3.60    16000.00
02299               3.00    16000.00
02300              -5.20    15200.00
02301               0.20    14400.00
02302              -2.60    14400.00
02303              -6.40    12800.00
02304              -2.60    12800.00
02305              -0.20    12800.00
02306               2.80    11200.00
02307              -4.20    11200.00
02308               3.20    11200.00
02309              -4.40     9600.00
02310              -1.80     9600.00
02311               2.60     8800.00
02312              -5.40     8000.00
02313              -2.80     8000.00
02314               0.40     7200.00
02315              -1.20     6400.00
02316              -3.60     7200.00
02317               2.40     5600.00
02318               1.40     4800.00
02319              -1.80     3200.00
02320               0.20     3200.00
02321              -3.60     3200.00
02322              -2.80     2400.00
02323               0.60     1600.00
02324              -2.00      800.00
02325               0.40        0.00
02326               3.20        0.00
02327               0.40     -800.00
02328               3.40    -1600.00
02329              -0.40    -1600.00
02330              -2.60    -2400.00
02331               0.60    -3200.00
02332               0.60    -3200.00
02333              -1.20    -4000.00
02334               3.60    -4000.00
02335              14.20    -4800.00
02336              25.00    -6400.00
02337             -25.00    -7200.00
02338             -25.00    -8000.00
02339              22.00    -8000.00
02340               6.00    -8800.00
02341             -25.00    -8800.00
02342              17.80    -9600.00
02343              25.00   -10400.00
02344             -25.00    -9600.00
02345              17.80   -11200.00
02346              25.00   -12000.00
02347             -25.00   -12000.00
02348              25.00   -12800.00
02349               4.00   -12800.00
02350             -13.40   -13600.00
02351              25.00   -14400.00
02352             -25.00   -14400.00
02353              25.00   -15200.00
02354              12.40   -16000.00
02355             -25.00   -16800.00
02356              23.40   -17600.00
02357              14.60   -17600.00
02358             -25.00   -18400.00
02359               7.40   -19200.00
02360              25.00   -20000.00
02361             -25.00   -20000.00
02362              17.80   -20800.00
02363              16.00   -20800.00
02364             -21.40   -20800.00
02365              16.40   -22400.00
02366              -0.20   -22400.00
02367             -11.40   -23200.00
02368              10.80   -23200.00
02369               4.40   -23200.00
02370              -9.40   -24000.00
02371              14.80   -24000.00
02372              -1.20   -24800.00
02373              -8.60   -25600.00
02374              14.80   -25600.00
02375              -5.80   -25600.00
02376              -0.60   -25600.00
02377               9.40   -27200.00
02378              -2.20   -26400.00
02379              -0.60   -27200.00
02380               7.00   -27200.00
02381              -1.20   -28800.00
02382               0.20   -28800.00
02383               7.00   -28800.00
02384              -2.80   -28800.00
02385               2.60   -29600.00
02386               4.60   -28800.00
02387              -1.40   -29600.00
02388               3.80   -29600.00
02389               4.20   -29600.00
02390              -1.00   -30400.00
02391               3.60   -30400.00
02392               2.80   -31200.00
02393              -0.40   -31200.00
02394               4.00   -32000.00
02395               2.60   -31200.00
02396               2.00   -32000.00
02397               2.60   -32000.00
02398               1.40   -32000.00
02399               1.80   -32000.00
02400               2.40   -32000.00
02401               2.00   -32800.00
02402               2.00   -32000.00
02403               3.40   -32800.00
02404               2.00   -32800.00
02405               1.80   -32800.00
02406               3.20   -32800.00
02407               1.00   -32000.00
02408               2.80   -32800.00
02409               2.80   -32800.00
02410               1.40   -32800.00
02411               3.60   -32800.00
02412               1.80   -32800.00
02413               1.80   -32800.00
02414               3.00   -32000.00
02415               1.80   -32800.00
02416               1.80   -32000.00
02417               2.60   -32800.00
02418               2.00   -32000.00
02419               2.00   -32000.00
02420               2.80   -32000.00
02421               2.20   -32000.00
02422               2.20   -31200.00
02423               2.80   -32000.00
02424               1.80   -31200.00
02425               1.20   -31200.00
02426               3.40   -30400.00
02427               0.60   -30400.00
02428               2.20   -30400.00
02429               3.40   -30400.00
02430               1.40   -29600.00
02431               1.80   -29600.00
02432               2.80   -28800.00
02433               1.20   -28800.00
02434               1.20   -28800.00
02435               2.80   -28800.00
02436               1.20   -28800.00
02437               1.20   -28000.00
02438               2.60   -28000.00
02439               1.20   -27200.00
02440               1.80   -27200.00
02441               2.20   -26400.00
02442               1.20   -25600.00
02443               1.80   -25600.00
02444               1.80   -25600.00
02445               1.00   -25600.00
02446               2.00   -24800.00
02447               1.40   -24000.00
02448               1.00   -23200.00
02449               1.80   -23200.00
02450               1.40   -23200.00
02451               1.00   -22400.00
02452               1.80   -22400.00
02453               1.40   -22400.00
02454               1.20   -20800.00
02455               1.80   -20800.00
02456               1.20   -20000.00
02457               0.60   -20000.00
02458               1.40   -18400.00
02459               1.20   -18400.00
02460               1.00   -18400.00
02461               1.40   -17600.00
02462               0.60   -17600.00
02463               0.80   -16800.00
02464               1.20   -16800.00
02465               1.00   -16000.00
02466               1.20   -14400.00
02467               1.20   -14400.00
02468               1.00   -14400.00
02469               0.60   -13600.00
02470               0.60   -12800.00
02471               0.40   -12000.00
02472               0.60   -12000.00
02473               1.00   -11200.00
02474               0.80   -11200.00
02475               0.20   -10400.00
02476               0.60    -9600.00
02477               0.40    -8800.00
02478               0.20    -8000.00
02479               0.40    -7200.00
02480               0.20    -7200.00
02481               0.20    -6400.00
02482               0.20    -6400.00
02483               0.20    -4800.00
02484               0.20    -4800.00
02485               0.00    -4000.00
02486               0.20    -3200.00
02487               0.20    -3200.00
02488              -0.20    -2400.00
02489              -0.40    -1600.00
02490              -0.40     -800.00
02491              -0.40        0.00
02492              -0.20        0.00
02493               0.20      800.00
02494               0.60     1600.00
02495               3.40     1600.00
02496              -2.40     2400.00
02497              -0.60     2400.00
02498               1.20     4000.00
02499              -0.60     4000.00
02500              -0.20     4800.00
02501              10.80     5600.00
02502              25.00     6400.00
02503             -25.00     8000.00
02504             -25.00     8000.00
02505              23.60     8800.00
02506               1.60     8000.00
02507             -25.00     8000.00
02508              25.00     9600.00
02509              20.60     9600.00
02510             -25.00    11200.00
02511              25.00    12000.00
02512             -25.00    11200.00
02513             -25.00    12800.00
02514              25.00    12800.00
02515             -25.00    12800.00
02516              25.00    14400.00
02517             -13.00    14400.00
02518             -25.00    15200.00
02519              25.00    15200.00
02520             -25.00    16800.00
02521              -9.80    16000.00
02522              25.00    16000.00
02523             -24.40    18400.00
02524             -25.00    18400.00
02525              25.00    18400.00
02526              -9.00    20000.00
02527             -25.00    19200.00
02528              25.00    21600.00
02529             -25.00    21600.00
02530              -2.60    21600.00
02531              17.40    22400.00
02532             -25.00    22400.00
02533               7.40    24000.00
02534               5.80    24000.00
02535             -12.60    24000.00
02536               2.00    24000.00
02537              10.80    24800.00
02538             -21.40    24800.00
02539               8.40    25600.00
02540               1.20    25600.00
02541             -15.60    26400.00
02542              10.00    26400.00
02543              -5.20    27200.00
02544              -5.00    27200.00
02545               1.20    27200.00
02546              -1.20    28000.00
02547              -6.80    28000.00
02548               1.80    28800.00
02549              -2.00    28800.00
02550              -7.60    29600.00
02551               2.20    30400.00
02552              -4.20    30400.00
02553              -4.80    29600.00
02554               2.60    30400.00
02555              -5.00    30400.00
02556              -4.40    30400.00
02557               0.80    30400.00
02558              -6.00    31200.00
02559              -2.80    31200.00
02560              -0.60    31200.00
02561              -5.00    32800.00
02562              -1.00    32000.00
02563              -2.20    32000.00
02564              -4.20    32800.00
02565              -3.00    32000.00
02566              -2.40    32800.00
02567              -3.00    33600.00
02568              -3.20    32800.00
02569              -1.40    32000.00
02570              -4.60    32800.00
02571              -2.00    32800.00
02572              -3.00    32800.00
02573              -3.80    32800.00
02574              -1.80    33600.00
02575              -4.40    32800.00
02576              -1.60    32800.00
02577              -2.40    32800.00
02578              -4.60    33600.00
02579              -1.00    32800.00
02580              -3.20    32800.00
02581              -3.40    33600.00
02582              -2.20    32800.00
02583              -3.60    32800.00
02584              -2.80    32000.00
02585              -3.00    32800.00
02586              -2.60    32800.00
02587              -3.00    32800.00
02588              -3.00    32000.00
02589              -2.60    32000.00
02590              -2.80    32000.00
02591              -2.80    32000.00
02592              -3.00    31200.00
02593              -2.40    31200.00
02594              -1.80    30400.00
02595              -3.40    31200.00
02596              -2.60    30400.00
02597              -2.20    30400.00
02598              -3.20    29600.00
02599              -2.20    30400.00
02600              -2.80    30400.00
02601              -3.20    28800.00
02602              -2.20    28800.00
02603              -2.60    28800.00
02604              -2.20    28000.00
02605              -2.60    28000.00
02606              -2.20    27200.00
02607              -2.40    27200.00
02608              -2.80    27200.00
02609              -2.60    26400.00
02610              -2.80    26400.00
02611              -2.20    25600.00
02612              -2.00    24800.00
02613              -2.60    24800.00
02614              -2.00    24000.00
02615              -2.80    24000.00
02616              -2.60    24000.00
02617              -2.20    23200.00
02618              -2.40    22400.00
02619              -2.20    22400.00
02620              -2.60    21600.00
02621              -2.00    21600.00
02622              -2.00    21600.00
02623              -2.60    20800.00
02624              -2.00    20000.00
02625              -2.00    19200.00
02626              -2.00    19200.00
02627              -2.00    18400.00
02628              -2.00    17600.00
02629              -1.80    17600.00
02630              -2.20    16800.00
02631              -1.60    16000.00
02632              -1.40    16000.00
02633              -2.00    15200.00
02634              -1.40    14400.00
02635              -1.80    14400.00
02636              -1.60    14400.00
02637              -1.80    12800.00
02638              -1.40    12800.00
02639              -1.20    12000.00
02640              -1.20    11200.00
02641              -1.80    11200.00
02642              -1.20    10400.00
02643              -1.40     8800.00
02644              -0.60     8800.00
02645              -1.80     8000.00
02646              -1.20     8000.00
02647              -1.20     7200.00
02648              -1.40     6400.00
02649              -0.60     6400.00
02650              -0.60     5600.00
02651              -1.20     4800.00
02652              -0.60     4000.00
02653              -1.00     3200.00
02654              -0.60     3200.00
02655              -0.60     2400.00
02656              -1.00     1600.00
02657               0.20     1600.00
02658              -0.20        0.00
02659               0.20        0.00
02660               0.60     -800.00
02661               2.80    -1600.00
02662               0.80    -1600.00
02663              -1.80    -2400.00
02664               1.20    -3200.00
02665               1.00    -3200.00
02666              -0.40    -3200.00
02667               1.60    -4000.00
02668               9.80    -4800.00
02669              25.00    -6400.00
02670             -12.40    -8000.00
02671             -25.00    -8000.00
02672              13.80    -8800.00
02673              17.20    -8000.00
02674             -25.00    -8800.00
02675              -4.00    -8800.00
02676              25.00   -10400.00
02677             -25.00   -10400.00
02678             -23.00   -11200.00
02679              25.00   -12000.00
02680             -25.00   -12000.00
02681               5.00   -12800.00
02682              25.00   -13600.00
02683             -25.00   -13600.00
02684              25.00   -14400.00
02685             -25.00   -14400.00
02686              10.60   -16000.00
02687              25.00   -16000.00
02688             -25.00   -16800.00
02689              11.80   -17600.00
02690              25.00   -17600.00
02691             -25.00   -18400.00
02692              -5.40   -18400.00
02693              25.00   -19200.00
02694             -25.00   -20000.00
02695               3.20   -20800.00
02696              25.00   -20000.00
02697             -22.40   -20800.00
02698               9.40   -22400.00
02699               7.00   -22400.00
02700             -13.80   -23200.00
02701               7.80   -23200.00
02702               8.00   -24000.00
02703              -8.40   -24000.00
02704              10.20   -24000.00
02705               5.20   -24800.00
02706             -11.00   -25600.00
02707              12.20   -25600.00
02708              -2.60   -26400.00
02709              -3.80   -26400.00
02710              10.00   -26400.00
02711              -0.20   -26400.00
02712              -1.00   -27200.00
02713               5.80   -28000.00
02714               2.20   -27200.00
02715              -2.00   -28800.00
02716               5.80   -28800.00
02717               0.40   -28800.00
02718              -0.60   -29600.00
02719               5.80   -29600.00
02720              -0.60   -29600.00
02721               1.80   -29600.00
02722               5.80   -29600.00
02723               0.40   -30400.00
02724               2.20   -30400.00
02725               3.80   -30400.00
02726              -1.00   -32000.00
02727               2.80   -31200.00
02728               3.40   -32000.00
02729               1.80   -32000.00
02730               3.60   -32000.00
02731               2.20   -32000.00
02732               1.20   -32000.00
02733               2.00   -32000.00
02734               2.60   -32000.00
02735               1.00   -32800.00
02736               3.20   -32000.00
02737               3.40   -32800.00
02738               1.20   -32800.00
02739               3.60   -32800.00
02740               1.80   -32800.00
02741               2.00   -32000.00
02742               2.80   -32800.00
02743               1.00   -32800.00
02744               3.00   -32800.00
02745               2.20   -32800.00
02746               1.40   -32000.00
02747               3.40   -32800.00
02748               2.20   -32000.00
02749               1.40   -32800.00
02750               2.00   -32800.00
02751               2.00   -32000.00
02752               2.00   -32000.00
02753               2.60   -32000.00
02754               2.00   -32000.00
02755               1.80   -32000.00
02756               2.80   -32000.00
02757               2.00   -31200.00
02758               1.80   -30400.00
02759               2.40   -30400.00
02760               1.60   -30400.00
02761               1.60   -30400.00
02762               3.40   -30400.00
02763               1.40   -29600.00
02764               1.40   -29600.00
02765               2.60   -29600.00
02766               2.00   -29600.00
02767               1.80   -28800.00
02768               2.60   -28800.00
02769               1.20   -28800.00
02770               1.20   -28000.00
02771               2.00   -28000.00
02772               1.40   -27200.00
02773               1.80   -27200.00
02774               2.60   -26400.00
02775               1.80   -26400.00
02776               1.40   -25600.00
02777               1.80   -25600.00
02778               1.80   -25600.00
02779               1.80   -24000.00
02780               1.40   -24000.00
02781               1.40   -24000.00
02782               1.80   -24000.00
02783               1.80   -23200.00
02784               1.80   -23200.00
02785               2.00   -22400.00
02786               0.60   -22400.00
02787               0.40   -21600.00
02788               2.00   -20800.00
02789               2.20   -20000.00
02790               0.80   -20000.00
02791               1.20   -20000.00
02792               1.00   -19200.00
02793               1.20   -18400.00
02794               1.80   -17600.00
02795               1.00   -16800.00
02796               1.60   -16800.00
02797               0.60   -16000.00
02798               0.20   -16000.00
02799               1.60   -15200.00
02800               0.80   -14400.00
02801               0.40   -14400.00
02802               1.40   -13600.00
02803               0.80   -12800.00
02804               0.40   -12800.00
02805               0.40   -12000.00
02806               0.40   -11200.00
02807               1.00   -10400.00
02808               0.40   -10400.00
02809               0.20    -9600.00
02810               1.40    -8800.00
02811               0.20    -8800.00
02812               0.20    -8000.00
02813               0.40    -7200.00
02814              -0.20    -6400.00
02815              -0.20    -6400.00
02816               0.20    -4800.00
02817               0.20    -4800.00
02818               0.20    -4000.00
02819              -0.20    -4000.00
02820              -0.20    -3200.00
02821               0.40    -1600.00
02822              -0.40    -1600.00
02823              -1.00    -1600.00
02824               0.20     -800.00
02825              -0.20        0.00
02826              -0.60      800.00
02827               1.00     1600.00
02828               3.40     1600.00
02829              -1.40     2400.00
02830              -1.20     2400.00
02831               1.00     3200.00
02832              -0.20     4800.00
02833              -1.20     4800.00
02834               7.20     5600.00
02835              25.00     7200.00
02836              -9.00     7200.00
02837             -25.00     8000.00
02838              13.80     8000.00
02839              15.80     8800.00
02840             -25.00     8000.00
02841              25.00     9600.00
02842              25.00     9600.00
02843             -25.00    10400.00
02844              25.00    11200.00
02845              18.80    12000.00
02846             -25.00    12000.00
02847              25.00    12800.00
02848             -25.00    12800.00
02849              25.00    14400.00
02850              25.00    14400.00
02851             -25.00    15200.00
02852              25.00    15200.00
02853             -18.00    16000.00
02854             -25.00    16000.00
02855              25.00    17600.00
02856              -8.80    18400.00
02857             -25.00    18400.00
02858              23.80    18400.00
02859              12.20    19200.00
02860             -25.00    20000.00
02861              25.00    20800.00
02862              -6.60    21600.00
02863             -19.80    20800.00
02864              25.00    22400.00
02865             -24.40    22400.00
02866              -1.60    22400.00
02867              10.00    23200.00
02868              -9.80    24000.00
02869              -4.40    24000.00
02870              15.40    24800.00
02871             -17.00    24800.00
02872              -1.00    25600.00
02873               9.20    25600.00
02874             -18.80    26400.00
02875               7.40    26400.00
02876              -0.60    27200.00
02877              -7.00    27200.00
02878               1.00    27200.00
02879              -0.60    28000.00
02880              -6.80    28000.00
02881              -1.00    28800.00
02882               1.20    28800.00
02883              -8.80    28800.00
02884               1.20    29600.00
02885              -1.80    30400.00
02886              -6.20    29600.00
02887               2.00    30400.00
02888              -2.80    30400.00
02889              -5.40    30400.00
02890               0.60    31200.00
02891              -4.80    31200.00
02892              -4.40    32000.00
02893               0.20    31200.00
02894              -5.00    32800.00
02895              -1.40    32000.00
02896              -1.40    32800.00
02897              -4.40    32000.00
02898              -3.00    32800.00
02899              -2.80    32000.00
02900              -2.80    32800.00
02901              -3.20    32800.00
02902              -1.20    32800.00
02903              -3.80    33600.00
02904              -2.20    32800.00
02905              -1.40    32800.00
02906              -5.00    32800.00
02907              -1.20    33600.00
02908              -3.60    32800.00
02909              -3.60    33600.00
02910              -1.00    32800.00
02911              -4.20    32800.00
02912              -2.60    32800.00
02913              -2.20    32800.00
02914              -3.20    33600.00
02915              -2.80    32800.00
02916              -3.00    32000.00
02917              -3.60    32800.00
02918              -2.80    32800.00
02919              -1.20    32000.00
02920              -3.60    32800.00
02921              -3.60    32000.00
02922              -1.40    32000.00
02923              -3.00    32800.00
02924              -3.00    32000.00
02925              -2.20    31200.00
02926              -3.40    31200.00
02927              -2.00    31200.00
02928              -2.80    30400.00
02929              -3.00    31200.00
02930              -2.80    30400.00
02931              -2.60    30400.00
02932              -1.80    29600.00
02933              -3.20    28800.00
02934              -3.60    28800.00
02935              -1.60    28800.00
02936              -2.20    28800.00
02937              -2.20    28800.00
02938              -1.80    28000.00
02939              -2.60    27200.00
02940              -3.00    27200.00
02941              -2.60    26400.00
02942              -2.60    26400.00
02943              -3.00    26400.00
02944              -1.40    25600.00
02945              -2.00    24800.00
02946              -2.80    24800.00
02947              -1.80    24800.00
02948              -2.80    24800.00
02949              -3.00    24000.00
02950              -2.20    23200.00
02951              -2.60    24000.00
02952              -1.20    22400.00
02953              -2.20    21600.00
02954              -2.60    21600.00
02955              -1.80    20800.00
02956              -2.20    20800.00
02957              -2.20    20800.00
02958              -2.80    19200.00
02959              -2.20    19200.00
02960              -1.40    18400.00
02961              -2.20    17600.00
02962              -1.40    17600.00
02963              -1.40    16800.00
02964              -1.40    16800.00
02965              -1.80    16000.00
02966              -2.60    15200.00
02967              -1.40    15200.00
02968              -2.20    14400.00
02969              -1.40    13600.00
02970              -1.20    12800.00
02971              -2.60    12800.00
02972              -1.20    12000.00
02973              -0.80    11200.00
02974              -1.40    11200.00
02975              -1.80    10400.00
02976              -2.00     9600.00
02977              -0.40     9600.00
02978              -1.40     8800.00
02979              -1.40     8000.00
02980              -0.40     8000.00
02981              -1.20     7200.00
02982              -0.80     6400.00
02983              -1.00     5600.00
02984              -1.20     4800.00
02985              -0.60     4000.00
02986              -1.00     4000.00
02987              -0.40     3200.00
02988              -0.60     2400.00
02989              -1.20     2400.00
02990              -0.20     1600.00
02991               0.40        0.00
02992              -0.60        0.00
02993               0.00     -800.00
02994               2.20    -1600.00
02995               2.00    -1600.00
02996              -2.20    -1600.00
02997               1.20    -2400.00
02998               1.60    -3200.00
02999              -0.20    -4000.00
03000               0.60    -4000.00
03001               6.80    -4800.00
03002              23.40    -6400.00
03003               3.60    -7200.00
03004             -25.00    -8000.00
03005               1.20    -8000.00
03006              24.40    -8800.00
03007             -25.00    -8800.00
03008             -21.60    -8800.00
03009              25.00   -10400.00
03010              -5.40   -10400.00
03011             -25.00   -10400.00
03012              25.00   -12000.00
03013             -25.00   -11200.00
03014             -25.00   -12800.00
03015              25.00   -13600.00
03016             -25.00   -13600.00
03017              25.00   -14400.00
03018             -14.40   -14400.00
03019              -9.80   -16000.00
03020              25.00   -16000.00
03021             -25.00   -16800.00
03022              -3.80   -16800.00
03023              25.00   -17600.00
03024             -16.60   -17600.00
03025             -17.80   -18400.00
03026              25.00   -19200.00
03027             -13.40   -19200.00
03028             -13.20   -20000.00
03029              25.00   -20800.00
03030             -17.40   -21600.00
03031              -0.60   -21600.00
03032              15.60   -22400.00
03033             -14.80   -22400.00
03034               3.40   -22400.00
03035              12.40   -24000.00
03036              -8.60   -23200.00
03037               4.60   -24000.00
03038              11.40   -24000.00
03039             -13.20   -24800.00
03040               9.40   -25600.00
03041               4.40   -25600.00
03042              -7.60   -26400.00
03043               9.80   -26400.00
03044               1.40   -27200.00
03045              -2.20   -27200.00
03046               5.20   -27200.00
03047               3.60   -28000.00
03048              -2.00   -28800.00
03049               5.60   -28800.00
03050               1.80   -28800.00
03051              -2.00   -28800.00
03052               6.00   -28800.00
03053               0.40   -29600.00
03054               1.00   -29600.00
03055               5.80   -30400.00
03056               0.40   -29600.00
03057               0.60   -30400.00
03058               5.20   -30400.00
03059              -0.20   -32000.00
03060               2.00   -32000.00
03061               4.40   -32000.00
03062               1.00   -32000.00
03063               3.00   -32000.00
03064               2.60   -32000.00
03065               1.00   -32000.00
03066               2.00   -32000.00
03067               3.00   -32800.00
03068               1.60   -32000.00
03069               2.20   -32000.00
03070               3.60   -32800.00
03071               1.20   -32000.00
03072               3.40   -33600.00
03073               2.20   -32800.00
03074               1.40   -32800.00
03075               3.40   -32000.00
03076               1.20   -32800.00
03077               2.60   -32800.00
03078               2.60   -32800.00
03079               1.20   -32800.00
03080               2.60   -32000.00
03081               2.60   -32800.00
03082               1.80   -32800.00
03083               2.20   -32800.00
03084               2.60   -32000.00
03085               2.00   -32000.00
03086               2.20   -32000.00
03087               2.60   -32000.00
03088               2.00   -32000.00
03089               2.20   -32000.00
03090               2.40   -31200.00
03091               1.40   -31200.00
03092               2.20   -30400.00
03093               2.00   -30400.00
03094               1.80   -31200.00
03095               2.20   -30400.00
03096               1.40   -29600.00
03097               1.80   -29600.00
03098               2.20   -29600.00
03099               1.80   -29600.00
03100               1.80   -28800.00
03101               2.00   -28800.00
03102               1.80   -28000.00
03103               2.00   -28000.00
03104               2.20   -27200.00
03105               2.00   -27200.00
03106               1.40   -27200.00
03107               2.00   -26400.00
03108               1.60   -27200.00
03109               2.00   -25600.00
03110               1.80   -25600.00
03111               1.40   -25600.00
03112               2.20   -24800.00
03113               1.80   -24800.00
03114               1.60   -24000.00
03115               1.80   -24000.00
03116               1.40   -23200.00
03117               1.40   -23200.00
03118               1.40   -22400.00
03119               1.40   -22400.00
03120               1.20   -20800.00
03121               1.40   -20800.00
03122               1.80   -20800.00
03123               1.00   -20000.00
03124               1.40   -19200.00
03125               1.40   -18400.00
03126               0.60   -18400.00
03127               1.20   -17600.00
03128               1.40   -17600.00
03129               0.80   -16800.00
03130               1.00   -16800.00
03131               1.20   -16000.00
03132               0.60   -15200.00
03133               1.00   -15200.00
03134               1.00   -14400.00
03135               0.80   -13600.00
03136               0.60   -12800.00
03137               0.60   -12800.00
03138               0.40   -12000.00
03139               0.60   -11200.00
03140               0.60   -11200.00
03141               0.20   -10400.00
03142               0.60    -9600.00
03143               0.20    -9600.00
03144               0.20    -8800.00
03145               0.60    -8000.00
03146              -0.20    -7200.00
03147               0.40    -6400.00
03148               0.40    -6400.00
03149              -0.40    -5600.00
03150               0.20    -5600.00
03151               0.20    -4000.00
03152              -0.40    -4000.00
03153               0.20    -3200.00
03154               0.40    -3200.00
03155              -1.00    -1600.00
03156              -0.20    -1600.00
03157              -0.40     -800.00
03158              -0.60        0.00
03159               0.00        0.00
03160               0.20     1600.00
03161               2.40     1600.00
03162               1.00     1600.00
03163              -2.40     2400.00
03164               0.40     3200.00
03165               1.00     4000.00
03166              -2.00     3200.00
03167               4.40     4800.00
03168              25.00     6400.00
03169               9.20     7200.00
03170             -25.00     8000.00
03171               0.00     8000.00
03172              24.40     8000.00
03173             -25.00     8000.00
03174               0.80     9600.00
03175              25.00     9600.00
03176             -25.00    10400.00
03177              24.40    11200.00
03178              25.00    11200.00
03179             -25.00    11200.00
03180              25.00    12800.00
03181             -25.00    12800.00
03182              -6.00    14400.00
03183              25.00    14400.00
03184             -25.00    15200.00
03185              25.00    16000.00
03186              20.00    16000.00
03187             -25.00    16000.00
03188              25.00    16800.00
03189               9.00    17600.00
03190             -25.00    18400.00
03191               9.40    18400.00
03192              25.00    19200.00
03193             -25.00    19200.00
03194              21.80    20800.00
03195              15.40    20800.00
03196             -25.00    21600.00
03197              25.00    21600.00
03198             -16.20    21600.00
03199             -12.20    22400.00
03200              13.00    23200.00
03201              -6.00    24000.00
03202              -9.20    24000.00
03203              15.60    24800.00
03204              -9.60    24800.00
03205             -11.40    25600.00
03206              14.60    25600.00
03207             -17.80    25600.00
03208               1.80    27200.00
03209               4.40    26400.00
03210              -9.00    27200.00
03211               0.00    28000.00
03212               0.40    28000.00
03213              -5.60    28000.00
03214              -3.80    28000.00
03215               3.40    28800.00
03216              -8.60    28800.00
03217              -1.60    28800.00
03218               0.40    29600.00
03219              -7.00    30400.00
03220               0.40    30400.00
03221              -0.80    30400.00
03222              -6.00    31200.00
03223               0.20    31200.00
03224              -2.80    31200.00
03225              -5.80    31200.00
03226               0.20    32000.00
03227              -4.60    32000.00
03228              -2.80    32800.00
03229              -0.60    32800.00
03230              -3.80    32000.00
03231              -3.20    32800.00
03232              -2.80    32000.00
03233              -2.60    32800.00
03234              -3.80    32800.00
03235              -2.00    32800.00
03236              -3.00    32800.00
03237              -3.00    33600.00
03238              -0.80    33600.00
03239              -4.60    32800.00
03240              -2.20    32800.00
03241              -2.60    33600.00
03242              -4.20    33600.00
03243              -1.20    32800.00
03244              -3.80    33600.00
03245              -3.00    33600.00
03246              -1.40    32800.00
03247              -3.00    32800.00
03248              -2.20    32800.00
03249              -3.00    32800.00
03250              -3.00    32800.00
03251              -2.80    32000.00
03252              -2.80    32800.00
03253              -3.00    32000.00
03254              -2.80    32000.00
03255              -2.00    32800.00
03256              -2.80    31200.00
03257              -2.40    32000.00
03258              -2.20    31200.00
03259              -3.60    31200.00
03260              -2.20    31200.00
03261              -2.20    31200.00
03262              -3.20    30400.00
03263              -2.40    30400.00
03264              -2.60    30400.00
03265              -2.40    30400.00
03266              -2.60    29600.00
03267              -3.00    28800.00
03268              -2.60    28800.00
03269              -3.00    28800.00
03270              -2.60    28000.00
03271              -2.20    28000.00
03272              -2.60    27200.00
03273              -2.00    27200.00
03274              -2.80    27200.00
03275              -2.00    27200.00
03276              -2.60    26400.00
03277              -3.00    25600.00
03278              -2.20    25600.00
03279              -3.00    25600.00
03280              -2.40    24800.00
03281              -2.40    24800.00
03282              -2.20    24000.00
03283              -2.20    24000.00
03284              -2.60    23200.00
03285              -2.00    22400.00
03286              -2.60    22400.00
03287              -2.60    21600.00
03288              -2.00    20800.00
03289              -2.40    21600.00
03290              -2.00    20800.00
03291              -2.20    20000.00
03292              -2.00    19200.00
03293              -1.40    18400.00
03294              -2.60    18400.00
03295              -2.20    17600.00
03296              -1.40    16800.00
03297              -2.20    16000.00
03298              -1.20    16000.00
03299              -1.40    15200.00
03300              -1.80    15200.00
03301              -1.80    14400.00
03302              -1.60    13600.00
03303              -1.40    13600.00
03304              -2.00    12800.00
03305              -1.40    12000.00
03306              -1.20    12000.00
03307              -1.00    11200.00
03308              -1.20    10400.00
03309              -1.80     9600.00
03310              -1.00     9600.00
03311              -1.00     8800.00
03312              -1.60     8000.00
03313              -0.80     7200.00
03314              -1.00     7200.00
03315              -1.00     6400.00
03316              -0.60     5600.00
03317              -1.00     4800.00
03318              -0.60     4800.00
03319              -0.60     3200.00
03320              -0.60     3200.00
03321              -0.60     2400.00
03322              -1.00     2400.00
03323              -0.80     1600.00
03324               0.00      800.00
03325              -0.20        0.00
03326               0.20     -800.00
03327               1.80     -800.00
03328               3.40    -1600.00
03329              -1.80    -1600.00
03330               0.20    -2400.00
03331               1.60    -3200.00
03332               0.20    -3200.00
03333              -0.20    -4000.00
03334               5.20    -4800.00
03335              19.40    -6400.00
03336              16.60    -7200.00
03337             -25.00    -8000.00
03338             -13.80    -8000.00
03339              25.00    -8800.00
03340             -16.20    -9600.00
03341             -25.00    -8800.00
03342              25.00    -9600.00
03343              25.00   -11200.00
03344             -25.00   -10400.00
03345              25.00   -11200.00
03346              12.40   -11200.00
03347             -25.00   -12800.00
03348              25.00   -13600.00
03349             -25.00   -13600.00
03350              13.00   -14400.00
03351               5.00   -14400.00
03352             -25.00   -16000.00
03353              25.00   -16000.00
03354             -15.60   -16800.00
03355             -18.20   -16800.00
03356              25.00   -17600.00
03357              -5.20   -17600.00
03358             -25.00   -18400.00
03359              25.00   -19200.00
03360               2.60   -18400.00
03361             -25.00   -20000.00
03362              25.00   -20800.00
03363              -6.60   -20800.00
03364             -10.80   -21600.00
03365              20.00   -22400.00
03366             -11.80   -23200.00
03367              -1.40   -23200.00
03368              13.20   -24000.00
03369              -5.00   -24000.00
03370              -0.60   -24000.00
03371              14.20   -24000.00
03372             -10.80   -24800.00
03373               3.80   -25600.00
03374               9.00   -25600.00
03375              -9.20   -25600.00
03376               7.40   -26400.00
03377               3.60   -26400.00
03378              -2.20   -27200.00
03379               3.40   -27200.00
03380               5.00   -27200.00
03381              -2.20   -28000.00
03382               3.60   -28000.00
03383               4.40   -28800.00
03384              -3.00   -29600.00
03385               5.40   -29600.00
03386               2.00   -29600.00
03387              -0.60   -29600.00
03388               5.60   -29600.00
03389               1.80   -29600.00
03390              -0.40   -30400.00
03391               5.40   -30400.00
03392               0.60   -31200.00
03393               0.40   -31200.00
03394               5.20   -31200.00
03395               1.40   -31200.00
03396               2.60   -32000.00
03397               3.00   -32000.00
03398               1.40   -32000.00
03399               1.20   -32000.00
03400               3.00   -32000.00
03401               1.80   -32000.00
03402               2.00   -32800.00
03403               3.60   -32000.00
03404               1.00   -32800.00
03405               2.60   -32800.00
03406               2.60   -32000.00
03407               1.20   -32800.00
03408               3.40   -32000.00
03409               1.80   -32800.00
03410               2.00   -32800.00
03411               3.40   -32800.00
03412               1.00   -32800.00
03413               2.20   -32000.00
03414               2.80   -32800.00
03415               1.60   -32800.00
03416               2.00   -32000.00
03417               2.60   -32000.00
03418               1.80   -32000.00
03419               1.40   -32000.00
03420               3.00   -32000.00
03421               1.80   -32000.00
03422               2.00   -32000.00
03423               2.80   -31200.00
03424               1.80   -30400.00
03425               2.20   -30400.00
03426               2.60   -30400.00
03427               1.80   -30400.00
03428               2.60   -30400.00
03429               2.20   -30400.00
03430               1.80   -29600.00
03431               2.60   -29600.00
03432               2.20   -29600.00
03433               1.40   -28800.00
03434               2.00   -28800.00
03435               2.20   -28800.00
03436               1.80   -28800.00
03437               2.20   -28000.00
03438               1.80   -27200.00
03439               1.80   -27200.00
03440               2.00   -26400.00
03441               1.80   -26400.00
03442               2.00   -26400.00
03443               2.00   -25600.00
03444               1.20   -25600.00
03445               1.80   -24800.00
03446               2.00   -24800.00
03447               1.20   -24000.00
03448               1.60   -24000.00
03449               2.00   -24000.00
03450               1.40   -23200.00
03451               1.20   -22400.00
03452               1.20   -21600.00
03453               1.80   -20800.00
03454               1.00   -21600.00
03455               1.40   -20000.00
03456               1.80   -20000.00
03457               1.00   -19200.00
03458               1.20   -19200.00
03459               1.40   -18400.00
03460               1.00   -17600.00
03461               1.00   -17600.00
03462               1.00   -16800.00
03463               1.20   -16800.00
03464               0.80   -16000.00
03465               0.80   -15200.00
03466               1.00   -15200.00
03467               0.40   -14400.00
03468               1.00   -13600.00
03469               0.60   -12800.00
03470               0.60   -12800.00
03471               0.40   -12000.00
03472               0.40   -11200.00
03473               1.00   -11200.00
03474               0.40   -11200.00
03475               0.40   -10400.00
03476               0.60    -9600.00
03477               0.20    -8800.00
03478               0.20    -8000.00
03479               0.20    -7200.00
03480              -0.20    -7200.00
03481               0.20    -6400.00
03482               0.40    -6400.00
03483              -0.20    -4800.00
03484               0.20    -4000.00
03485              -0.20    -4000.00
03486              -0.40    -3200.00
03487               0.20    -2400.00
03488              -0.40    -2400.00
03489              -0.60    -1600.00
03490               0.00    -1600.00
03491              -0.40        0.00
03492              -0.40        0.00
03493               0.40      800.00
03494               2.00     1600.00
03495               2.20     1600.00
03496              -3.00     2400.00
03497              -0.20     3200.00
03498               1.60     3200.00
03499              -2.00     3200.00
03500               2.20     4800.00
03501              19.60     6400.00
03502              24.40     7200.00
03503             -25.00     8000.00
03504             -17.00     8000.00
03505              25.00     8800.00
03506             -22.80     8000.00
03507             -24.80     9600.00
03508              25.00     9600.00
03509             -25.00     9600.00
03510             -21.40    11200.00
03511              25.00    11200.00
03512             -25.00    11200.00
03513              25.00    12800.00
03514              10.80    13600.00
03515             -25.00    13600.00
03516              25.00    14400.00
03517             -25.00    14400.00
03518              17.00    15200.00
03519              25.00    16000.00
03520             -25.00    16000.00
03521              25.00    17600.00
03522              25.00    17600.00
03523             -25.00    17600.00
03524              -7.00    19200.00
03525              25.00    19200.00
03526             -25.00    19200.00
03527               0.60    20800.00
03528              25.00    20800.00
03529             -25.00    21600.00
03530              20.00    21600.00
03531              -2.80    22400.00
03532             -20.60    23200.00
03533              12.80    23200.00
03534              -1.20    24000.00
03535             -12.20    24000.00
03536              10.80    24800.00
03537              -0.40    24800.00
03538             -18.20    24800.00
03539              14.80    25600.00
03540             -12.20    26400.00
03541              -5.20    26400.00
03542               8.20    26400.00
03543              -9.40    27200.00
03544              -1.20    27200.00
03545               0.60    28000.00
03546              -4.40    28000.00
03547              -5.40    28000.00
03548               3.80    28800.00
03549              -6.60    28800.00
03550              -4.20    28800.00
03551               2.20    29600.00
03552              -7.00    30400.00
03553              -1.40    29600.00
03554               1.00    31200.00
03555              -6.00    30400.00
03556              -1.20    31200.00
03557              -0.80    31200.00
03558              -6.40    31200.00
03559              -0.40    32000.00
03560              -3.00    31200.00
03561              -3.80    32000.00
03562               0.00    32800.00
03563              -3.80    32000.00
03564              -3.20    32800.00
03565              -2.60    32800.00
03566              -2.80    32800.00
03567              -3.40    32800.00
03568              -1.40    32800.00
03569              -2.80    32800.00
03570              -4.20    32000.00
03571              -0.60    32800.00
03572              -4.60    32800.00
03573              -3.00    33600.00
03574              -1.40    33600.00
03575              -4.60    32800.00
03576              -0.60    32800.00
03577              -3.20    32800.00
03578              -3.60    33600.00
03579              -1.20    32800.00
03580              -3.60    32800.00
03581              -2.80    32800.00
03582              -2.60    32800.00
03583              -3.40    32800.00
03584              -2.80    32000.00
03585              -2.00    32000.00
03586              -3.00    32800.00
03587              -3.40    32800.00
03588              -2.20    32000.00
03589              -3.00    31200.00
03590              -3.00    31200.00
03591              -2.00    31200.00
03592              -3.40    31200.00
03593              -2.60    31200.00
03594              -2.00    31200.00
03595              -3.20    30400.00
03596              -2.80    30400.00
03597              -2.60    30400.00
03598              -2.80    30400.00
03599              -2.20    29600.00
03600              -3.00    29600.00
03601              -2.60    28800.00
03602              -2.80    28800.00
03603              -2.60    28800.00
03604              -2.40    28000.00
03605              -2.40    27200.00
03606              -2.60    27200.00
03607              -3.40    27200.00
03608              -2.20    27200.00
03609              -2.60    26400.00
03610              -3.40    25600.00
03611              -1.40    25600.00
03612              -2.20    24800.00
03613              -2.80    24800.00
03614              -2.00    24800.00
03615              -2.80    24000.00
03616              -2.80    24000.00
03617              -2.00    23200.00
03618              -2.20    22400.00
03619              -2.20    22400.00
03620              -2.00    21600.00
03621              -2.20    20800.00
03622              -2.20    20800.00
03623              -2.20    20000.00
03624              -2.20    20000.00
03625              -1.80    19200.00
03626              -1.40    18400.00
03627              -2.20    18400.00
03628              -2.00    17600.00
03629              -2.00    17600.00
03630              -2.00    16800.00
03631              -1.40    16000.00
03632              -2.00    16000.00
03633              -1.80    15200.00
03634              -1.20    14400.00
03635              -1.80    14400.00
03636              -1.40    13600.00
03637              -1.80    12000.00
03638              -1.20    12800.00
03639              -1.40    11200.00
03640              -1.20    11200.00
03641              -1.20    10400.00
03642              -1.80     9600.00
03643              -0.60     9600.00
03644              -0.60     8800.00
03645              -1.40     8800.00
03646              -0.40     7200.00
03647              -1.40     7200.00
03648              -1.00     6400.00
03649              -0.60     5600.00
03650              -1.00     4800.00
03651              -0.60     4800.00
03652              -0.60     4000.00
03653              -1.00     3200.00
03654              -0.60     2400.00
03655              -0.60     1600.00
03656              -1.20      800.00
03657              -0.20     1600.00
03658              -0.20        0.00
03659              -0.40        0.00
03660               0.80     -800.00
03661               3.60    -1600.00
03662              -1.20    -1600.00
03663              -1.00    -2400.00
03664               1.40    -3200.00
03665               0.40    -3200.00
03666              -0.60    -4000.00
03667               3.40    -4800.00
03668              14.80    -4800.00
03669              24.40    -7200.00
03670             -25.00    -8000.00
03671             -25.00    -8000.00
03672              25.00    -8000.00
03673              -1.20    -8000.00
03674             -25.00    -8000.00
03675              25.00    -9600.00
03676              25.00    -9600.00
03677             -25.00   -10400.00
03678              25.00   -11200.00
03679              25.00   -12000.00
03680             -25.00   -12800.00
03681              25.00   -13600.00
03682              -8.20   -13600.00
03683              -4.60   -14400.00
03684              21.80   -14400.00
03685             -25.00   -16000.00
03686              25.00   -16000.00
03687               2.40   -16000.00
03688             -25.00   -16800.00
03689              25.00   -17600.00
03690               8.20   -16800.00
03691             -25.00   -18400.00
03692              15.00   -19200.00
03693              18.80   -19200.00
03694             -25.00   -20000.00
03695              25.00   -20000.00
03696               8.60   -20800.00
03697             -19.80   -20800.00
03698              19.60   -22400.00
03699              -4.60   -22400.00
03700              -8.60   -22400.00
03701              13.20   -23200.00
03702               1.00   -23200.00
03703              -7.00   -24000.00
03704              16.20   -24000.00
03705              -5.40   -24800.00
03706              -4.00   -25600.00
03707              13.60   -25600.00
03708              -8.60   -26400.00
03709               3.60   -26400.00
03710               7.80   -26400.00
03711              -2.80   -27200.00
03712               1.60   -27200.00
03713               6.20   -27200.00
03714              -1.60   -27200.00
03715               2.00   -28800.00
03716               5.80   -28800.00
03717              -2.80   -28800.00
03718               3.80   -28800.00
03719               3.80   -29600.00
03720              -1.60   -29600.00
03721               5.00   -30400.00
03722               3.60   -29600.00
03723              -1.20   -30400.00
03724               4.60   -30400.00
03725               2.00   -30400.00
03726              -0.60   -32000.00
03727               4.40   -31200.00
03728               2.00   -32000.00
03729               2.20   -32000.00
03730               3.00   -32000.00
03731               1.20   -32000.00
03732               1.80   -32000.00
03733               2.60   -32000.00
03734               1.80   -32000.00
03735               1.80   -32000.00
03736               3.40   -32000.00
03737               1.40   -32800.00
03738               2.60   -32800.00
03739               3.00   -32800.00
03740               0.60   -32000.00
03741               3.00   -32000.00
03742               2.00   -32800.00
03743               1.20   -32800.00
03744               3.80   -32800.00
03745               1.80   -32800.00
03746               1.40   -32800.00
03747               3.00   -32800.00
03748               2.00   -32800.00
03749               1.60   -32000.00
03750               2.40   -32000.00
03751               2.60   -32000.00
03752               1.80   -32000.00
03753               2.80   -32000.00
03754               2.40   -32000.00
03755               2.40   -32000.00
03756               2.60   -31200.00
03757               1.00   -31200.00
03758               2.40   -30400.00
03759               2.60   -30400.00
03760               2.00   -30400.00
03761               3.00   -29600.00
03762               2.00   -30400.00
03763               1.00   -30400.00
03764               2.80   -29600.00
03765               1.80   -28800.00
03766               2.00   -28800.00
03767               2.60   -28800.00
03768               2.00   -28000.00
03769               1.80   -28800.00
03770               2.20   -28000.00
03771               2.20   -27200.00
03772               2.00   -27200.00
03773               1.40   -26400.00
03774               1.80   -26400.00
03775               1.80   -26400.00
03776               1.80   -25600.00
03777               1.80   -25600.00
03778               2.20   -25600.00
03779               2.60   -24800.00
03780               1.40   -24000.00
03781               1.20   -24000.00
03782               1.80   -23200.00
03783               1.00   -23200.00
03784               1.80   -23200.00
03785               2.00   -22400.00
03786               1.40   -21600.00
03787               1.20   -20800.00
03788               1.80   -20000.00
03789               0.60   -20000.00
03790               1.00   -20000.00
03791               1.80   -18400.00
03792               0.40   -19200.00
03793               1.20   -18400.00
03794               1.80   -17600.00
03795               0.20   -17600.00
03796               1.00   -16800.00
03797               1.20   -16000.00
03798               0.60   -16000.00
03799               1.00   -15200.00
03800               0.40   -14400.00
03801               0.20   -14400.00
03802               0.40   -12800.00
03803              -0.20   -12800.00
03804               1.00   -12800.00
03805               0.60   -12000.00
03806               0.60   -11200.00
03807               0.60   -10400.00
03808              -0.20    -9600.00
03809               0.20    -9600.00
03810               0.20    -9600.00
03811               0.40    -8000.00
03812               0.60    -7200.00
03813               0.20    -7200.00
03814              -0.20    -6400.00
03815              -0.20    -6400.00
03816               0.60    -4800.00
03817               0.20    -4800.00
03818              -1.00    -4000.00
03819               0.40    -3200.00
03820               0.20    -2400.00
03821              -0.80    -1600.00
03822              -0.40    -1600.00
03823               0.20     -800.00
03824              -0.60        0.00
03825               0.20        0.00
03826               0.20     1600.00
03827               1.40     1600.00
03828               2.60     1600.00
03829              -2.80     2400.00
03830              -0.20     2400.00
03831               1.60     3200.00
03832              -1.20     4000.00
03833               1.00     4800.00
03834              13.20     5600.00
03835              25.00     7200.00
03836             -25.00     8000.00
03837             -25.00     8000.00
03838              25.00     8000.00
03839              -6.00     8800.00
03840             -25.00     8800.00
03841              25.00    10400.00
03842               0.40     9600.00
03843             -25.00    11200.00
03844              25.00    11200.00
03845             -25.00    12000.00
03846              -8.40    12800.00
03847              25.00    12800.00
03848             -25.00    12800.00
03849              25.00    14400.00
03850             -25.00    14400.00
03851             -25.00    15200.00
03852              25.00    16000.00
03853             -25.00    16000.00
03854               5.00    17600.00
03855              25.00    17600.00
03856             -25.00    17600.00
03857             -20.40    18400.00
03858              25.00    20000.00
03859             -18.60    19200.00
03860             -21.00    20800.00
03861              25.00    20800.00
03862             -25.00    21600.00
03863               5.40    22400.00
03864              10.60    22400.00
03865             -25.00    22400.00
03866               9.00    23200.00
03867               2.80    24000.00
03868             -12.40    24000.00
03869               4.60    24800.00
03870               7.40    24000.00
03871             -21.20    24800.00
03872              11.40    25600.00
03873              -3.40    25600.00
03874             -12.60    25600.00
03875               9.60    27200.00
03876              -7.40    27200.00
03877              -3.60    28000.00
03878               0.40    27200.00
03879              -2.00    28000.00
03880              -6.80    28800.00
03881               2.20    28800.00
03882              -3.40    28800.00
03883              -6.80    28800.00
03884               2.60    29600.00
03885              -5.20    30400.00
03886              -3.60    30400.00
03887               2.20    30400.00
03888              -5.00    31200.00
03889              -3.00    30400.00
03890               0.40    31200.00
03891              -6.20    31200.00
03892              -2.00    31200.00
03893              -2.00    32000.00
03894              -4.40    32000.00
03895              -0.20    32000.00
03896              -3.40    32800.00
03897              -3.60    32000.00
03898              -3.00    32800.00
03899              -3.00    32800.00
03900              -2.80    32800.00
03901              -2.00    33600.00
03902              -1.80    33600.00
03903              -4.20    32800.00
03904              -1.00    33600.00
03905              -3.40    32800.00
03906              -3.80    32800.00
03907              -1.60    33600.00
03908              -4.20    33600.00
03909              -1.40    32800.00
03910              -2.40    33600.00
03911              -3.80    33600.00
03912              -1.80    33600.00
03913              -2.80    32800.00
03914              -2.80    33600.00
03915              -2.60    32800.00
03916              -3.00    32800.00
03917              -3.00    32800.00
03918              -2.80    32800.00
03919              -2.20    32000.00
03920              -3.00    32000.00
03921              -2.80    32000.00
03922              -2.20    32800.00
03923              -3.60    32000.00
03924              -3.00    32000.00
03925              -3.20    32000.00
03926              -3.00    31200.00
03927              -1.80    31200.00
03928              -2.80    30400.00
03929              -2.60    30400.00
03930              -2.60    30400.00
03931              -3.40    30400.00
03932              -2.80    29600.00
03933              -3.00    28800.00
03934              -2.60    28800.00
03935              -2.80    28000.00
03936              -2.40    28800.00
03937              -2.20    28000.00
03938              -2.80    27200.00
03939              -2.60    28000.00
03940              -2.60    27200.00
03941              -2.60    27200.00
03942              -2.20    26400.00
03943              -3.00    25600.00
03944              -2.20    25600.00
03945              -2.20    25600.00
03946              -2.60    24800.00
03947              -2.00    24800.00
03948              -2.20    24000.00
03949              -2.20    24000.00
03950              -2.20    23200.00
03951              -2.40    22400.00
03952              -2.20    22400.00
03953              -2.20    22400.00
03954              -1.80    21600.00
03955              -2.00    20800.00
03956              -2.20    20800.00
03957              -2.20    19200.00
03958              -2.20    19200.00
03959              -1.40    18400.00
03960              -2.00    19200.00
03961              -2.00    17600.00
03962              -1.80    17600.00
03963              -1.80    16800.00
03964              -1.40    16000.00
03965              -1.80    16000.00
03966              -1.80    15200.00
03967              -1.20    14400.00
03968              -1.40    14400.00
03969              -1.20    13600.00
03970              -1.80    12800.00
03971              -1.40    12000.00
03972              -1.20    12000.00
03973              -1.00    11200.00
03974              -1.40    11200.00
03975              -1.40    11200.00
03976              -1.20     9600.00
03977              -0.60     8800.00
03978              -1.40     8000.00
03979              -0.60     8000.00
03980              -0.80     7200.00
03981              -1.00     7200.00
03982              -0.40     6400.00
03983              -0.80     5600.00
03984              -1.20     4800.00
03985              -0.60     4000.00
03986              -1.20     3200.00
03987              -0.60     3200.00
03988              -0.60     1600.00
03989              -1.20     1600.00
03990              -0.40     1600.00
03991              -0.20        0.00
03992              -0.40        0.00
03993               0.40     -800.00
03994               3.60    -1600.00
03995               0.00    -1600.00
03996              -1.40    -2400.00
03997               1.80    -2400.00
03998               0.60    -3200.00
03999              -0.60    -3200.00
04000               2.20    -4000.00
04001              10.80    -4800.00
04002              25.00    -6400.00
04003             -21.20    -8000.00
04004             -25.00    -8000.00
04005              19.40    -8000.00
04006              11.60    -8800.00
04007             -25.00    -9600.00
04008               7.20    -9600.00
04009              25.00   -10400.00
04010             -25.00   -10400.00
04011              -2.40   -11200.00
04012              25.00   -12000.00
04013             -25.00   -12800.00
04014              19.40   -12800.00
04015              15.80   -13600.00
04016             -21.00   -14400.00
04017              25.00   -14400.00
04018             -25.00   -14400.00
04019              19.60   -16000.00
04020              20.60   -16000.00
04021             -25.00   -16800.00
04022              18.20   -17600.00
04023              20.60   -17600.00
04024             -25.00   -18400.00
04025               1.60   -19200.00
04026              25.00   -19200.00
04027             -25.00   -20000.00
04028              11.80   -20000.00
04029              21.60   -20800.00
04030             -23.60   -20800.00
04031              14.40   -22400.00
04032               3.60   -22400.00
04033             -13.20   -23200.00
04034              10.60   -22400.00
04035               6.20   -23200.00
04036              -9.40   -24000.00
04037              13.20   -24000.00
04038               1.20   -24800.00
04039              -9.60   -25600.00
04040              14.00   -25600.00
04041              -4.40   -26400.00
04042              -1.00   -25600.00
04043               9.80   -26400.00
04044              -2.00   -27200.00
04045              -0.20   -27200.00
04046               6.20   -27200.00
04047               0.20   -28800.00
04048              -0.20   -28800.00
04049               6.80   -28800.00
04050              -1.80   -28800.00
04051               1.00   -29600.00
04052               5.20   -29600.00
04053              -1.20   -29600.00
04054               2.80   -29600.00
04055               4.80   -29600.00
04056              -1.20   -29600.00
04057               3.40   -30400.00
04058               3.40   -30400.00
04059              -1.00   -31200.00
04060               3.60   -31200.00
04061               2.80   -32000.00
04062               1.40   -32000.00
04063               3.20   -32000.00
04064               1.60   -32000.00
04065               1.20   -32000.00
04066               2.20   -32000.00
04067               2.00   -32000.00
04068               1.40   -32000.00
04069               3.40   -32000.00
04070               2.20   -32000.00
04071               1.60   -32800.00
04072               3.40   -32800.00
04073               1.20   -32800.00
04074               2.60   -32800.00
04075               2.60   -32800.00
04076               1.40   -32800.00
04077               3.40   -32800.00
04078               1.80   -32800.00
04079               1.80   -32000.00
04080               3.00   -32000.00
04081               2.20   -32000.00
04082               1.80   -32000.00
04083               2.20   -32800.00
04084               2.60   -32000.00
04085               2.00   -32000.00
04086               2.20   -32000.00
04087               2.60   -32000.00
04088               2.20   -32000.00
04089               2.40   -31200.00
04090               2.00   -32000.00
04091               2.20   -30400.00
04092               2.40   -30400.00
04093               2.00   -31200.00
04094               2.60   -30400.00
04095               2.60   -29600.00
04096               1.60   -29600.00
04097               2.00   -29600.00
04098               2.00   -29600.00
04099               2.60   -29600.00
04100               1.80   -28800.00
04101               2.20   -28800.00
04102               2.20   -28800.00
04103               1.80   -27200.00
04104               2.20   -27200.00
04105               2.60   -27200.00
04106               1.40   -27200.00
04107               2.60   -26400.00
04108               1.80   -26400.00
04109               1.80   -26400.00
04110               1.80   -25600.00
04111               1.40   -24800.00
04112               2.40   -24800.00
04113               1.80   -24000.00
04114               1.20   -24000.00
04115               2.00   -23200.00
04116               1.40   -23200.00
04117               1.20   -23200.00
04118               1.80   -22400.00
04119               1.20   -21600.00
04120               1.40   -20800.00
04121               1.20   -20800.00
04122               1.20   -20800.00
04123               1.00   -20000.00
04124               1.20   -20000.00
04125               1.00   -18400.00
04126               1.40   -18400.00
04127               1.20   -17600.00
04128               1.00   -16800.00
04129               1.20   -16800.00
04130               1.00   -16800.00
04131               0.60   -16000.00
04132               1.20   -15200.00
04133               0.60   -15200.00
04134               0.80   -14400.00
04135               1.00   -13600.00
04136               0.40   -12800.00
04137               0.40   -12800.00
04138               0.60   -12000.00
04139               0.60   -11200.00
04140               0.60   -11200.00
04141               0.20   -10400.00
04142               0.20    -9600.00
04143               0.20    -9600.00
04144               0.80    -8000.00
04145              -0.40    -8000.00
04146               0.20    -7200.00
04147               0.80    -6400.00
04148              -0.40    -6400.00
04149               0.20    -4800.00
04150               0.80    -4800.00
04151              -0.60    -4000.00
04152               0.40    -3200.00
04153              -0.20    -3200.00
04154              -0.60    -2400.00
04155               0.60    -1600.00
04156              -0.40    -1600.00
04157              -0.40        0.00
04158               1.00        0.00
04159              -0.80      800.00
04160               0.40     1600.00
04161               4.00     1600.00
04162              -2.40     1600.00
04163              -0.60     3200.00
04164               1.80     3200.00
04165              -0.80     3200.00
04166              -0.60     4000.00
04167               9.20     5600.00
04168              25.00     7200.00
04169             -19.00     7200.00
04170             -25.00     8000.00
04171              19.40     8000.00
04172               9.20     8000.00
04173             -25.00     8800.00
04174              25.00     9600.00
04175              25.00     9600.00
04176             -25.00    11200.00
04177              25.00    11200.00
04178              -5.20    12000.00
04179             -25.00    12800.00
04180              25.00    12800.00
04181             -25.00    12800.00
04182              25.00    14400.00
04183               9.80    14400.00
04184             -25.00    15200.00
04185              25.00    16000.00
04186             -25.00    16000.00
04187             -24.20    16800.00
04188              25.00    17600.00
04189             -17.40    17600.00
04190             -25.00    19200.00
04191              25.00    19200.00
04192               2.00    19200.00
04193             -25.00    19200.00
04194              25.00    20800.00
04195             -18.00    20800.00
04196             -11.60    22400.00
04197              22.60    22400.00
04198             -25.00    22400.00
04199               3.00    23200.00
04200               8.20    24000.00
04201             -11.80    24000.00
04202              -1.40    24800.00
04203              13.80    24800.00
04204             -20.40    24800.00
04205               3.40    25600.00
04206               5.40    25600.00
04207             -18.20    26400.00
04208               9.00    27200.00
04209              -3.00    27200.00
04210              -6.00    27200.00
04211               1.00    27200.00
04212              -0.60    28000.00
04213              -7.00    28000.00
04214               0.20    28800.00
04215              -0.40    28800.00
04216              -8.80    28800.00
04217               1.80    29600.00
04218              -2.80    30400.00
04219              -5.40    30400.00
04220               2.60    30400.00
04221              -3.80    30400.00
04222              -5.20    31200.00
04223               1.00    31200.00
04224              -5.20    31200.00
04225              -3.80    31200.00
04226               0.40    31200.00
04227              -5.20    32800.00
04228              -1.00    32800.00
04229              -1.80    32000.00
04230              -4.20    32800.00
04231              -2.80    32800.00
04232              -2.60    32000.00
04233              -2.80    32800.00
04234              -2.80    32800.00
04235              -1.20    33600.00
04236              -4.40    32800.00
04237              -1.80    32000.00
04238              -2.20    32800.00
04239              -4.80    33600.00
04240              -0.60    32800.00
04241              -3.80    32800.00
04242              -3.00    33600.00
04243              -1.00    33600.00
04244              -4.40    33600.00
04245              -2.20    33600.00
04246              -2.20    33600.00
04247              -3.00    32800.00
04248              -3.00    32800.00
04249              -3.00    32800.00
04250              -3.40    32800.00
04251              -3.00    32800.00
04252              -2.00    32000.00
04253              -3.60    32000.00
04254              -2.60    32800.00
04255              -2.20    32000.00
04256              -4.00    32000.00
04257              -2.20    31200.00
04258              -3.00    31200.00
04259              -3.40    31200.00
04260              -1.20    31200.00
04261              -3.20    30400.00
04262              -2.80    31200.00
04263              -2.20    30400.00
04264              -3.60    29600.00
04265              -2.40    29600.00
04266              -2.60    28800.00
04267              -3.40    29600.00
04268              -2.20    28800.00
04269              -2.60    28800.00
04270              -2.80    28000.00
04271              -2.40    28000.00
04272              -2.80    28000.00
04273              -2.80    27200.00
04274              -2.20    26400.00
04275              -2.20    26400.00
04276              -3.00    25600.00
04277              -2.00    25600.00
04278              -2.60    25600.00
04279              -2.60    24800.00
04280              -2.00    24800.00
04281              -3.00    24000.00
04282              -2.60    24000.00
04283              -2.00    23200.00
04284              -2.20    24000.00
04285              -2.00    22400.00
04286              -2.00    22400.00
04287              -2.00    21600.00
04288              -1.40    21600.00
04289              -2.60    20800.00
04290              -2.00    20000.00
04291              -2.00    19200.00
04292              -2.00    19200.00
04293              -1.20    18400.00
04294              -1.80    18400.00
04295              -2.20    17600.00
04296              -1.40    16800.00
04297              -1.60    16000.00
04298              -2.00    15200.00
04299              -1.40    15200.00
04300              -1.40    15200.00
04301              -2.00    14400.00
04302              -0.80    13600.00
04303              -1.40    12800.00
04304              -1.80    12800.00
04305              -1.00    12000.00
04306              -1.20    11200.00
04307              -1.40    11200.00
04308              -1.40    11200.00
04309              -1.80     9600.00
04310              -0.60     8800.00
04311              -1.80     8800.00
04312              -1.20     8000.00
04313              -0.60     6400.00
04314              -1.20     6400.00
04315              -1.20     6400.00
04316              -0.40     5600.00
04317              -1.40     4800.00
04318              -0.60     4000.00
04319              -0.80     3200.00
04320              -0.60     3200.00
04321              -0.60     1600.00
04322              -1.00     1600.00
04323              -0.80     1600.00
04324               0.20      800.00
04325              -0.60        0.00
04326               0.20     -800.00
04327               2.60     -800.00
04328               1.20    -1600.00
04329              -2.00    -2400.00
04330               1.40    -2400.00
04331               1.20    -3200.00
04332              -0.60    -4000.00
04333               1.00    -4000.00
04334               7.80    -4800.00
04335              25.00    -6400.00
04336              -4.40    -7200.00
04337             -25.00    -8000.00
04338               8.60    -8000.00
04339              21.20    -8000.00
04340             -25.00    -8800.00
04341             -13.20    -8800.00
04342              25.00   -10400.00
04343             -25.00   -10400.00
04344             -25.00   -11200.00
04345              25.00   -12000.00
04346             -25.00   -11200.00
04347              -9.80   -12800.00
04348              25.00   -13600.00
04349             -25.00   -14400.00
04350              25.00   -14400.00
04351             -23.60   -14400.00
04352               0.60   -16000.00
04353              25.00   -16000.00
04354             -25.00   -16000.00
04355               4.40   -16800.00
04356              25.00   -17600.00
04357             -22.60   -17600.00
04358             -11.20   -18400.00
04359              25.00   -19200.00
04360             -21.60   -19200.00
04361              -3.20   -20000.00
04362              25.00   -20800.00
04363             -21.00   -21600.00
04364               6.00   -22400.00
04365              10.60   -22400.00
04366             -14.00   -22400.00
04367               7.00   -23200.00
04368               9.80   -23200.00
04369              -8.60   -23200.00
04370               7.60   -24000.00
04371               7.80   -24800.00
04372             -12.40   -24800.00
04373              11.60   -25600.00
04374               1.20   -25600.00
04375              -5.80   -26400.00
04376               9.80   -26400.00
04377              -0.20   -27200.00
04378              -2.00   -27200.00
04379               6.00   -27200.00
04380               2.00   -28000.00
04381              -2.00   -28800.00
04382               6.20   -28800.00
04383               0.40   -28800.00
04384              -1.20   -29600.00
04385               6.20   -28800.00
04386              -0.60   -30400.00
04387               1.80   -30400.00
04388               5.40   -30400.00
04389              -0.60   -30400.00
04390               1.80   -31200.00
04391               4.20   -30400.00
04392              -0.60   -31200.00
04393               2.60   -32000.00
04394               3.40   -31200.00
04395               1.00   -32000.00
04396               3.40   -31200.00
04397               2.00   -32000.00
04398               1.00   -32000.00
04399               2.20   -32000.00
04400               2.60   -32000.00
04401               1.20   -32000.00
04402               2.60   -32000.00
04403               3.00   -32800.00
04404               1.00   -32800.00
04405               3.40   -32000.00
04406               1.80   -32800.00
04407               2.00   -32800.00
04408               3.40   -32800.00
04409               1.40   -32800.00
04410               2.60   -32000.00
04411               2.20   -32800.00
04412               1.80   -32800.00
04413               2.80   -32800.00
04414               2.60   -32800.00
04415               1.60   -32000.00
04416               2.00   -32000.00
04417               2.60   -32000.00
04418               2.00   -32000.00
04419               2.20   -32000.00
04420               2.60   -32000.00
04421               2.00   -32000.00
04422               2.60   -31200.00
04423               2.20   -31200.00
04424               2.00   -31200.00
04425               2.60   -30400.00
04426               2.00   -31200.00
04427               2.00   -30400.00
04428               2.80   -30400.00
04429               1.60   -29600.00
04430               1.80   -29600.00
04431               2.60   -29600.00
04432               2.20   -28800.00
04433               1.40   -29600.00
04434               2.20   -28800.00
04435               2.00   -28800.00
04436               1.80   -28800.00
04437               2.60   -27200.00
04438               1.80   -27200.00
04439               1.40   -27200.00
04440               2.20   -26400.00
04441               1.40   -26400.00
04442               1.80   -25600.00
04443               2.20   -25600.00
04444               1.20   -25600.00
04445               2.00   -25600.00
04446               2.00   -24000.00
04447               1.20   -24000.00
04448               1.80   -23200.00
04449               1.60   -23200.00
04450               1.20   -22400.00
04451               1.20   -22400.00
04452               1.60   -22400.00
04453               1.20   -21600.00
04454               1.20   -20800.00
04455               1.40   -20800.00
04456               1.00   -20000.00
04457               1.20   -19200.00
04458               1.20   -18400.00
04459               1.20   -17600.00
04460               1.20   -17600.00
04461               1.00   -17600.00
04462               1.00   -16800.00
04463               1.20   -16000.00
04464               0.60   -16000.00
04465               1.00   -15200.00
04466               0.60   -14400.00
04467               1.00   -14400.00
04468               1.20   -13600.00
04469               0.40   -13600.00
04470               1.00   -12800.00
04471               0.80   -12000.00
04472               0.40   -11200.00
04473               1.00   -10400.00
04474               0.40   -10400.00
04475               0.40    -9600.00
04476               0.40    -8800.00
04477               0.20    -8000.00
04478               0.60    -8000.00
04479               0.40    -7200.00
04480               0.20    -7200.00
04481               0.40    -6400.00
04482               0.20    -4800.00
04483              -0.20    -4800.00
04484               0.20    -4000.00
04485               0.20    -3200.00
04486               0.00    -3200.00
04487               0.20    -2400.00
04488              -0.20    -1600.00
04489              -0.40    -1600.00
04490               0.00     -800.00
04491               0.00        0.00
04492              -0.20        0.00
04493               0.40     1600.00
04494               3.00     2400.00
04495              -0.20     2400.00
04496              -1.80     2400.00
04497               0.40     3200.00
04498               0.40     3200.00
04499              -1.20     4800.00
04500               5.80     5600.00
04501              25.00     6400.00
04502               0.20     7200.00
04503             -25.00     8000.00
04504               7.80     8000.00
04505              20.60     8800.00
04506             -25.00     8000.00
04507              16.20     9600.00
04508              25.00     9600.00
04509             -25.00    10400.00
04510              25.00    12000.00
04511              25.00    11200.00
04512             -25.00    12000.00
04513              25.00    12800.00
04514             -25.00    13600.00
04515              15.40    14400.00
04516              25.00    14400.00
04517             -25.00    15200.00
04518              25.00    15200.00
04519               0.40    16000.00
04520             -25.00    16800.00
04521              25.00    16800.00
04522              -0.80    17600.00
04523             -25.00    17600.00
04524              17.20    18400.00
04525              19.60    19200.00
04526             -25.00    19200.00
04527              25.00    20800.00
04528               3.60    21600.00
04529             -25.00    21600.00
04530              25.00    22400.00
04531             -22.00    22400.00
04532              -6.60    22400.00
04533              11.60    24000.00
04534              -9.20    24000.00
04535              -6.20    24000.00
04536              16.20    24800.00
04537             -14.80    24800.00
04538              -5.80    24800.00
04539              12.40    25600.00
04540             -19.80    26400.00
04541               5.20    26400.00
04542               2.00    27200.00
04543              -8.60    27200.00
04544               0.80    28000.00
04545              -0.20    28000.00
04546              -6.60    28000.00
04547              -2.00    28800.00
04548               2.20    28800.00
04549              -8.40    28800.00
04550               0.20    28800.00
04551              -1.20    29600.00
04552              -6.60    30400.00
04553               1.80    30400.00
04554              -2.20    31200.00
04555              -5.20    30400.00
04556               0.40    31200.00
04557              -3.80    31200.00
04558              -5.00    31200.00
04559              -0.40    31200.00
04560              -4.20    32000.00
04561              -1.40    32000.00
04562              -1.60    32800.00
04563              -3.60    32800.00
04564              -2.60    32000.00
04565              -3.60    32800.00
04566              -2.00    32800.00
04567              -3.40    32000.00
04568              -1.80    32800.00
04569              -3.00    32800.00
04570              -3.40    33600.00
04571              -1.40    32800.00
04572              -4.60    33600.00
04573              -2.20    33600.00
04574              -3.40    33600.00
04575              -3.60    33600.00
04576              -1.80    32800.00
04577              -4.40    32800.00
04578              -2.60    33600.00
04579              -2.40    32800.00
04580              -3.20    33600.00
04581              -2.80    32800.00
04582              -3.80    32800.00
04583              -2.60    32800.00
04584              -2.20    32800.00
04585              -3.40    32000.00
04586              -3.20    32000.00
04587              -2.60    32800.00
04588              -3.00    32000.00
04589              -3.40    32000.00
04590              -2.80    32000.00
04591              -2.20    31200.00
04592              -3.40    30400.00
04593              -3.40    30400.00
04594              -2.00    31200.00
04595              -2.80    30400.00
04596              -4.40    30400.00
04597              -1.40    30400.00
04598              -2.00    30400.00
04599              -3.00    29600.00
04600              -1.80    29600.00
04601              -3.00    28800.00
04602              -4.20    28800.00
04603              -2.20    28000.00
04604              -2.80    28000.00
04605              -2.20    28000.00
04606              -1.60    28000.00
04607              -3.00    26400.00
04608              -1.80    27200.00
04609              -2.40    26400.00
04610              -3.80    25600.00
04611              -1.20    24800.00
04612              -2.20    24800.00
04613              -2.60    24800.00
04614              -2.00    24800.00
04615              -2.80    24000.00
04616              -2.20    24000.00
04617              -1.20    23200.00
04618              -1.80    22400.00
04619              -2.80    22400.00
04620              -2.20    21600.00
04621              -2.00    20800.00
04622              -2.20    20000.00
04623              -1.80    19200.00
04624              -1.40    19200.00
04625              -1.20    19200.00
04626              -1.80    18400.00
04627              -2.20    18400.00
04628              -1.80    17600.00
04629              -2.60    16800.00
04630              -1.80    16800.00
04631              -0.60    16000.00
04632              -1.40    15200.00
04633              -1.40    15200.00
04634              -1.40    14400.00
04635              -1.20    14400.00
04636              -2.00    12800.00
04637              -2.80    12800.00
04638              -1.00    12000.00
04639              -1.40    11200.00
04640              -1.40    11200.00
04641              -0.60    10400.00
04642              -2.00     9600.00
04643              -0.40     8800.00
04644              -0.80     8800.00
04645              -2.20     8000.00
04646              -1.00     8000.00
04647              -1.80     7200.00
04648              -1.20     5600.00
04649              -0.40     5600.00
04650              -0.60     4800.00
04651              -0.60     4800.00
04652              -1.20     4000.00
04653              -1.20     3200.00
04654              -0.80     2400.00
04655              -2.00     1600.00
04656              -1.00      800.00
04657               0.20      800.00
04658               0.20        0.00
04659               0.20        0.00
04660               1.80     -800.00
04661               2.20     -800.00
04662              -2.20    -1600.00
04663               0.20    -2400.00
04664               1.40    -3200.00
04665               0.40    -3200.00
04666               0.20    -4000.00
04667               5.80    -4000.00
04668              21.80    -5600.00
04669              10.60    -7200.00
04670             -25.00    -8000.00
04671              -6.00    -8000.00
04672              25.00    -8000.00
04673             -23.00    -8000.00
04674             -25.00    -8000.00
04675              25.00    -9600.00
04676              12.20   -10400.00
04677             -25.00   -10400.00
04678              25.00   -11200.00
04679              -8.40   -12800.00
04680             -25.00   -12800.00
04681              25.00   -13600.00
04682             -25.00   -13600.00
04683              21.20   -14400.00
04684              -5.40   -14400.00
04685             -18.20   -14400.00
04686              25.00   -16000.00
04687             -23.80   -16000.00
04688             -10.80   -17600.00
04689              25.00   -17600.00
04690             -11.40   -17600.00
04691             -22.20   -18400.00
04692              25.00   -19200.00
04693              -5.40   -19200.00
04694             -19.40   -20000.00
04695              25.00   -20800.00
04696             -12.60   -20800.00
04697              -5.80   -21600.00
04698              18.00   -22400.00
04699             -14.00   -23200.00
04700               0.60   -23200.00
04701              13.60   -23200.00
04702              -7.00   -24000.00
04703               1.40   -24000.00
04704              13.40   -24800.00
04705             -12.60   -24800.00
04706               6.60   -25600.00
04707               6.80   -25600.00
04708              -9.00   -26400.00
04709               9.00   -26400.00
04710               2.60   -27200.00
04711              -2.80   -27200.00
04712               4.40   -27200.00
04713               3.80   -28000.00
04714              -2.60   -28800.00
04715               5.00   -28800.00
04716               2.80   -28800.00
04717              -2.80   -29600.00
04718               5.80   -28800.00
04719               1.20   -29600.00
04720              -0.20   -30400.00
04721               5.20   -30400.00
04722               0.60   -30400.00
04723               0.60   -30400.00
04724               5.20   -30400.00
04725              -0.40   -30400.00
04726               1.40   -31200.00
04727               3.80   -32000.00
04728               1.40   -32000.00
04729               3.00   -32000.00
04730               2.20   -32000.00
04731               1.80   -32800.00
04732               1.60   -32000.00
04733               2.20   -32800.00
04734               2.00   -32800.00
04735               2.00   -32000.00
04736               2.80   -32800.00
04737               1.40   -32000.00
04738               2.80   -32800.00
04739               2.00   -32800.00
04740               1.80   -32800.00
04741               3.40   -32800.00
04742               1.40   -32800.00
04743               2.60   -32000.00
04744               2.80   -32800.00
04745               1.40   -32000.00
04746               3.00   -32800.00
04747               2.60   -32800.00
04748               1.80   -32000.00
04749               2.20   -32000.00
04750               2.40   -32800.00
04751               2.20   -32000.00
04752               2.40   -32000.00
04753               2.60   -32000.00
04754               2.00   -31200.00
04755               2.20   -32000.00
04756               2.60   -30400.00
04757               1.80   -31200.00
04758               2.60   -30400.00
04759               2.00   -30400.00
04760               1.80   -30400.00
04761               2.80   -29600.00
04762               1.60   -29600.00
04763               2.00   -29600.00
04764               2.40   -29600.00
04765               2.20   -28800.00
04766               2.00   -28800.00
04767               2.00   -28800.00
04768               2.20   -28000.00
04769               1.80   -28000.00
04770               1.80   -27200.00
04771               1.80   -27200.00
04772               1.20   -27200.00
04773               2.00   -26400.00
04774               1.80   -26400.00
04775               1.60   -25600.00
04776               2.00   -26400.00
04777               1.20   -25600.00
04778               1.60   -24000.00
04779               2.00   -24800.00
04780               1.20   -24000.00
04781               1.60   -24000.00
04782               1.80   -23200.00
04783               1.40   -22400.00
04784               1.40   -22400.00
04785               1.20   -21600.00
04786               1.20   -22400.00
04787               1.20   -20800.00
04788               1.60   -20800.00
04789               1.00   -20800.00
04790               1.00   -20000.00
04791               1.40   -18400.00
04792               1.00   -18400.00
04793               1.20   -17600.00
04794               1.20   -17600.00
04795               1.00   -16800.00
04796               1.20   -16800.00
04797               0.60   -16800.00
04798               1.20   -16000.00
04799               0.60   -14400.00
04800               0.60   -14400.00
04801               1.00   -14400.00
04802               0.60   -13600.00
04803               0.60   -12800.00
04804               0.60   -12800.00
04805               0.40   -11200.00
04806               1.00   -11200.00
04807               0.20   -10400.00
04808               0.60    -9600.00
04809               0.40    -8800.00
04810               0.40    -8800.00
04811               0.60    -8000.00
04812               0.40    -7200.00
04813               0.20    -7200.00
04814               0.40    -6400.00
04815               0.40    -4800.00
04816               0.20    -4800.00
04817               0.00    -4000.00
04818               0.20    -4000.00
04819               0.20    -3200.00
04820               0.40    -2400.00
04821              -0.20    -1600.00
04822              -0.20    -1600.00
04823              -0.20     -800.00
04824              -0.20        0.00
04825               0.20        0.00
04826               0.40     1600.00
04827               2.60     1600.00
04828               1.60     2400.00
04829              -2.80     2400.00
04830               0.60     3200.00
04831               0.60     3200.00
04832              -2.80     3200.00
04833               4.60     4800.00
04834              22.80     5600.00
04835              15.60     7200.00
04836             -25.00     8000.00
04837              -6.80     8000.00
04838              25.00     8800.00
04839             -25.00     8000.00
04840             -11.60     8800.00
04841              25.00    10400.00
04842             -25.00    10400.00
04843               3.00    12000.00
04844              25.00    11200.00
04845             -25.00    12000.00
04846              25.00    12800.00
04847             -10.40    12800.00
04848             -25.00    14400.00
04849              25.00    14400.00
04850             -25.00    15200.00
04851              25.00    15200.00
04852              25.00    16000.00
04853             -25.00    16800.00
04854              25.00    17600.00
04855              17.20    17600.00
04856             -25.00    18400.00
04857               0.60    18400.00
04858              25.00    19200.00
04859             -25.00    20000.00
04860              11.60    20800.00
04861              24.40    20800.00
04862             -25.00    21600.00
04863              23.60    21600.00
04864             -11.00    22400.00
04865             -15.80    22400.00
04866              12.60    23200.00
04867              -3.80    24000.00
04868             -10.40    24000.00
04869              13.80    24800.00
04870              -5.60    24800.00
04871             -14.20    25600.00
04872              15.60    24800.00
04873             -15.80    25600.00
04874              -2.00    27200.00
04875               7.00    27200.00
04876              -8.60    27200.00
04877              -0.60    27200.00
04878               0.60    28800.00
04879              -4.20    28000.00
04880              -5.80    28800.00
04881               3.00    28800.00
04882              -6.60    28800.00
04883              -3.00    29600.00
04884               1.40    29600.00
04885              -6.20    30400.00
04886              -0.60    30400.00
04887               0.20    30400.00
04888              -5.40    31200.00
04889              -0.60    31200.00
04890              -2.00    31200.00
04891              -6.00    31200.00
04892              -0.20    32000.00
04893              -3.60    32000.00
04894              -3.00    32000.00
04895              -0.40    32800.00
04896              -3.60    32000.00
04897              -3.40    32800.00
04898              -3.20    32000.00
04899              -2.60    32800.00
04900              -3.80    32800.00
04901              -1.80    32800.00
04902              -2.60    33600.00
04903              -3.80    32800.00
04904              -0.60    33600.00
04905              -4.40    33600.00
04906              -3.00    32800.00
04907              -2.60    32800.00
04908              -4.40    33600.00
04909              -1.20    33600.00
04910              -3.40    33600.00
04911              -3.80    33600.00
04912              -2.00    32800.00
04913              -3.40    33600.00
04914              -2.80    32800.00
04915              -3.40    32800.00
04916              -3.00    32800.00
04917              -2.80    32800.00
04918              -3.00    32000.00
04919              -2.80    32800.00
04920              -3.00    32000.00
04921              -2.80    32800.00
04922              -2.80    32000.00
04923              -2.60    32000.00
04924              -2.60    31200.00
04925              -3.80    31200.00
04926              -2.20    31200.00
04927              -2.60    30400.00
04928              -3.60    31200.00
04929              -2.00    30400.00
04930              -2.80    30400.00
04931              -2.80    30400.00
04932              -2.60    30400.00
04933              -2.80    29600.00
04934              -2.80    28800.00
04935              -2.60    28800.00
04936              -2.20    28000.00
04937              -2.40    28000.00
04938              -2.80    28000.00
04939              -2.20    28000.00
04940              -2.20    27200.00
04941              -2.00    27200.00
04942              -2.60    26400.00
04943              -2.80    26400.00
04944              -2.00    25600.00
04945              -2.40    24800.00
04946              -2.20    24800.00
04947              -2.20    24000.00
04948              -2.80    24000.00
04949              -2.00    23200.00
04950              -2.20    22400.00
04951              -2.00    22400.00
04952              -2.00    21600.00
04953              -2.20    21600.00
04954              -1.80    21600.00
04955              -2.00    20800.00
04956              -2.20    20000.00
04957              -2.00    19200.00
04958              -1.80    19200.00
04959              -1.60    18400.00
04960              -2.20    18400.00
04961              -2.00    17600.00
04962              -2.00    17600.00
04963              -2.00    16800.00
04964              -1.20    16000.00
04965              -1.80    16000.00
04966              -1.80    14400.00
04967              -1.40    14400.00
04968              -1.20    14400.00
04969              -1.40    12800.00
04970              -1.80    12800.00
04971              -1.80    12000.00
04972              -1.00    11200.00
04973              -1.40    11200.00
04974              -1.80    10400.00
04975              -1.40     9600.00
04976              -0.80     9600.00
04977              -1.40     8000.00
04978              -1.40     8000.00
04979              -0.40     8000.00
04980              -1.40     7200.00
04981              -1.40     6400.00
04982              -0.20     5600.00
04983              -1.00     5600.00
04984              -1.00     4800.00
04985              -0.60     3200.00
04986              -0.60     3200.00
04987              -0.80     2400.00
04988              -1.00     2400.00
04989              -1.00     1600.00
04990              -0.20     1600.00
04991              -0.20        0.00
04992              -0.20     -800.00
04993               1.40     -800.00
04994               3.40     -800.00
04995              -2.00    -1600.00
04996               0.40    -3200.00
04997               2.00    -3200.00
04998              -0.20    -3200.00
04999               0.20    -4000.00
05000               4.60    -4000.00
