Unit:(mV)
                     CH1         CH2
Frequency              ? 299.975 kHz
00001               9.80    -4800.00
00002              25.00    -6400.00
00003             -13.80    -7200.00
00004             -25.00    -8000.00
00005              15.40    -8000.00
00006              15.80    -8800.00
00007             -25.00    -8800.00
00008              -0.20    -8800.00
00009              25.00   -10400.00
00010             -25.00   -10400.00
00011             -11.80   -11200.00
00012              25.00   -11200.00
00013             -25.00   -12800.00
00014              12.40   -13600.00
00015               9.40   -13600.00
00016             -10.80   -13600.00
00017              25.00   -14400.00
00018             -25.00   -14400.00
00019              25.00   -16000.00
00020              21.20   -16000.00
00021             -25.00   -16800.00
00022              24.40   -17600.00
00023              21.40   -17600.00
00024             -25.00   -18400.00
00025               3.00   -19200.00
00026              25.00   -19200.00
00027             -25.00   -19200.00
00028               9.80   -20800.00
00029              21.80   -20800.00
00030             -20.60   -20800.00
00031              12.80   -22400.00
00032               0.20   -22400.00
00033              -8.40   -23200.00
00034               8.40   -23200.00
00035               0.40   -24000.00
00036              -3.40   -24000.00
00037              12.60   -24800.00
00038              -5.00   -24800.00
00039              -5.00   -25600.00
00040              15.00   -25600.00
00041             -10.60   -26400.00
00042               1.20   -26400.00
00043              10.60   -27200.00
00044              -6.00   -27200.00
00045               0.80   -27200.00
00046               6.20   -27200.00
00047              -2.60   -28800.00
00048               1.20   -28800.00
00049               6.00   -28800.00
00050              -2.80   -28800.00
00051               2.20   -29600.00
00052               3.00   -29600.00
00053              -2.20   -29600.00
00054               3.60   -30400.00
00055               3.00   -30400.00
00056              -1.20   -30400.00
00057               3.60   -31200.00
00058               1.00   -31200.00
00059              -1.00   -31200.00
00060               3.40   -32000.00
00061               0.20   -32000.00
00062               1.80   -32000.00
00063               3.20   -32000.00
00064               0.20   -32000.00
00065               2.00   -32800.00
00066               1.80   -32800.00
00067               1.40   -32800.00
00068               1.80   -32800.00
00069               2.00   -32800.00
00070               1.40   -32800.00
00071               1.40   -32800.00
00072               2.00   -32800.00
00073               0.20   -33600.00
00074               2.00   -32800.00
00075               2.00   -32800.00
00076               1.00   -32800.00
00077               3.00   -32800.00
00078               0.60   -32800.00
00079               1.20   -32800.00
00080               2.40   -32800.00
00081               1.20   -32800.00
00082               1.40   -32800.00
00083               2.00   -32800.00
00084               1.80   -32800.00
00085               1.40   -32800.00
00086               1.40   -32000.00
00087               1.60   -32000.00
00088               1.80   -32000.00
00089               2.00   -32000.00
00090               1.40   -32000.00
00091               1.20   -31200.00
00092               1.40   -32000.00
00093               1.40   -30400.00
00094               2.00   -30400.00
00095               2.00   -31200.00
00096               1.40   -29600.00
00097               1.20   -30400.00
00098               1.00   -29600.00
00099               1.20   -29600.00
00100               1.40   -29600.00
00101               1.20   -28800.00
00102               1.60   -28800.00
00103               1.20   -28800.00
00104               1.20   -28000.00
00105               1.00   -27200.00
00106               1.00   -27200.00
00107               1.20   -26400.00
00108               1.00   -26400.00
00109               1.20   -26400.00
00110               1.00   -25600.00
00111               1.00   -25600.00
00112               1.40   -24800.00
00113               1.20   -24000.00
00114               1.20   -24000.00
00115               1.20   -24000.00
00116               0.40   -23200.00
00117               0.60   -22400.00
00118               1.00   -22400.00
00119               0.60   -22400.00
00120               0.80   -21600.00
00121               1.00   -20800.00
00122               0.80   -20800.00
00123               0.40   -20000.00
00124               0.40   -18400.00
00125               0.60   -18400.00
00126               0.20   -18400.00
00127               1.00   -17600.00
00128              -0.20   -17600.00
00129               1.20   -17600.00
00130               0.60   -16800.00
00131               0.20   -16000.00
00132               0.60   -16000.00
00133               0.80   -14400.00
00134              -0.40   -14400.00
00135               0.40   -13600.00
00136               1.00   -12800.00
00137              -0.60   -12800.00
00138               0.40   -12000.00
00139               1.00   -11200.00
00140              -0.20   -11200.00
00141               0.40   -10400.00
00142               0.40    -9600.00
00143              -0.40    -9600.00
00144               0.40    -8000.00
00145               0.40    -8000.00
00146              -0.60    -7200.00
00147               0.40    -7200.00
00148               0.20    -6400.00
00149              -0.60    -5600.00
00150               0.40    -4800.00
00151              -0.20    -4000.00
00152              -0.60    -3200.00
00153               0.40    -3200.00
00154              -0.40    -2400.00
00155              -0.60    -1600.00
00156              -0.20     -800.00
00157              -0.40     -800.00
00158              -0.20        0.00
00159               0.40      800.00
00160               0.20     1600.00
00161               2.80     1600.00
00162               0.40     2400.00
00163              -2.20     2400.00
00164               0.60     3200.00
00165               0.60     3200.00
00166              -2.20     4800.00
00167               6.60     4800.00
00168              25.00     7200.00
00169              -6.00     7200.00
00170             -25.00     8000.00
00171              11.40     8800.00
00172              17.80     8800.00
00173             -25.00     8800.00
00174              25.00     9600.00
00175              25.00    11200.00
00176             -25.00    10400.00
00177              25.00    12000.00
00178               5.20    12000.00
00179             -25.00    12800.00
00180              25.00    12800.00
00181             -25.00    13600.00
00182              25.00    14400.00
00183              22.60    14400.00
00184             -25.00    15200.00
00185              25.00    16000.00
00186             -25.00    16800.00
00187             -25.00    17600.00
00188              25.00    17600.00
00189             -14.20    18400.00
00190             -25.00    18400.00
00191              25.00    19200.00
00192               7.00    19200.00
00193             -25.00    20000.00
00194              25.00    20800.00
00195             -13.20    21600.00
00196              -9.20    22400.00
00197              22.20    22400.00
00198             -25.00    22400.00
00199               9.80    23200.00
00200               3.60    24000.00
00201             -15.00    24000.00
00202               6.60    24800.00
00203              10.60    24800.00
00204             -23.00    25600.00
00205              10.00    25600.00
00206               5.40    25600.00
00207             -23.00    27200.00
00208              15.40    27200.00
00209              -3.80    27200.00
00210              -9.00    27200.00
00211               6.80    28800.00
00212              -3.00    28000.00
00213              -7.40    28800.00
00214               3.00    28800.00
00215              -1.00    29600.00
00216              -8.40    30400.00
00217               3.60    30400.00
00218              -3.40    30400.00
00219              -4.60    30400.00
00220               3.40    31200.00
00221              -3.80    31200.00
00222              -3.20    32000.00
00223               1.00    32000.00
00224              -4.40    32000.00
00225              -2.20    32000.00
00226              -0.20    32800.00
00227              -4.60    32800.00
00228               0.20    32800.00
00229              -1.40    32800.00
00230              -3.40    33600.00
00231              -1.20    33600.00
00232              -3.00    33600.00
00233              -2.60    33600.00
00234              -2.00    33600.00
00235              -1.40    33600.00
00236              -3.60    33600.00
00237              -0.60    33600.00
00238              -1.60    33600.00
00239              -4.40    33600.00
00240              -0.20    33600.00
00241              -3.80    32800.00
00242              -3.00    34400.00
00243               0.40    33600.00
00244              -3.80    33600.00
00245              -2.80    33600.00
00246              -1.40    33600.00
00247              -2.80    33600.00
00248              -2.20    33600.00
00249              -2.80    33600.00
00250              -2.00    33600.00
00251              -2.00    32800.00
00252              -2.80    32800.00
00253              -2.60    32800.00
00254              -1.80    32800.00
00255              -2.20    32800.00
00256              -2.40    32000.00
00257              -1.20    32800.00
00258              -2.80    32000.00
00259              -3.60    32000.00
00260              -1.00    32000.00
00261              -2.20    31200.00
00262              -2.80    31200.00
00263              -1.20    31200.00
00264              -2.20    31200.00
00265              -2.20    30400.00
00266              -1.80    30400.00
00267              -2.20    30400.00
00268              -2.00    28800.00
00269              -2.00    28800.00
00270              -1.80    28800.00
00271              -2.00    28800.00
00272              -2.00    28000.00
00273              -2.00    28000.00
00274              -1.40    27200.00
00275              -1.40    27200.00
00276              -2.20    27200.00
00277              -1.80    26400.00
00278              -1.40    25600.00
00279              -2.00    25600.00
00280              -1.40    25600.00
00281              -1.80    24800.00
00282              -1.80    24000.00
00283              -1.20    24000.00
00284              -1.80    24000.00
00285              -1.20    23200.00
00286              -1.80    23200.00
00287              -1.40    21600.00
00288              -1.40    21600.00
00289              -1.40    20800.00
00290              -1.40    20800.00
00291              -1.40    19200.00
00292              -1.20    19200.00
00293              -1.20    19200.00
00294              -1.40    18400.00
00295              -1.00    17600.00
00296              -1.20    17600.00
00297              -1.40    17600.00
00298              -1.00    16000.00
00299              -1.80    16000.00
00300              -1.00    15200.00
00301              -1.20    15200.00
00302              -1.20    14400.00
00303              -1.00    12800.00
00304              -1.40    12800.00
00305              -1.20    12000.00
00306              -1.00    12000.00
00307              -1.00    11200.00
00308              -1.20    11200.00
00309              -1.40    10400.00
00310               0.00     9600.00
00311              -1.40     8800.00
00312              -1.00     8800.00
00313               0.20     8000.00
00314              -1.20     8000.00
00315              -1.40     6400.00
00316              -0.40     6400.00
00317              -1.00     5600.00
00318              -0.60     4800.00
00319              -0.20     4000.00
00320              -0.40     3200.00
00321              -0.60     3200.00
00322              -1.00     2400.00
00323              -1.00     1600.00
00324               0.20      800.00
00325               0.20        0.00
00326               0.20        0.00
00327               1.80     -800.00
00328               3.60     -800.00
00329              -1.80    -1600.00
00330               0.40    -3200.00
00331               1.80    -3200.00
00332               0.20    -3200.00
00333              -0.40    -4000.00
00334               5.80    -4800.00
00335              21.80    -6400.00
00336              11.60    -7200.00
00337             -25.00    -7200.00
00338              -7.00    -8000.00
00339              25.00    -8800.00
00340             -22.80    -8000.00
00341             -25.00    -8800.00
00342              25.00    -9600.00
00343               9.20   -10400.00
00344             -25.00   -10400.00
00345              25.00   -12800.00
00346             -12.40   -12000.00
00347             -25.00   -12800.00
00348              25.00   -13600.00
00349             -25.00   -13600.00
00350              25.00   -14400.00
00351             -21.20   -14400.00
00352              -9.40   -14400.00
00353              25.00   -16000.00
00354             -25.00   -16000.00
00355              -3.60   -16800.00
00356              25.00   -17600.00
00357             -18.80   -18400.00
00358             -19.60   -19200.00
00359              25.00   -19200.00
00360             -11.60   -19200.00
00361             -16.60   -20000.00
00362              25.00   -20800.00
00363             -13.80   -20800.00
00364              -1.20   -22400.00
00365              11.60   -22400.00
00366             -11.00   -22400.00
00367               4.60   -23200.00
00368               4.60   -23200.00
00369              -5.20   -24000.00
00370               7.60   -24000.00
00371               5.20   -24800.00
00372             -11.40   -24800.00
00373              13.00   -25600.00
00374              -0.80   -25600.00
00375              -7.80   -26400.00
00376              13.00   -26400.00
00377              -3.00   -27200.00
00378              -2.80   -27200.00
00379               6.60   -28000.00
00380               0.40   -28000.00
00381              -1.60   -28800.00
00382               6.00   -28800.00
00383              -0.40   -28800.00
00384              -1.20   -28800.00
00385               5.20   -29600.00
00386              -1.60   -29600.00
00387               1.40   -30400.00
00388               4.60   -30400.00
00389              -1.20   -31200.00
00390               1.80   -31200.00
00391               3.80   -30400.00
00392              -1.80   -31200.00
00393               2.60   -32000.00
00394               2.60   -32000.00
00395              -0.40   -32000.00
00396               3.60   -32000.00
00397               1.00   -32800.00
00398               0.40   -32000.00
00399               2.00   -32000.00
00400               1.80   -32800.00
00401               1.20   -32800.00
00402               2.00   -32800.00
00403               2.40   -32800.00
00404               1.00   -32800.00
00405               2.80   -32800.00
00406               1.20   -32800.00
00407               1.00   -32800.00
00408               3.00   -32800.00
00409               0.40   -32800.00
00410               2.00   -32800.00
00411               2.20   -32800.00
00412               0.40   -32800.00
00413               2.20   -32800.00
00414               2.00   -32800.00
00415               1.00   -32800.00
00416               1.40   -32800.00
00417               1.80   -32800.00
00418               1.40   -32000.00
00419               1.60   -32000.00
00420               1.80   -32800.00
00421               1.40   -32000.00
00422               1.60   -32000.00
00423               1.40   -32000.00
00424               1.00   -31200.00
00425               2.00   -32000.00
00426               1.40   -32000.00
00427               1.20   -30400.00
00428               1.80   -31200.00
00429               1.00   -30400.00
00430               1.00   -30400.00
00431               1.80   -29600.00
00432               1.20   -29600.00
00433               1.20   -28800.00
00434               1.20   -28800.00
00435               1.00   -28800.00
00436               1.20   -28800.00
00437               1.60   -28000.00
00438               1.20   -27200.00
00439               1.20   -27200.00
00440               1.20   -27200.00
00441               1.00   -27200.00
00442               0.60   -26400.00
00443               1.20   -25600.00
00444               0.60   -25600.00
00445               1.00   -25600.00
00446               1.00   -24800.00
00447               0.80   -24000.00
00448               1.00   -24000.00
00449               1.00   -23200.00
00450               1.00   -23200.00
00451               1.00   -23200.00
00452               0.60   -22400.00
00453               1.00   -22400.00
00454               1.00   -20800.00
00455               1.00   -20000.00
00456               0.60   -20000.00
00457               0.40   -20000.00
00458               0.80   -18400.00
00459               0.60   -18400.00
00460               0.80   -18400.00
00461               0.60   -17600.00
00462               0.40   -17600.00
00463               0.60   -16800.00
00464               0.40   -16000.00
00465               0.40   -16000.00
00466               0.40   -15200.00
00467               0.40   -14400.00
00468               0.80   -14400.00
00469               0.40   -13600.00
00470               0.40   -12800.00
00471               0.20   -12000.00
00472               0.40   -11200.00
00473               0.40   -11200.00
00474               0.20   -10400.00
00475               0.00   -10400.00
00476               0.40    -9600.00
00477              -0.20    -8800.00
00478               0.20    -8000.00
00479               0.40    -8000.00
00480               0.20    -6400.00
00481               0.20    -6400.00
00482               0.00    -5600.00
00483               0.20    -4800.00
00484               0.20    -4000.00
00485              -0.40    -3200.00
00486              -0.20    -3200.00
00487               0.20    -2400.00
00488              -0.40    -1600.00
00489              -0.40    -1600.00
00490              -0.20     -800.00
00491              -0.40        0.00
00492              -0.40        0.00
00493               0.40      800.00
00494               1.40     1600.00
00495               2.40     1600.00
00496              -2.60     2400.00
00497              -0.40     3200.00
00498               1.20     3200.00
00499              -1.20     4800.00
00500               1.80     4800.00
00501              20.20     7200.00
00502              22.80     7200.00
00503             -25.00     8000.00
00504             -14.60     8000.00
00505              25.00     8000.00
00506             -25.00     8800.00
00507             -16.20     8800.00
00508              25.00    10400.00
00509             -25.00     9600.00
00510               3.40    11200.00
00511              25.00    12000.00
00512             -25.00    12000.00
00513              25.00    12800.00
00514             -22.60    12800.00
00515             -15.40    14400.00
00516              25.00    14400.00
00517             -25.00    15200.00
00518              25.00    16000.00
00519              25.00    16000.00
00520             -25.00    16800.00
00521              25.00    17600.00
00522              17.60    18400.00
00523             -25.00    18400.00
00524               4.00    18400.00
00525              25.00    20000.00
00526             -25.00    20000.00
00527              13.20    20800.00
00528              20.20    20800.00
00529             -25.00    21600.00
00530              25.00    22400.00
00531             -18.60    22400.00
00532              -7.80    23200.00
00533              14.20    24000.00
00534             -12.60    24800.00
00535              -3.40    24800.00
00536              16.60    24800.00
00537             -14.20    25600.00
00538              -9.20    25600.00
00539              18.80    25600.00
00540             -22.00    27200.00
00541               3.40    27200.00
00542               9.20    27200.00
00543             -13.00    27200.00
00544               2.40    28000.00
00545               1.40    28800.00
00546              -7.00    28800.00
00547              -1.20    28800.00
00548               3.60    28800.00
00549              -7.80    28800.00
00550               0.20    30400.00
00551              -0.20    30400.00
00552              -7.40    30400.00
00553               2.20    31200.00
00554              -1.00    31200.00
00555              -5.80    31200.00
00556               2.20    31200.00
00557              -3.00    32000.00
00558              -5.60    32000.00
00559               2.00    32800.00
00560              -4.40    32800.00
00561              -2.60    32800.00
00562               1.20    32800.00
00563              -4.40    32800.00
00564              -2.20    33600.00
00565              -2.20    33600.00
00566              -3.00    33600.00
00567              -2.20    33600.00
00568              -1.00    33600.00
00569              -3.00    33600.00
00570              -2.80    33600.00
00571              -0.20    33600.00
00572              -4.40    33600.00
00573              -1.20    33600.00
00574              -1.60    33600.00
00575              -4.20    33600.00
00576               0.40    33600.00
00577              -3.00    33600.00
00578              -3.40    33600.00
00579              -1.00    33600.00
00580              -2.80    33600.00
00581              -2.20    33600.00
00582              -2.20    33600.00
00583              -2.60    33600.00
00584              -2.00    33600.00
00585              -2.00    33600.00
00586              -2.20    32800.00
00587              -2.20    33600.00
00588              -1.80    32800.00
00589              -2.20    32800.00
00590              -2.20    32000.00
00591              -2.00    32800.00
00592              -3.00    32000.00
00593              -1.20    32000.00
00594              -1.80    31200.00
00595              -2.80    31200.00
00596              -1.60    31200.00
00597              -2.20    31200.00
00598              -2.00    30400.00
00599              -1.80    30400.00
00600              -2.60    30400.00
00601              -1.80    30400.00
00602              -2.20    28800.00
00603              -1.80    28800.00
00604              -1.40    28800.00
00605              -2.20    28000.00
00606              -1.40    28000.00
00607              -1.40    28000.00
00608              -1.80    27200.00
00609              -2.20    27200.00
00610              -2.00    26400.00
00611              -1.20    25600.00
00612              -2.00    25600.00
00613              -1.20    24800.00
00614              -1.80    24800.00
00615              -2.20    24000.00
00616              -1.20    24000.00
00617              -1.80    24000.00
00618              -1.40    23200.00
00619              -1.80    22400.00
00620              -1.80    22400.00
00621              -1.00    21600.00
00622              -1.80    21600.00
00623              -1.80    20800.00
00624              -1.40    20000.00
00625              -1.40    19200.00
00626              -1.20    18400.00
00627              -1.40    18400.00
00628              -1.40    17600.00
00629              -1.80    17600.00
00630              -1.20    17600.00
00631              -1.20    16000.00
00632              -1.80    16000.00
00633              -0.80    15200.00
00634              -1.40    15200.00
00635              -1.40    14400.00
00636              -0.40    14400.00
00637              -1.40    13600.00
00638              -1.80    12800.00
00639               0.40    12800.00
00640              -1.40    11200.00
00641              -2.00    10400.00
00642              -0.60     9600.00
00643              -0.60     9600.00
00644              -2.00     8800.00
00645              -0.60     8800.00
00646               0.20     8000.00
00647              -2.00     7200.00
00648              -1.00     6400.00
00649               0.20     6400.00
00650              -1.20     5600.00
00651              -0.40     4800.00
00652              -0.40     4000.00
00653              -0.60     3200.00
00654              -0.40     3200.00
00655              -0.60     2400.00
00656              -0.40     1600.00
00657              -0.20      800.00
00658              -0.80      800.00
00659               0.60        0.00
00660               0.60        0.00
00661               3.00    -1600.00
00662               0.40    -1600.00
00663              -1.00    -1600.00
00664               1.20    -3200.00
00665               1.60    -3200.00
00666              -0.20    -3200.00
00667               2.60    -4000.00
00668              15.00    -4800.00
00669              25.00    -6400.00
00670             -25.00    -7200.00
00671             -25.00    -8000.00
00672              25.00    -8000.00
00673               1.40    -8800.00
00674             -25.00    -8800.00
00675              25.00    -9600.00
00676              25.00   -10400.00
00677             -25.00   -10400.00
00678              25.00   -11200.00
00679              25.00   -11200.00
00680             -25.00   -12000.00
00681              25.00   -12800.00
00682             -12.40   -12800.00
00683               9.00   -13600.00
00684              11.80   -14400.00
00685             -25.00   -15200.00
00686              25.00   -16000.00
00687              -6.80   -16800.00
00688             -25.00   -16800.00
00689              25.00   -17600.00
00690               3.80   -17600.00
00691             -25.00   -17600.00
00692              19.60   -19200.00
00693              15.60   -19200.00
00694             -25.00   -20000.00
00695              25.00   -20000.00
00696               5.20   -20800.00
00697             -15.40   -20800.00
00698              16.20   -22400.00
00699              -7.40   -22400.00
00700              -1.80   -22400.00
00701               7.80   -23200.00
00702              -3.20   -24000.00
00703               1.00   -24000.00
00704              11.60   -24800.00
00705             -10.80   -24800.00
00706               4.20   -25600.00
00707               9.40   -26400.00
00708             -13.40   -26400.00
00709               9.40   -26400.00
00710               4.60   -27200.00
00711              -6.00   -27200.00
00712               5.20   -27200.00
00713               3.60   -27200.00
00714              -3.60   -28800.00
00715               3.80   -28800.00
00716               3.60   -28800.00
00717              -2.80   -28800.00
00718               4.60   -29600.00
00719               1.00   -29600.00
00720              -1.20   -29600.00
00721               4.60   -30400.00
00722               1.00   -30400.00
00723              -0.60   -31200.00
00724               4.20   -30400.00
00725              -0.20   -32000.00
00726               0.40   -31200.00
00727               3.60   -32000.00
00728              -0.40   -32000.00
00729               3.00   -32000.00
00730               2.60   -32000.00
00731               0.20   -32000.00
00732               2.00   -32800.00
00733               1.80   -32800.00
00734               1.40   -32000.00
00735               1.40   -32800.00
00736               2.20   -32800.00
00737               1.20   -32800.00
00738               2.00   -32800.00
00739               2.00   -32800.00
00740               0.40   -32800.00
00741               2.80   -32800.00
00742               1.80   -33600.00
00743               1.40   -32800.00
00744               2.80   -33600.00
00745               1.00   -32000.00
00746               1.80   -32800.00
00747               2.20   -32800.00
00748               1.20   -33600.00
00749               1.40   -32800.00
00750               1.80   -32800.00
00751               1.80   -32800.00
00752               1.20   -32800.00
00753               1.40   -32000.00
00754               1.40   -32000.00
00755               1.20   -32000.00
00756               2.00   -32000.00
00757               1.00   -30400.00
00758               1.20   -30400.00
00759               1.80   -30400.00
00760               1.00   -31200.00
00761               1.80   -30400.00
00762               1.60   -30400.00
00763               1.20   -30400.00
00764               2.00   -29600.00
00765               1.00   -29600.00
00766               0.60   -29600.00
00767               1.60   -28800.00
00768               1.40   -28800.00
00769               1.20   -28800.00
00770               0.60   -28800.00
00771               1.40   -28000.00
00772               0.60   -27200.00
00773               1.00   -27200.00
00774               1.20   -27200.00
00775               1.00   -26400.00
00776               1.20   -26400.00
00777               0.60   -25600.00
00778               1.00   -25600.00
00779               1.00   -25600.00
00780               0.60   -24000.00
00781               1.40   -24000.00
00782               0.40   -24000.00
00783               0.40   -23200.00
00784               1.40   -23200.00
00785               0.60   -22400.00
00786               0.80   -22400.00
00787               1.00   -20800.00
00788               1.00   -20800.00
00789               0.80   -20000.00
00790               0.20   -20000.00
00791               0.40   -19200.00
00792               1.00   -18400.00
00793               1.00   -18400.00
00794               0.40   -17600.00
00795               0.60   -16800.00
00796               1.00   -16800.00
00797               0.40   -16000.00
00798               0.40   -16000.00
00799               0.40   -15200.00
00800               0.20   -14400.00
00801               0.60   -14400.00
00802               0.40   -13600.00
00803               0.20   -12800.00
00804               0.40   -12800.00
00805               0.60   -12000.00
00806               0.20   -11200.00
00807               0.40   -10400.00
00808               0.00    -9600.00
00809               0.20    -9600.00
00810               0.40    -9600.00
00811              -0.20    -8000.00
00812               0.20    -8000.00
00813               0.40    -7200.00
00814              -0.20    -6400.00
00815               0.20    -6400.00
00816               0.20    -5600.00
00817              -0.40    -4800.00
00818              -0.40    -4000.00
00819              -0.20    -3200.00
00820              -0.40    -3200.00
00821               0.20    -1600.00
00822              -0.20     -800.00
00823              -0.60     -800.00
00824              -0.40        0.00
00825              -0.40      800.00
00826              -0.40     1600.00
00827               0.40     1600.00
00828               3.40     2400.00
00829              -1.40     2400.00
00830              -1.80     3200.00
00831               1.20     3200.00
00832              -0.20     4000.00
00833              -1.00     4800.00
00834              11.00     5600.00
00835              25.00     7200.00
00836             -25.00     8000.00
00837             -25.00     8800.00
00838              23.80     8800.00
00839               1.20     8800.00
00840             -25.00     9600.00
00841              25.00     9600.00
00842               7.20    10400.00
00843             -25.00    11200.00
00844              25.00    12000.00
00845             -25.00    12000.00
00846              -1.40    12800.00
00847              25.00    14400.00
00848             -25.00    14400.00
00849              25.00    14400.00
00850             -25.00    14400.00
00851             -25.00    15200.00
00852              25.00    16000.00
00853             -25.00    16000.00
00854               5.20    17600.00
00855              25.00    17600.00
00856             -25.00    18400.00
00857             -19.60    19200.00
00858              25.00    19200.00
00859             -18.40    20000.00
00860             -19.80    20800.00
00861              25.00    20800.00
00862             -25.00    21600.00
00863              10.80    22400.00
00864               5.20    22400.00
00865             -23.80    22400.00
00866              17.20    24000.00
00867              -5.00    24000.00
00868             -11.60    24000.00
00869              13.00    24800.00
00870               0.80    25600.00
00871             -21.60    25600.00
00872              19.00    26400.00
00873              -8.60    26400.00
00874             -13.20    27200.00
00875              15.60    27200.00
00876             -10.60    28000.00
00877              -3.40    28000.00
00878               4.40    28800.00
00879              -4.40    28800.00
00880              -5.00    28800.00
00881               4.20    29600.00
00882              -5.00    29600.00
00883              -4.60    30400.00
00884               2.60    30400.00
00885              -6.20    30400.00
00886              -1.20    31200.00
00887               2.60    30400.00
00888              -6.20    31200.00
00889              -0.60    31200.00
00890              -0.60    31200.00
00891              -7.00    32000.00
00892               0.40    32800.00
00893              -2.00    32800.00
00894              -4.20    32800.00
00895               1.80    33600.00
00896              -2.40    32800.00
00897              -2.80    33600.00
00898              -1.40    32800.00
00899              -3.00    33600.00
00900              -3.00    33600.00
00901              -2.40    33600.00
00902              -3.00    33600.00
00903              -4.20    33600.00
00904               0.20    33600.00
00905              -2.60    33600.00
00906              -1.40    33600.00
00907               1.00    33600.00
00908              -5.00    33600.00
00909              -1.20    33600.00
00910              -2.20    33600.00
00911              -6.20    33600.00
00912              -1.20    33600.00
00913              -1.80    33600.00
00914              -2.20    33600.00
00915              -0.40    33600.00
00916              -1.40    33600.00
00917              -2.20    33600.00
00918              -2.00    33600.00
00919              -2.80    33600.00
00920              -3.80    32800.00
00921              -2.60    32800.00
00922              -2.20    32000.00
00923              -2.20    33600.00
00924              -0.60    32000.00
00925              -2.00    32800.00
00926              -1.20    31200.00
00927              -1.00    31200.00
00928              -3.00    31200.00
00929              -2.40    31200.00
00930              -2.60    31200.00
00931              -3.00    30400.00
00932              -1.40    30400.00
00933              -1.40    29600.00
00934              -1.40    30400.00
00935              -1.20    29600.00
00936              -1.80    28800.00
00937              -2.00    28000.00
00938              -2.60    28000.00
00939              -2.20    28000.00
00940              -2.60    28000.00
00941              -1.40    27200.00
00942              -1.00    27200.00
00943              -1.80    27200.00
00944              -1.00    25600.00
00945              -1.20    26400.00
00946              -2.00    25600.00
00947              -1.80    25600.00
00948              -2.80    24800.00
00949              -2.20    24800.00
00950              -1.80    24000.00
00951              -1.80    23200.00
00952              -1.40    23200.00
00953              -1.80    22400.00
00954              -1.20    22400.00
00955              -1.40    20800.00
00956              -1.60    20800.00
00957              -2.00    20800.00
00958              -2.00    19200.00
00959              -1.00    19200.00
00960              -1.80    18400.00
00961              -1.80    18400.00
00962              -1.00    17600.00
00963              -1.20    17600.00
00964              -0.60    17600.00
00965              -1.40    16000.00
00966              -1.40    15200.00
00967              -1.20    15200.00
00968              -1.40    14400.00
00969              -1.40    14400.00
00970              -1.20    13600.00
00971              -1.20    12800.00
00972              -0.60    12000.00
00973              -0.60    12000.00
00974              -1.00    11200.00
00975              -1.20    10400.00
00976              -0.60     9600.00
00977              -1.00     8800.00
00978              -1.40     8800.00
00979              -0.60     8000.00
00980              -1.40     8000.00
00981              -1.00     7200.00
00982              -0.40     7200.00
00983              -0.60     5600.00
00984              -0.40     4800.00
00985              -0.40     4800.00
00986              -0.60     3200.00
00987              -0.20     3200.00
00988              -0.60     2400.00
00989              -1.00     2400.00
00990               0.20     1600.00
00991              -0.40      800.00
00992               0.40        0.00
00993               1.00        0.00
00994               2.20     -800.00
00995               2.20    -1600.00
00996              -1.80    -1600.00
00997               0.60    -3200.00
00998               1.20    -3200.00
00999               0.20    -3200.00
01000               1.00    -4000.00
01001               9.00    -4000.00
01002              25.00    -6400.00
01003              -7.40    -7200.00
01004             -25.00    -8000.00
01005              10.40    -8000.00
01006              20.60    -8800.00
01007             -25.00    -8800.00
01008              -8.60    -8800.00
01009              25.00   -10400.00
01010             -25.00   -10400.00
01011             -25.00   -11200.00
01012              25.00   -12000.00
01013             -25.00   -12800.00
01014               3.00   -12800.00
01015              18.60   -13600.00
01016             -17.20   -13600.00
01017              25.00   -14400.00
01018             -25.00   -15200.00
01019              18.60   -16000.00
01020              25.00   -16000.00
01021             -25.00   -16800.00
01022              17.40   -16800.00
01023              25.00   -17600.00
01024             -25.00   -17600.00
01025              -3.40   -19200.00
01026              25.00   -20000.00
01027             -25.00   -20000.00
01028               3.60   -20000.00
01029              25.00   -20800.00
01030             -20.40   -21600.00
01031               9.60   -21600.00
01032               2.80   -22400.00
01033              -8.80   -22400.00
01034               8.00   -23200.00
01035               1.80   -24000.00
01036              -4.40   -24000.00
01037              11.40   -24000.00
01038              -2.80   -24800.00
01039              -7.00   -25600.00
01040              15.40   -26400.00
01041              -8.80   -26400.00
01042               0.00   -26400.00
01043              11.40   -26400.00
01044              -6.20   -27200.00
01045               1.00   -27200.00
01046               6.20   -27200.00
01047              -2.20   -28000.00
01048               0.60   -28800.00
01049               6.20   -28800.00
01050              -2.40   -29600.00
01051               1.40   -28800.00
01052               4.20   -29600.00
01053              -2.00   -29600.00
01054               3.40   -30400.00
01055               3.60   -30400.00
01056              -1.20   -30400.00
01057               3.40   -30400.00
01058               2.00   -32000.00
01059              -1.00   -32000.00
01060               3.60   -32000.00
01061               1.20   -32000.00
01062               1.40   -32000.00
01063               3.60   -32000.00
01064               0.20   -32000.00
01065               1.20   -32800.00
01066               2.20   -32000.00
01067               1.80   -32000.00
01068               1.40   -32800.00
01069               2.00   -32800.00
01070               1.80   -32800.00
01071               1.20   -32800.00
01072               2.60   -32800.00
01073               0.40   -32800.00
01074               2.20   -32800.00
01075               2.60   -32000.00
01076              -0.20   -32800.00
01077               3.00   -32800.00
01078               2.20   -32800.00
01079               0.20   -32800.00
01080               1.00   -32800.00
01081               2.80   -32800.00
01082               1.80   -32000.00
01083              -0.20   -32000.00
01084               1.80   -32800.00
01085               3.00   -32800.00
01086               0.40   -32000.00
01087               0.60   -32000.00
01088               2.60   -32000.00
01089               1.80   -32000.00
01090               0.40   -32000.00
01091               1.80   -32000.00
01092               2.00   -31200.00
01093              -0.40   -31200.00
01094               2.20   -30400.00
01095               3.60   -30400.00
01096               0.00   -30400.00
01097               0.60   -29600.00
01098               2.60   -29600.00
01099               0.40   -29600.00
01100               0.40   -28800.00
01101               2.00   -28800.00
01102               1.80   -28800.00
01103               0.20   -28800.00
01104               1.80   -28000.00
01105               1.80   -27200.00
01106               0.60   -27200.00
01107               1.20   -26400.00
01108               1.80   -26400.00
01109               0.80   -26400.00
01110               0.80   -25600.00
01111               1.80   -25600.00
01112               1.20   -25600.00
01113               0.40   -24000.00
01114               1.40   -24000.00
01115               1.00   -24000.00
01116               0.60   -23200.00
01117               1.00   -22400.00
01118               0.40   -22400.00
01119               1.20   -22400.00
01120               1.20   -21600.00
01121               0.60   -20800.00
01122               1.20   -20800.00
01123               1.00   -20000.00
01124               0.20   -20000.00
01125               0.60   -18400.00
01126               0.60   -18400.00
01127               1.00   -17600.00
01128               1.00   -17600.00
01129               0.60   -16800.00
01130               0.40   -16000.00
01131               0.80   -16000.00
01132               0.60   -16000.00
01133               0.40   -14400.00
01134               1.00   -14400.00
01135               0.40   -13600.00
01136              -0.40   -13600.00
01137               0.40   -12000.00
01138               0.20   -12000.00
01139               0.40   -11200.00
01140               1.00   -11200.00
01141               0.20   -10400.00
01142               0.60   -10400.00
01143               0.20    -8800.00
01144              -0.60    -8000.00
01145               0.60    -8000.00
01146              -0.20    -7200.00
01147              -0.60    -7200.00
01148               0.20    -6400.00
01149               0.20    -5600.00
01150              -0.60    -4800.00
01151              -0.40    -4000.00
01152              -0.40    -4000.00
01153              -0.20    -3200.00
01154               0.20    -1600.00
01155              -1.00    -1600.00
01156              -0.40    -1600.00
01157              -0.20     -800.00
01158              -0.60        0.00
01159               0.20      800.00
01160               1.00     1600.00
01161               2.20     1600.00
01162               0.60     2400.00
01163              -2.20     3200.00
01164              -0.40     3200.00
01165               0.60     3200.00
01166              -1.20     4800.00
01167               5.60     4800.00
01168              25.00     7200.00
01169               1.40     8000.00
01170             -25.00     8000.00
01171               5.80     8000.00
01172              21.80     8800.00
01173             -25.00     8800.00
01174              18.60     9600.00
01175              25.00    10400.00
01176             -25.00    11200.00
01177              25.00    11200.00
01178              20.20    11200.00
01179             -25.00    12800.00
01180              25.00    12800.00
01181             -25.00    13600.00
01182              25.00    14400.00
01183              25.00    14400.00
01184             -25.00    15200.00
01185              25.00    16000.00
01186             -12.40    16000.00
01187             -25.00    16800.00
01188              25.00    17600.00
01189              -8.00    18400.00
01190             -25.00    19200.00
01191              23.40    19200.00
01192              12.60    19200.00
01193             -25.00    20800.00
01194              25.00    20800.00
01195              -6.80    21600.00
01196             -13.80    22400.00
01197              24.80    22400.00
01198             -25.00    23200.00
01199               7.00    23200.00
01200               6.00    24000.00
01201             -15.60    24000.00
01202               5.00    24800.00
01203              12.60    24800.00
01204             -21.80    25600.00
01205               6.00    25600.00
01206               8.60    26400.00
01207             -23.40    27200.00
01208              13.80    27200.00
01209              -2.00    27200.00
01210              -9.80    28000.00
01211               5.80    28000.00
01212              -3.20    28000.00
01213              -6.60    28800.00
01214               2.60    28800.00
01215              -0.60    28800.00
01216              -6.80    30400.00
01217               2.80    30400.00
01218              -5.20    30400.00
01219              -4.60    31200.00
01220               4.40    30400.00
01221              -4.60    31200.00
01222              -3.60    31200.00
01223               2.60    31200.00
01224              -6.20    32800.00
01225              -2.60    32000.00
01226               1.20    32000.00
01227              -6.40    32800.00
01228               0.40    32000.00
01229              -0.40    32800.00
01230              -4.60    33600.00
01231              -1.40    33600.00
01232              -3.20    33600.00
01233              -3.00    33600.00
01234              -1.40    33600.00
01235              -0.60    33600.00
01236              -3.80    33600.00
01237              -2.00    33600.00
01238              -1.60    33600.00
01239              -3.80    33600.00
01240              -0.20    33600.00
01241              -3.40    33600.00
01242              -2.20    33600.00
01243              -0.40    33600.00
01244              -4.60    33600.00
01245              -2.00    33600.00
01246              -1.20    33600.00
01247              -3.00    33600.00
01248              -1.40    32800.00
01249              -2.20    33600.00
01250              -2.80    33600.00
01251              -1.80    32800.00
01252              -2.00    33600.00
01253              -2.40    32800.00
01254              -2.00    33600.00
01255              -1.40    32000.00
01256              -2.60    32800.00
01257              -1.60    32000.00
01258              -2.40    31200.00
01259              -3.00    32800.00
01260              -1.00    32000.00
01261              -2.20    31200.00
01262              -2.80    31200.00
01263              -1.20    30400.00
01264              -2.40    30400.00
01265              -2.20    30400.00
01266              -1.40    31200.00
01267              -2.20    30400.00
01268              -2.00    29600.00
01269              -1.80    28800.00
01270              -1.80    28800.00
01271              -2.00    28800.00
01272              -2.00    28800.00
01273              -1.80    28000.00
01274              -2.00    27200.00
01275              -1.40    27200.00
01276              -2.20    27200.00
01277              -2.00    26400.00
01278              -1.20    25600.00
01279              -2.00    25600.00
01280              -1.40    25600.00
01281              -1.80    24800.00
01282              -2.20    24800.00
01283              -1.20    24000.00
01284              -1.80    24000.00
01285              -1.80    23200.00
01286              -1.80    22400.00
01287              -1.40    22400.00
01288              -1.20    22400.00
01289              -2.20    21600.00
01290              -2.00    20800.00
01291              -1.40    20000.00
01292              -1.60    19200.00
01293              -1.60    19200.00
01294              -1.40    18400.00
01295              -1.40    17600.00
01296              -1.80    17600.00
01297              -1.00    16800.00
01298              -1.40    16000.00
01299              -1.80    16000.00
01300              -0.60    15200.00
01301              -1.40    15200.00
01302              -1.80    14400.00
01303              -0.60    13600.00
01304              -1.20    12800.00
01305              -1.60    12800.00
01306              -0.60    12000.00
01307              -1.00    11200.00
01308              -1.00    11200.00
01309              -1.20     9600.00
01310              -0.20     9600.00
01311              -1.20     8800.00
01312              -1.00     8000.00
01313              -0.60     8000.00
01314              -0.60     6400.00
01315              -0.60     7200.00
01316              -0.40     5600.00
01317              -0.20     5600.00
01318              -0.60     4800.00
01319              -0.60     4000.00
01320              -0.20     3200.00
01321              -0.40     3200.00
01322              -1.20     2400.00
01323              -0.40     1600.00
01324               0.40     1600.00
01325              -0.20        0.00
01326               0.20        0.00
01327               1.40     -800.00
01328               3.60    -1600.00
01329              -1.20    -1600.00
01330               0.20    -1600.00
01331               1.80    -3200.00
01332               0.40    -3200.00
01333               0.20    -4000.00
01334               5.40    -4800.00
01335              20.20    -5600.00
01336              15.80    -7200.00
01337             -25.00    -8000.00
01338             -12.60    -8000.00
01339              25.00    -8000.00
01340             -17.00    -8000.00
01341             -25.00    -8800.00
01342              25.00    -9600.00
01343              22.00   -10400.00
01344             -25.00   -10400.00
01345              25.00   -12000.00
01346               0.40   -12000.00
01347             -25.00   -12800.00
01348              25.00   -12800.00
01349             -25.00   -12800.00
01350              25.00   -14400.00
01351             -14.40   -14400.00
01352             -17.40   -15200.00
01353              25.00   -16000.00
01354             -25.00   -16000.00
01355             -10.20   -17600.00
01356              25.00   -16800.00
01357             -14.60   -17600.00
01358             -23.60   -19200.00
01359              25.00   -19200.00
01360              -5.40   -19200.00
01361             -21.60   -20000.00
01362              25.00   -20800.00
01363             -11.00   -20800.00
01364              -4.40   -21600.00
01365              13.20   -22400.00
01366             -10.80   -22400.00
01367               4.20   -23200.00
01368               5.60   -24000.00
01369              -5.40   -24000.00
01370               6.20   -24000.00
01371               7.00   -25600.00
01372             -12.60   -25600.00
01373              11.60   -25600.00
01374               2.20   -26400.00
01375              -9.80   -26400.00
01376              12.80   -26400.00
01377              -1.20   -26400.00
01378              -3.60   -27200.00
01379               6.60   -27200.00
01380               1.60   -28800.00
01381              -2.20   -28800.00
01382               5.80   -28800.00
01383               1.00   -28800.00
01384              -1.80   -28800.00
01385               5.40   -29600.00
01386              -0.60   -29600.00
01387               1.00   -29600.00
01388               5.20   -29600.00
01389              -0.60   -30400.00
01390               1.20   -30400.00
01391               4.20   -31200.00
01392              -1.20   -31200.00
01393               1.80   -32000.00
01394               3.40   -32000.00
01395              -0.20   -32000.00
01396               3.60   -32000.00
01397               1.40   -32000.00
01398               0.60   -32000.00
01399               2.00   -32000.00
01400               1.40   -32800.00
01401               1.40   -32000.00
01402               1.80   -32800.00
01403               2.20   -32800.00
01404               1.00   -32800.00
01405               2.60   -32800.00
01406               1.00   -32800.00
01407               1.00   -32800.00
01408               3.00   -32800.00
01409               0.40   -32800.00
01410               2.00   -32800.00
01411               2.40   -32800.00
01412               0.40   -32800.00
01413               2.40   -32800.00
01414               1.80   -32800.00
01415               0.20   -32800.00
01416               1.80   -32000.00
01417               2.60   -32000.00
01418               1.00   -32800.00
01419               1.40   -32800.00
01420               1.80   -32000.00
01421               0.40   -32000.00
01422               1.80   -32000.00
01423               2.20   -32000.00
01424               0.40   -32000.00
01425               1.80   -32000.00
01426               1.40   -30400.00
01427               0.80   -31200.00
01428               1.40   -30400.00
01429               1.00   -30400.00
01430               0.60   -29600.00
01431               2.00   -30400.00
01432               2.00   -29600.00
01433               0.80   -29600.00
01434               0.40   -28800.00
01435               1.80   -28800.00
01436               1.40   -28000.00
01437               2.00   -28800.00
01438               2.00   -27200.00
01439               0.20   -27200.00
01440               0.60   -27200.00
01441               1.80   -26400.00
01442               0.60   -27200.00
01443               1.20   -26400.00
01444               1.40   -25600.00
01445               1.00   -25600.00
01446               1.20   -24000.00
01447               1.00   -24000.00
01448               0.80   -24000.00
01449               1.20   -24000.00
01450               1.00   -23200.00
01451               1.00   -22400.00
01452               1.00   -22400.00
01453               0.60   -22400.00
01454               1.00   -20800.00
01455               1.00   -20800.00
01456               0.80   -20000.00
01457               0.80   -20000.00
01458               0.40   -19200.00
01459               1.00   -18400.00
01460               0.60   -18400.00
01461               0.20   -17600.00
01462               0.60   -17600.00
01463               0.80   -16800.00
01464               0.40   -16000.00
01465               0.60   -16000.00
01466               0.60   -14400.00
01467               0.40   -14400.00
01468               0.40   -13600.00
01469               0.20   -13600.00
01470               0.40   -12800.00
01471               0.20   -12000.00
01472              -0.40   -11200.00
01473               0.60   -11200.00
01474               0.20   -11200.00
01475              -0.40    -9600.00
01476               0.40    -9600.00
01477               0.20    -8800.00
01478              -0.20    -8000.00
01479               0.00    -7200.00
01480               0.00    -7200.00
01481              -0.20    -6400.00
01482               0.00    -6400.00
01483              -0.20    -4800.00
01484              -0.40    -4800.00
01485              -0.40    -3200.00
01486              -0.40    -3200.00
01487              -0.40    -2400.00
01488              -0.20    -1600.00
01489              -0.60    -1600.00
01490              -0.40     -800.00
01491              -0.40        0.00
01492              -0.40        0.00
01493               0.20     1600.00
01494               1.00     1600.00
01495               2.80     2400.00
01496              -2.80     2400.00
01497              -0.60     3200.00
01498               1.00     3200.00
01499              -1.00     4800.00
01500               1.40     4800.00
01501              17.80     6400.00
01502              25.00     8000.00
01503             -25.00     8000.00
01504             -21.20     8000.00
01505              25.00     8800.00
01506             -19.60     8800.00
01507             -24.40     8800.00
01508              25.00     9600.00
01509             -25.00    10400.00
01510             -12.40    12000.00
01511              25.00    11200.00
01512             -25.00    12000.00
01513              25.00    12800.00
01514              -7.60    12800.00
01515             -25.00    14400.00
01516              25.00    14400.00
01517             -25.00    16000.00
01518              25.00    16000.00
01519              25.00    16000.00
01520             -25.00    16800.00
01521              25.00    17600.00
01522              24.40    17600.00
01523             -25.00    18400.00
01524              -1.40    19200.00
01525              25.00    19200.00
01526             -25.00    20000.00
01527               6.20    21600.00
01528              25.00    20800.00
01529             -25.00    22400.00
01530              24.60    22400.00
01531             -14.00    22400.00
01532             -11.60    22400.00
01533              16.20    24000.00
01534             -11.60    24000.00
01535              -5.40    24000.00
01536              16.40    24800.00
01537             -11.20    24800.00
01538             -13.00    25600.00
01539              20.40    26400.00
01540             -20.60    27200.00
01541               0.60    27200.00
01542              10.80    27200.00
01543             -13.80    28000.00
01544               1.80    28000.00
01545               2.00    28000.00
01546              -7.40    28800.00
01547              -2.20    28800.00
01548               4.20    29600.00
01549              -8.40    28800.00
01550              -0.20    30400.00
01551               1.00    29600.00
01552              -8.20    30400.00
01553               2.20    30400.00
01554              -0.40    31200.00
01555              -6.60    31200.00
01556               2.20    31200.00
01557              -2.60    32000.00
01558              -6.20    32800.00
01559               2.20    32000.00
01560              -4.40    32800.00
01561              -3.20    32000.00
01562               2.00    33600.00
01563              -4.40    32800.00
01564              -2.80    33600.00
01565              -1.20    32800.00
01566              -3.00    33600.00
01567              -2.20    33600.00
01568              -0.60    33600.00
01569              -2.80    33600.00
01570              -3.00    33600.00
01571               0.20    33600.00
01572              -4.40    33600.00
01573              -1.80    33600.00
01574              -1.00    33600.00
01575              -4.20    33600.00
01576               0.20    33600.00
01577              -2.20    33600.00
01578              -3.60    33600.00
01579              -0.80    33600.00
01580              -2.40    33600.00
01581              -2.20    33600.00
01582              -2.00    33600.00
01583              -2.20    33600.00
01584              -2.40    33600.00
01585              -1.80    33600.00
01586              -1.80    32800.00
01587              -2.60    33600.00
01588              -1.40    32800.00
01589              -2.00    32800.00
01590              -2.20    32000.00
01591              -1.40    32000.00
01592              -3.00    32800.00
01593              -1.80    31200.00
01594              -1.40    32000.00
01595              -2.60    31200.00
01596              -2.00    31200.00
01597              -2.00    30400.00
01598              -2.20    30400.00
01599              -2.00    30400.00
01600              -2.20    29600.00
01601              -2.20    29600.00
01602              -2.20    28800.00
01603              -2.00    29600.00
01604              -2.00    28800.00
01605              -2.20    28000.00
01606              -1.80    28000.00
01607              -2.00    27200.00
01608              -1.80    28000.00
01609              -1.60    26400.00
01610              -2.60    26400.00
01611              -1.80    26400.00
01612              -1.40    24800.00
01613              -1.80    25600.00
01614              -2.20    25600.00
01615              -1.40    24800.00
01616              -1.80    24800.00
01617              -2.40    24000.00
01618              -1.00    24000.00
01619              -2.00    22400.00
01620              -2.20    22400.00
01621              -0.60    21600.00
01622              -1.80    21600.00
01623              -1.80    20800.00
01624              -1.20    20800.00
01625              -1.80    20000.00
01626              -1.20    19200.00
01627              -1.80    18400.00
01628              -2.00    17600.00
01629              -1.00    17600.00
01630              -1.40    17600.00
01631              -1.40    16800.00
01632              -0.60    16000.00
01633              -1.00    16000.00
01634              -1.40    15200.00
01635              -0.60    14400.00
01636              -1.00    14400.00
01637              -1.80    12800.00
01638              -1.40    12800.00
01639              -0.60    12000.00
01640              -1.00    11200.00
01641              -1.00    11200.00
01642              -1.20    10400.00
01643              -0.60     9600.00
01644              -1.00     9600.00
01645              -1.20     8000.00
01646              -0.40     8000.00
01647              -1.20     8000.00
01648              -0.60     7200.00
01649              -0.20     6400.00
01650              -1.00     6400.00
01651              -0.20     4800.00
01652              -0.40     4800.00
01653              -0.60     4000.00
01654              -0.20     3200.00
01655              -0.60     2400.00
01656              -0.60     2400.00
01657              -0.20      800.00
01658               0.00      800.00
01659               0.20        0.00
01660               1.00        0.00
01661               3.60     -800.00
01662               0.40    -1600.00
01663              -1.20    -1600.00
01664               1.80    -2400.00
01665               1.00    -3200.00
01666              -0.20    -3200.00
01667               2.60    -4000.00
01668              13.00    -4800.00
01669              25.00    -6400.00
01670             -25.00    -7200.00
01671             -25.00    -8000.00
01672              23.00    -8000.00
01673               6.80    -9600.00
01674             -25.00    -8000.00
01675              19.80    -9600.00
01676              25.00   -10400.00
01677             -25.00   -10400.00
01678              21.20   -11200.00
01679              25.00   -11200.00
01680             -25.00   -12800.00
01681              25.00   -13600.00
01682              -6.00   -13600.00
01683               2.20   -14400.00
01684              18.00   -14400.00
01685             -25.00   -14400.00
01686              25.00   -16000.00
01687               1.80   -16000.00
01688             -25.00   -16800.00
01689              25.00   -17600.00
01690              10.00   -17600.00
01691             -25.00   -18400.00
01692              14.60   -18400.00
01693              21.00   -20000.00
01694             -25.00   -20000.00
01695              21.40   -20000.00
01696              10.20   -20800.00
01697             -17.80   -21600.00
01698              15.80   -22400.00
01699              -5.20   -23200.00
01700              -3.60   -23200.00
01701               8.20   -23200.00
01702              -2.20   -24000.00
01703              -0.60   -24000.00
01704              12.60   -24800.00
01705              -9.40   -25600.00
01706               1.20   -25600.00
01707              12.00   -25600.00
01708             -13.00   -26400.00
01709               7.60   -26400.00
01710               6.80   -26400.00
01711              -6.00   -27200.00
01712               4.20   -28000.00
01713               4.40   -28800.00
01714              -3.20   -28800.00
01715               3.20   -28800.00
01716               4.60   -28800.00
01717              -3.40   -29600.00
01718               4.20   -29600.00
01719               2.00   -29600.00
01720              -1.40   -29600.00
01721               4.60   -29600.00
01722               1.40   -30400.00
01723              -0.60   -30400.00
01724               4.60   -31200.00
01725               0.40   -32000.00
01726              -0.20   -32000.00
01727               4.20   -32000.00
01728               0.20   -32000.00
01729               2.60   -32000.00
01730               3.00   -32800.00
01731              -0.20   -32000.00
01732               2.00   -32000.00
01733               1.80   -32800.00
01734               1.20   -32800.00
01735               1.20   -32800.00
01736               2.20   -32800.00
01737               1.20   -32800.00
01738               1.60   -32800.00
01739               2.20   -32800.00
01740               0.20   -33600.00
01741               2.60   -32800.00
01742               1.80   -32800.00
01743               0.80   -32800.00
01744               2.80   -32800.00
01745               1.00   -32800.00
01746               1.00   -32800.00
01747               2.20   -32800.00
01748               1.20   -32800.00
01749               1.40   -32800.00
01750               1.60   -32800.00
01751               1.40   -32000.00
01752               1.00   -32000.00
01753               1.60   -32800.00
01754               1.40   -32000.00
01755               1.20   -32000.00
01756               2.00   -32000.00
01757               1.20   -32000.00
01758               1.40   -31200.00
01759               1.80   -31200.00
01760               1.00   -30400.00
01761               2.00   -30400.00
01762               2.00   -30400.00
01763               1.20   -30400.00
01764               1.60   -29600.00
01765               1.20   -29600.00
01766               1.20   -29600.00
01767               1.40   -29600.00
01768               1.20   -28800.00
01769               1.80   -28000.00
01770               0.60   -28000.00
01771               1.60   -28000.00
01772               1.20   -27200.00
01773               0.60   -27200.00
01774               1.80   -27200.00
01775               1.40   -26400.00
01776               1.20   -26400.00
01777               1.20   -25600.00
01778               1.20   -25600.00
01779               1.20   -25600.00
01780               0.80   -24000.00
01781               1.40   -24000.00
01782               1.40   -24000.00
01783               0.40   -23200.00
01784               1.00   -22400.00
01785               1.20   -22400.00
01786               0.60   -21600.00
01787               1.00   -22400.00
01788               1.40   -21600.00
01789               1.00   -20000.00
01790               0.40   -19200.00
01791               1.00   -19200.00
01792               0.60   -18400.00
01793               0.60   -18400.00
01794               1.00   -17600.00
01795               0.60   -17600.00
01796               0.40   -16800.00
01797               0.20   -16000.00
01798               0.40   -16000.00
01799               0.20   -15200.00
01800              -0.20   -14400.00
01801               0.60   -14400.00
01802               0.40   -14400.00
01803               0.00   -13600.00
01804               0.40   -12800.00
01805               0.00   -11200.00
01806               0.20   -12000.00
01807               0.40   -10400.00
01808               0.00    -9600.00
01809              -0.20    -9600.00
01810              -0.20    -8800.00
01811              -0.20    -8000.00
01812               0.00    -8000.00
01813              -0.40    -7200.00
01814               0.20    -7200.00
01815              -0.20    -6400.00
01816              -0.20    -4800.00
01817              -0.40    -4800.00
01818              -0.60    -4000.00
01819              -0.40    -3200.00
01820              -0.20    -3200.00
01821              -0.40    -1600.00
01822              -0.60    -1600.00
01823              -0.40     -800.00
01824              -0.40     -800.00
01825              -0.40        0.00
01826               0.00        0.00
01827               0.40     1600.00
01828               3.40     1600.00
01829              -1.20     2400.00
01830              -1.40     2400.00
01831               1.00     3200.00
01832               0.20     3200.00
01833              -1.20     4800.00
01834               9.80     5600.00
01835              25.00     7200.00
01836             -22.80     8000.00
01837             -25.00     8000.00
01838              21.20     8800.00
01839               6.60     8800.00
01840             -25.00     8800.00
01841              25.00    10400.00
01842              21.80    11200.00
01843             -25.00    11200.00
01844              25.00    12000.00
01845             -25.00    12000.00
01846             -16.60    12800.00
01847              25.00    12800.00
01848             -25.00    12800.00
01849              25.00    14400.00
01850             -20.60    14400.00
01851             -25.00    15200.00
01852              25.00    16000.00
01853             -25.00    16000.00
01854              -6.40    17600.00
01855              25.00    17600.00
01856             -25.00    17600.00
01857             -24.20    18400.00
01858              25.00    19200.00
01859             -10.60    20000.00
01860             -25.00    20800.00
01861              25.00    20800.00
01862             -25.00    21600.00
01863               5.00    21600.00
01864              10.60    22400.00
01865             -25.00    22400.00
01866              15.80    23200.00
01867              -2.80    24000.00
01868             -13.00    24000.00
01869              10.60    24800.00
01870               4.40    25600.00
01871             -23.00    25600.00
01872              16.40    25600.00
01873              -4.00    25600.00
01874             -16.60    27200.00
01875              16.00    27200.00
01876              -9.00    27200.00
01877              -5.40    27200.00
01878               4.60    28000.00
01879              -3.80    28800.00
01880              -6.00    28800.00
01881               4.00    28800.00
01882              -3.80    28800.00
01883              -5.40    29600.00
01884               3.20    30400.00
01885              -5.80    30400.00
01886              -2.20    30400.00
01887               2.80    31200.00
01888              -5.80    32000.00
01889              -1.20    31200.00
01890               1.00    31200.00
01891              -6.80    32000.00
01892               0.20    32000.00
01893              -1.00    32800.00
01894              -5.40    32800.00
01895               1.40    33600.00
01896              -2.40    32800.00
01897              -3.80    33600.00
01898              -1.00    33600.00
01899              -2.20    32800.00
01900              -2.60    33600.00
01901              -1.80    33600.00
01902              -1.00    33600.00
01903              -3.80    33600.00
01904              -0.60    33600.00
01905              -2.20    33600.00
01906              -3.80    33600.00
01907               0.20    33600.00
01908              -4.20    33600.00
01909              -1.20    33600.00
01910              -0.60    33600.00
01911              -4.40    33600.00
01912              -1.20    33600.00
01913              -1.20    33600.00
01914              -2.20    33600.00
01915              -2.80    33600.00
01916              -2.20    33600.00
01917              -2.20    33600.00
01918              -2.60    33600.00
01919              -1.20    33600.00
01920              -2.80    32800.00
01921              -1.40    33600.00
01922              -1.00    32800.00
01923              -3.80    32000.00
01924              -0.40    32000.00
01925              -2.00    32000.00
01926              -4.60    32000.00
01927               0.40    32000.00
01928              -2.00    31200.00
01929              -3.80    31200.00
01930               0.20    31200.00
01931              -2.20    30400.00
01932              -4.40    30400.00
01933               0.40    30400.00
01934              -3.00    29600.00
01935              -3.80    30400.00
01936               0.40    28800.00
01937              -2.80    28800.00
01938              -2.80    28800.00
01939              -0.20    28000.00
01940              -3.60    28000.00
01941              -2.20    27200.00
01942              -0.40    27200.00
01943              -3.80    27200.00
01944              -1.80    26400.00
01945              -1.00    26400.00
01946              -2.80    25600.00
01947              -1.20    25600.00
01948              -1.40    24000.00
01949              -2.80    24800.00
01950              -1.40    24000.00
01951              -1.20    24000.00
01952              -2.60    22400.00
01953              -1.40    22400.00
01954              -1.00    21600.00
01955              -2.00    21600.00
01956              -1.80    21600.00
01957              -1.20    20800.00
01958              -2.00    20000.00
01959              -1.40    19200.00
01960              -0.80    19200.00
01961              -1.40    18400.00
01962              -1.40    18400.00
01963              -1.00    16800.00
01964              -1.00    16800.00
01965              -1.40    16000.00
01966              -1.40    16000.00
01967              -0.80    15200.00
01968              -1.40    14400.00
01969              -1.20    14400.00
01970              -1.20    13600.00
01971              -1.20    12800.00
01972              -0.80    12800.00
01973              -0.60    12000.00
01974              -1.20    11200.00
01975              -0.80    10400.00
01976              -1.20     9600.00
01977              -0.60     9600.00
01978              -1.00     8800.00
01979              -0.60     8800.00
01980              -1.00     8000.00
01981              -0.40     7200.00
01982              -0.40     6400.00
01983              -1.00     5600.00
01984              -0.60     4800.00
01985               0.20     4800.00
01986              -1.20     4800.00
01987              -0.40     3200.00
01988               0.20     2400.00
01989              -0.60     2400.00
01990              -0.60     1600.00
01991               0.20      800.00
01992              -0.20        0.00
01993               0.20        0.00
01994               2.20     -800.00
01995               2.80    -1600.00
01996              -2.00    -1600.00
01997               0.40    -2400.00
01998               1.40    -3200.00
01999               0.20    -3200.00
02000               0.20    -4000.00
02001               7.80    -4000.00
02002              25.00    -6400.00
02003              -2.20    -7200.00
02004             -25.00    -8000.00
02005               5.80    -8000.00
02006              23.20    -8000.00
02007             -25.00    -8800.00
02008             -15.80    -8800.00
02009              25.00   -10400.00
02010             -24.40   -10400.00
02011             -25.00   -11200.00
02012              25.00   -11200.00
02013             -25.00   -12000.00
02014              -7.20   -12800.00
02015              25.00   -13600.00
02016             -21.60   -13600.00
02017              25.00   -14400.00
02018             -25.00   -14400.00
02019              10.60   -16000.00
02020              25.00   -16000.00
02021             -25.00   -16800.00
02022              11.00   -16800.00
02023              25.00   -17600.00
02024             -25.00   -17600.00
02025              -9.00   -19200.00
02026              25.00   -19200.00
02027             -24.60   -19200.00
02028              -2.80   -20800.00
02029              25.00   -20800.00
02030             -19.80   -21600.00
02031               7.00   -21600.00
02032               5.80   -22400.00
02033             -10.00   -22400.00
02034               7.60   -23200.00
02035               2.80   -23200.00
02036              -5.20   -24000.00
02037              10.80   -24000.00
02038              -0.40   -25600.00
02039              -9.00   -25600.00
02040              15.80   -25600.00
02041              -6.60   -26400.00
02042              -2.80   -26400.00
02043              12.40   -27200.00
02044              -5.20   -27200.00
02045              -0.40   -27200.00
02046               6.80   -27200.00
02047              -1.20   -27200.00
02048              -0.20   -28800.00
02049               6.20   -28800.00
02050              -2.00   -29600.00
02051               0.60   -28800.00
02052               5.00   -29600.00
02053              -2.00   -29600.00
02054               2.80   -29600.00
02055               3.80   -30400.00
02056              -1.20   -30400.00
02057               3.20   -30400.00
02058               2.60   -31200.00
02059              -1.80   -32000.00
02060               3.40   -32000.00
02061               1.80   -32000.00
02062               0.40   -32000.00
02063               3.80   -32000.00
02064               0.60   -32000.00
02065               1.00   -32000.00
02066               2.00   -32800.00
02067               1.40   -32000.00
02068               1.00   -32800.00
02069               1.80   -32800.00
02070               2.00   -32800.00
02071               1.20   -32800.00
02072               2.60   -32800.00
02073               0.40   -32800.00
02074               1.80   -32800.00
02075               2.60   -32800.00
02076               0.40   -33600.00
02077               2.60   -32800.00
02078               1.40   -32800.00
02079               0.40   -32800.00
02080               2.60   -32800.00
02081               1.40   -32800.00
02082               1.00   -32800.00
02083               2.60   -32800.00
02084               1.20   -32000.00
02085               1.00   -32000.00
02086               2.20   -32800.00
02087               1.80   -32000.00
02088               0.40   -32000.00
02089               2.60   -32000.00
02090               1.40   -31200.00
02091               0.60   -31200.00
02092               2.00   -30400.00
02093               1.40   -31200.00
02094               1.00   -30400.00
02095               2.40   -30400.00
02096               1.60   -29600.00
02097               1.60   -29600.00
02098               1.20   -28800.00
02099               1.80   -29600.00
02100               2.00   -28800.00
02101               0.20   -28800.00
02102               2.60   -28800.00
02103               1.40   -28800.00
02104               0.20   -27200.00
02105               2.00   -27200.00
02106               1.20   -27200.00
02107               1.00   -26400.00
02108               1.80   -26400.00
02109               1.40   -26400.00
02110               0.60   -25600.00
02111               1.20   -25600.00
02112               1.80   -24800.00
02113               1.00   -24000.00
02114               1.00   -24000.00
02115               1.60   -24000.00
02116               1.00   -23200.00
02117               0.60   -24000.00
02118               0.80   -22400.00
02119               1.00   -22400.00
02120               0.40   -21600.00
02121               0.60   -20800.00
02122               1.60   -20800.00
02123               0.40   -20000.00
02124               0.00   -20000.00
02125               1.00   -19200.00
02126               0.60   -18400.00
02127               0.20   -17600.00
02128               0.60   -17600.00
02129               1.00   -17600.00
02130              -0.20   -16000.00
02131               0.20   -16000.00
02132               0.80   -15200.00
02133              -0.20   -15200.00
02134               0.00   -13600.00
02135               1.00   -13600.00
02136               0.00   -12800.00
02137               0.20   -12800.00
02138              -0.20   -12000.00
02139               0.20   -11200.00
02140               0.40   -11200.00
02141              -0.20   -10400.00
02142               0.20    -9600.00
02143              -0.20    -9600.00
02144              -0.20    -8800.00
02145               0.00    -8000.00
02146              -0.20    -7200.00
02147              -0.40    -7200.00
02148               0.20    -6400.00
02149              -0.40    -6400.00
02150              -0.20    -4000.00
02151              -0.20    -4000.00
02152              -0.40    -4000.00
02153              -0.20    -3200.00
02154               0.20    -2400.00
02155              -0.60    -1600.00
02156              -0.60     -800.00
02157              -0.40        0.00
02158              -0.20        0.00
02159              -0.40      800.00
02160               0.60     1600.00
02161               2.60     1600.00
02162               1.20     2400.00
02163              -2.20     3200.00
02164               0.20     3200.00
02165               0.80     4000.00
02166              -2.00     4800.00
02167               4.40     4800.00
02168              25.00     6400.00
02169               8.60     8000.00
02170             -25.00     8000.00
02171               0.20     8000.00
02172              25.00     8000.00
02173             -25.00     8800.00
02174               6.80     9600.00
02175              25.00    10400.00
02176             -25.00     9600.00
02177              25.00    11200.00
02178              25.00    12000.00
02179             -25.00    12000.00
02180              25.00    12800.00
02181             -25.00    13600.00
02182              22.60    14400.00
02183              25.00    14400.00
02184             -25.00    15200.00
02185              25.00    16000.00
02186               5.00    16800.00
02187             -25.00    16800.00
02188              25.00    17600.00
02189               0.40    18400.00
02190             -25.00    18400.00
02191              18.00    19200.00
02192              18.80    20000.00
02193             -25.00    20800.00
02194              25.00    20800.00
02195               2.60    21600.00
02196             -20.80    22400.00
02197              25.00    22400.00
02198             -25.00    22400.00
02199               2.00    23200.00
02200               8.60    24000.00
02201             -15.00    24000.00
02202               2.00    24800.00
02203              15.40    25600.00
02204             -20.60    25600.00
02205               1.00    25600.00
02206              13.40    25600.00
02207             -24.60    27200.00
02208              10.00    27200.00
02209               3.00    27200.00
02210             -11.80    28000.00
02211               4.20    28000.00
02212              -0.40    28800.00
02213              -7.40    28800.00
02214               0.40    28800.00
02215               1.40    29600.00
02216              -7.60    29600.00
02217               2.60    31200.00
02218              -2.80    30400.00
02219              -6.20    31200.00
02220               3.80    31200.00
02221              -3.60    31200.00
02222              -4.40    31200.00
02223               3.00    32000.00
02224              -5.20    31200.00
02225              -3.80    32800.00
02226               1.20    32000.00
02227              -5.40    33600.00
02228              -0.40    32800.00
02229               0.20    32800.00
02230              -4.40    33600.00
02231              -1.40    32800.00
02232              -2.00    33600.00
02233              -2.80    33600.00
02234              -1.60    33600.00
02235              -0.60    33600.00
02236              -3.60    33600.00
02237              -1.80    33600.00
02238              -0.60    33600.00
02239              -4.40    33600.00
02240               0.20    33600.00
02241              -2.00    33600.00
02242              -3.80    33600.00
02243              -0.40    33600.00
02244              -3.40    33600.00
02245              -3.00    33600.00
02246              -0.80    34400.00
02247              -2.00    33600.00
02248              -2.00    33600.00
02249              -2.20    33600.00
02250              -2.80    33600.00
02251              -2.80    33600.00
02252              -2.00    32800.00
02253              -2.20    32800.00
02254              -2.40    32800.00
02255              -1.40    32800.00
02256              -2.80    32000.00
02257              -2.00    32000.00
02258              -2.00    32000.00
02259              -2.80    32800.00
02260              -1.20    31200.00
02261              -2.00    31200.00
02262              -3.00    31200.00
02263              -2.00    32000.00
02264              -2.20    30400.00
02265              -1.80    31200.00
02266              -1.40    30400.00
02267              -2.20    29600.00
02268              -2.00    29600.00
02269              -2.00    28800.00
02270              -2.20    28800.00
02271              -2.60    28800.00
02272              -2.20    28800.00
02273              -1.80    27200.00
02274              -1.80    28000.00
02275              -1.40    27200.00
02276              -2.20    27200.00
02277              -2.20    25600.00
02278              -1.40    25600.00
02279              -2.00    25600.00
02280              -1.40    25600.00
02281              -1.80    24800.00
02282              -1.80    24800.00
02283              -1.20    24000.00
02284              -1.80    24000.00
02285              -1.60    23200.00
02286              -1.80    22400.00
02287              -1.80    22400.00
02288              -1.40    22400.00
02289              -1.80    21600.00
02290              -2.00    20800.00
02291              -1.80    20000.00
02292              -0.60    19200.00
02293              -1.20    19200.00
02294              -1.80    19200.00
02295              -0.60    18400.00
02296              -1.40    17600.00
02297              -1.40    17600.00
02298              -0.60    16800.00
02299              -1.20    16000.00
02300              -1.00    15200.00
02301              -1.40    15200.00
02302              -1.00    14400.00
02303              -1.00    13600.00
02304              -1.20    13600.00
02305              -1.20    12800.00
02306              -0.60    12000.00
02307              -0.80    11200.00
02308              -0.80    11200.00
02309              -1.00    10400.00
02310              -0.40     9600.00
02311              -1.20     9600.00
02312              -1.00     8800.00
02313              -0.40     8000.00
02314              -0.80     7200.00
02315              -0.40     6400.00
02316              -0.40     6400.00
02317              -1.20     5600.00
02318              -0.60     4800.00
02319              -1.00     4800.00
02320              -0.60     3200.00
02321               0.20     3200.00
02322              -1.00     2400.00
02323              -1.00     2400.00
02324               0.20      800.00
02325              -0.40        0.00
02326               0.20        0.00
02327               1.20        0.00
02328               3.80     -800.00
02329              -1.40    -1600.00
02330              -0.60    -1600.00
02331               1.80    -3200.00
02332               0.60    -3200.00
02333              -0.60    -4000.00
02334               4.60    -4000.00
02335              18.20    -4800.00
02336              19.60    -6400.00
02337             -25.00    -7200.00
02338             -18.20    -8000.00
02339              25.00    -8000.00
02340             -11.20    -8000.00
02341             -25.00    -8800.00
02342              25.00    -9600.00
02343              25.00   -10400.00
02344             -25.00   -10400.00
02345              25.00   -12000.00
02346              14.80   -11200.00
02347             -25.00   -12800.00
02348              25.00   -12800.00
02349             -23.40   -13600.00
02350              21.20   -14400.00
02351              -6.00   -14400.00
02352             -25.00   -14400.00
02353              25.00   -16000.00
02354             -24.60   -16000.00
02355             -16.80   -16800.00
02356              25.00   -17600.00
02357              -8.80   -17600.00
02358             -25.00   -17600.00
02359              25.00   -18400.00
02360               1.40   -20000.00
02361             -25.00   -20000.00
02362              25.00   -20800.00
02363              -6.20   -20800.00
02364              -8.20   -21600.00
02365              15.40   -22400.00
02366             -10.20   -22400.00
02367               2.60   -23200.00
02368               6.60   -23200.00
02369              -4.80   -24000.00
02370               4.40   -24000.00
02371               9.20   -24800.00
02372             -12.40   -25600.00
02373               9.80   -25600.00
02374               4.60   -25600.00
02375             -11.60   -26400.00
02376              12.40   -26400.00
02377               0.60   -27200.00
02378              -4.40   -27200.00
02379               6.60   -28000.00
02380               2.00   -28800.00
02381              -3.20   -28800.00
02382               5.40   -28800.00
02383               1.80   -28800.00
02384              -2.60   -28800.00
02385               5.80   -29600.00
02386              -0.40   -29600.00
02387               0.20   -30400.00
02388               5.20   -30400.00
02389              -0.40   -31200.00
02390               0.60   -30400.00
02391               4.40   -32000.00
02392              -1.20   -32000.00
02393               1.40   -32000.00
02394               3.40   -32000.00
02395              -0.60   -32000.00
02396               3.20   -32000.00
02397               1.40   -32000.00
02398               0.40   -32800.00
02399               2.00   -32000.00
02400               1.40   -32800.00
02401               1.40   -32800.00
02402               1.80   -32800.00
02403               2.00   -32800.00
02404               0.60   -32800.00
02405               2.60   -32800.00
02406               1.00   -33600.00
02407               0.60   -32800.00
02408               3.20   -32800.00
02409               0.40   -32800.00
02410               1.20   -32800.00
02411               2.60   -32800.00
02412               0.60   -32800.00
02413               2.00   -32800.00
02414               2.20   -32800.00
02415               1.00   -32800.00
02416               1.80   -32800.00
02417               1.80   -32000.00
02418               1.60   -32800.00
02419               1.40   -32000.00
02420               1.80   -32800.00
02421               1.40   -32000.00
02422               1.80   -32000.00
02423               2.00   -32000.00
02424               1.20   -32000.00
02425               1.80   -32000.00
02426               1.40   -31200.00
02427               1.40   -30400.00
02428               1.80   -30400.00
02429               1.20   -29600.00
02430               1.20   -30400.00
02431               1.60   -30400.00
02432               1.40   -29600.00
02433               1.80   -29600.00
02434               1.20   -28800.00
02435               1.20   -28800.00
02436               1.40   -28800.00
02437               1.80   -28000.00
02438               1.40   -28000.00
02439               1.40   -27200.00
02440               1.20   -27200.00
02441               1.60   -26400.00
02442               1.00   -26400.00
02443               1.40   -25600.00
02444               0.80   -25600.00
02445               1.20   -25600.00
02446               1.20   -24800.00
02447               1.00   -24000.00
02448               1.00   -24000.00
02449               0.80   -23200.00
02450               0.60   -23200.00
02451               0.80   -23200.00
02452               0.80   -22400.00
02453               0.40   -21600.00
02454               1.00   -20800.00
02455               0.80   -20800.00
02456               0.60   -20800.00
02457               0.60   -20000.00
02458               0.40   -19200.00
02459               0.40   -18400.00
02460               0.60   -18400.00
02461               0.40   -17600.00
02462               0.40   -17600.00
02463               0.60   -16800.00
02464               0.40   -16000.00
02465               0.40   -16000.00
02466               0.40   -14400.00
02467               0.40   -14400.00
02468               0.40   -14400.00
02469               0.20   -13600.00
02470               0.20   -12800.00
02471               0.20   -12000.00
02472              -0.20   -11200.00
02473               0.40   -10400.00
02474               0.00   -10400.00
02475              -0.20   -10400.00
02476               0.20    -9600.00
02477              -0.20    -8800.00
02478               0.20    -8000.00
02479               0.20    -8000.00
02480               0.00    -7200.00
02481               0.20    -6400.00
02482               0.00    -6400.00
02483              -0.20    -4800.00
02484              -0.20    -4800.00
02485              -0.40    -4800.00
02486              -0.20    -3200.00
02487              -0.20    -2400.00
02488              -0.40    -2400.00
02489              -0.40    -1600.00
02490              -0.20     -800.00
02491              -0.20        0.00
02492              -0.20        0.00
02493               0.40     1600.00
02494               1.00     1600.00
02495               3.40     1600.00
02496              -2.60     2400.00
02497              -0.60     2400.00
02498               1.20     4000.00
02499              -0.60     3200.00
02500               0.40     4800.00
02501              15.40     5600.00
02502              25.00     8000.00
02503             -25.00     8000.00
02504             -25.00     8800.00
02505              25.00     8000.00
02506             -13.00     8800.00
02507             -25.00     8800.00
02508              25.00     9600.00
02509             -25.00    10400.00
02510             -25.00    11200.00
02511              25.00    11200.00
02512             -25.00    12000.00
02513              25.00    12800.00
02514               8.20    13600.00
02515             -25.00    14400.00
02516              25.00    14400.00
02517             -25.00    15200.00
02518              10.60    16000.00
02519              25.00    16000.00
02520             -25.00    16000.00
02521              25.00    17600.00
02522              25.00    18400.00
02523             -25.00    18400.00
02524              -8.40    18400.00
02525              25.00    19200.00
02526             -25.00    20000.00
02527              -2.20    20800.00
02528              25.00    20800.00
02529             -25.00    22400.00
02530              20.80    22400.00
02531              -8.60    22400.00
02532             -15.80    23200.00
02533              16.20    24000.00
02534              -9.40    24000.00
02535              -6.80    24800.00
02536              14.60    25600.00
02537              -7.40    24800.00
02538             -15.80    25600.00
02539              20.20    26400.00
02540             -17.20    27200.00
02541              -3.60    26400.00
02542              13.20    27200.00
02543             -13.80    27200.00
02544               0.40    28000.00
02545               2.80    28800.00
02546              -6.40    28000.00
02547              -3.00    28800.00
02548               4.40    29600.00
02549              -6.80    28800.00
02550              -2.60    30400.00
02551               1.80    31200.00
02552              -7.00    30400.00
02553               0.40    30400.00
02554               1.20    31200.00
02555              -5.40    31200.00
02556               0.20    31200.00
02557              -1.20    32000.00
02558              -5.40    32800.00
02559               1.00    32000.00
02560              -3.40    32800.00
02561              -2.80    32000.00
02562               1.20    32800.00
02563              -3.80    32000.00
02564              -2.20    33600.00
02565              -2.00    32800.00
02566              -2.80    33600.00
02567              -2.00    33600.00
02568              -1.00    33600.00
02569              -2.20    33600.00
02570              -3.00    33600.00
02571              -0.20    33600.00
02572              -3.60    33600.00
02573              -1.80    33600.00
02574              -0.60    33600.00
02575              -4.20    33600.00
02576              -0.20    33600.00
02577              -2.20    33600.00
02578              -4.20    33600.00
02579              -0.60    33600.00
02580              -2.20    33600.00
02581              -2.60    33600.00
02582              -2.20    33600.00
02583              -2.60    33600.00
02584              -2.60    33600.00
02585              -2.00    32800.00
02586              -2.00    33600.00
02587              -2.80    32000.00
02588              -1.80    32800.00
02589              -2.20    32800.00
02590              -2.20    32000.00
02591              -1.60    32800.00
02592              -3.00    32000.00
02593              -2.00    32000.00
02594              -1.40    32000.00
02595              -2.80    31200.00
02596              -2.20    31200.00
02597              -2.00    31200.00
02598              -2.20    30400.00
02599              -1.80    30400.00
02600              -2.20    30400.00
02601              -2.00    30400.00
02602              -2.20    29600.00
02603              -2.00    28800.00
02604              -1.60    28800.00
02605              -2.00    28800.00
02606              -1.80    28000.00
02607              -1.80    28000.00
02608              -1.60    28000.00
02609              -2.00    27200.00
02610              -2.60    27200.00
02611              -1.40    26400.00
02612              -1.80    25600.00
02613              -2.00    25600.00
02614              -1.20    24800.00
02615              -2.00    24800.00
02616              -1.40    24000.00
02617              -1.80    24000.00
02618              -1.20    23200.00
02619              -1.40    23200.00
02620              -1.80    22400.00
02621              -1.20    22400.00
02622              -1.80    21600.00
02623              -2.00    21600.00
02624              -1.20    20000.00
02625              -1.40    20000.00
02626              -1.20    19200.00
02627              -1.40    19200.00
02628              -1.40    18400.00
02629              -1.20    18400.00
02630              -1.20    16800.00
02631              -1.00    17600.00
02632              -1.20    16000.00
02633              -1.20    15200.00
02634              -1.00    15200.00
02635              -1.00    14400.00
02636              -1.00    14400.00
02637              -1.20    12800.00
02638              -1.40    12800.00
02639              -0.60    12000.00
02640              -0.60    12000.00
02641              -1.00    11200.00
02642              -1.80    10400.00
02643              -0.60     9600.00
02644              -0.60     9600.00
02645              -1.40     8800.00
02646              -0.60     8000.00
02647              -1.00     8000.00
02648              -0.60     7200.00
02649              -0.60     6400.00
02650              -0.80     5600.00
02651              -0.20     4800.00
02652              -0.40     4800.00
02653              -1.00     3200.00
02654              -0.40     3200.00
02655              -0.60     3200.00
02656              -1.20     1600.00
02657              -0.20     1600.00
02658              -0.40      800.00
02659              -0.20        0.00
02660               0.40     -800.00
02661               3.20    -1600.00
02662               1.00    -1600.00
02663              -1.80    -1600.00
02664               1.40    -3200.00
02665               1.20    -3200.00
02666              -0.60    -4000.00
02667               2.00    -4000.00
02668              11.80    -4800.00
02669              25.00    -6400.00
02670             -22.20    -7200.00
02671             -25.00    -8000.00
02672              19.80    -8000.00
02673              11.60    -8000.00
02674             -25.00    -8800.00
02675              10.20    -8800.00
02676              25.00   -10400.00
02677             -25.00    -9600.00
02678               6.60   -11200.00
02679              25.00   -11200.00
02680             -25.00   -12000.00
02681              22.60   -12800.00
02682               2.40   -12800.00
02683              -4.40   -14400.00
02684              23.60   -14400.00
02685             -25.00   -14400.00
02686              25.00   -16000.00
02687              10.60   -16000.00
02688             -25.00   -16800.00
02689              25.00   -17600.00
02690              15.60   -17600.00
02691             -25.00   -18400.00
02692               9.40   -18400.00
02693              25.00   -19200.00
02694             -25.00   -19200.00
02695              17.00   -20800.00
02696              15.80   -20800.00
02697             -19.40   -21600.00
02698              14.80   -22400.00
02699              -2.80   -23200.00
02700              -5.40   -23200.00
02701               8.20   -23200.00
02702              -1.00   -24000.00
02703              -2.00   -24000.00
02704              12.60   -24800.00
02705              -7.60   -24800.00
02706              -1.60   -25600.00
02707              13.40   -25600.00
02708             -12.40   -25600.00
02709               5.20   -26400.00
02710               8.40   -27200.00
02711              -6.60   -27200.00
02712               2.80   -27200.00
02713               5.20   -28000.00
02714              -3.00   -28000.00
02715               2.20   -28800.00
02716               5.20   -28800.00
02717              -3.00   -28800.00
02718               3.00   -29600.00
02719               2.60   -29600.00
02720              -1.60   -29600.00
02721               3.80   -30400.00
02722               2.60   -30400.00
02723              -0.80   -30400.00
02724               4.20   -30400.00
02725               0.80   -31200.00
02726              -0.60   -31200.00
02727               4.20   -32000.00
02728               0.20   -32000.00
02729               2.00   -32000.00
02730               3.00   -32000.00
02731              -0.20   -32800.00
02732               1.40   -32800.00
02733               2.00   -32800.00
02734               1.20   -32000.00
02735               0.80   -32800.00
02736               2.60   -32800.00
02737               1.20   -32800.00
02738               1.20   -32800.00
02739               2.60   -32000.00
02740               1.00   -32800.00
02741               2.00   -32800.00
02742               2.00   -32800.00
02743               1.00   -32800.00
02744               2.80   -32800.00
02745               0.80   -32800.00
02746               1.40   -32800.00
02747               2.40   -32800.00
02748               1.20   -32800.00
02749               1.60   -32800.00
02750               2.00   -32800.00
02751               1.80   -32800.00
02752               1.00   -32000.00
02753               2.00   -32000.00
02754               1.80   -32000.00
02755               1.20   -32000.00
02756               2.20   -32000.00
02757               1.40   -32000.00
02758               1.20   -31200.00
02759               1.80   -30400.00
02760               1.20   -30400.00
02761               1.80   -30400.00
02762               2.00   -30400.00
02763               1.40   -29600.00
02764               1.80   -30400.00
02765               1.20   -29600.00
02766               1.20   -29600.00
02767               1.80   -28800.00
02768               1.20   -29600.00
02769               1.80   -28800.00
02770               1.00   -28800.00
02771               1.40   -27200.00
02772               1.20   -27200.00
02773               1.00   -27200.00
02774               1.80   -27200.00
02775               1.20   -26400.00
02776               1.00   -26400.00
02777               1.00   -25600.00
02778               1.00   -25600.00
02779               1.40   -25600.00
02780               1.00   -24800.00
02781               0.60   -24000.00
02782               0.80   -24000.00
02783               0.60   -23200.00
02784               0.60   -23200.00
02785               0.80   -22400.00
02786               0.80   -21600.00
02787               1.00   -21600.00
02788               0.80   -20800.00
02789               1.00   -20000.00
02790               0.40   -20000.00
02791               0.60   -19200.00
02792               1.00   -18400.00
02793               0.60   -18400.00
02794               0.80   -17600.00
02795               0.20   -17600.00
02796               0.20   -16800.00
02797               0.40   -16000.00
02798               0.20   -16000.00
02799               0.60   -15200.00
02800               0.40   -14400.00
02801               0.40   -14400.00
02802               0.40   -13600.00
02803               0.20   -12800.00
02804               0.20   -12800.00
02805              -0.20   -12800.00
02806               0.40   -11200.00
02807               0.20   -11200.00
02808              -0.20   -10400.00
02809               0.40    -9600.00
02810              -0.20    -8800.00
02811               0.00    -8000.00
02812               0.40    -8000.00
02813              -0.40    -7200.00
02814               0.20    -6400.00
02815               0.40    -6400.00
02816              -0.40    -4800.00
02817               0.20    -4800.00
02818               0.20    -4000.00
02819              -0.40    -3200.00
02820               0.20    -3200.00
02821              -0.20    -1600.00
02822              -0.60    -1600.00
02823              -0.20     -800.00
02824              -0.20     -800.00
02825              -0.60        0.00
02826               0.20     1600.00
02827               0.40     1600.00
02828               3.00     2400.00
02829              -0.40     2400.00
02830              -1.40     3200.00
02831               1.00     3200.00
02832               0.20     3200.00
02833              -1.40     4800.00
02834               8.40     4800.00
02835              25.00     7200.00
02836             -15.40     8000.00
02837             -25.00     8000.00
02838              17.00     8800.00
02839              11.80     8800.00
02840             -25.00     8800.00
02841              25.00    10400.00
02842              25.00    10400.00
02843             -25.00    10400.00
02844              25.00    12000.00
02845             -15.80    12000.00
02846             -25.00    12800.00
02847              25.00    12800.00
02848             -25.00    13600.00
02849              25.00    14400.00
02850              -1.00    15200.00
02851             -25.00    16000.00
02852              25.00    16000.00
02853             -25.00    16000.00
02854             -19.80    17600.00
02855              25.00    17600.00
02856             -22.80    18400.00
02857             -25.00    18400.00
02858              25.00    19200.00
02859              -2.60    20000.00
02860             -25.00    20800.00
02861              25.00    20800.00
02862             -21.40    21600.00
02863              -1.40    21600.00
02864              16.00    22400.00
02865             -25.00    22400.00
02866              13.60    23200.00
02867              -0.20    24000.00
02868             -14.60    24000.00
02869               9.40    24800.00
02870               7.60    25600.00
02871             -24.20    25600.00
02872              14.20    25600.00
02873               0.40    27200.00
02874             -20.60    26400.00
02875              16.40    27200.00
02876              -6.60    28000.00
02877              -7.00    28000.00
02878               5.60    28000.00
02879              -2.80    28000.00
02880              -6.80    28800.00
02881               3.60    28800.00
02882              -2.60    29600.00
02883              -6.20    30400.00
02884               3.40    30400.00
02885              -5.20    30400.00
02886              -3.00    31200.00
02887               3.40    31200.00
02888              -5.80    31200.00
02889              -1.80    31200.00
02890               1.40    31200.00
02891              -6.80    32800.00
02892              -0.60    32000.00
02893              -0.20    32800.00
02894              -5.40    32800.00
02895               1.40    32800.00
02896              -1.40    32800.00
02897              -3.80    32800.00
02898              -1.20    33600.00
02899              -2.20    33600.00
02900              -2.80    33600.00
02901              -1.80    33600.00
02902              -1.40    33600.00
02903              -3.60    33600.00
02904              -1.20    32800.00
02905              -1.80    33600.00
02906              -3.80    33600.00
02907              -0.40    33600.00
02908              -3.60    33600.00
02909              -1.80    33600.00
02910              -0.40    33600.00
02911              -4.00    33600.00
02912              -1.80    33600.00
02913              -1.40    33600.00
02914              -2.80    33600.00
02915              -2.20    33600.00
02916              -2.20    33600.00
02917              -2.20    33600.00
02918              -2.20    33600.00
02919              -1.80    32800.00
02920              -1.40    32800.00
02921              -1.80    32800.00
02922              -6.80    32800.00
02923               3.60    32800.00
02924              -7.40    32000.00
02925              -4.20    32000.00
02926               1.20    32000.00
02927              -1.40    31200.00
02928               6.20    32000.00
02929              -9.20    31200.00
02930               1.40    31200.00
02931              -1.80    31200.00
02932             -11.00    30400.00
02933               2.60    30400.00
02934              -5.20    30400.00
02935               0.20    29600.00
02936              -2.20    28800.00
02937               1.80    28800.00
02938              -1.80    28800.00
02939              -2.60    28000.00
02940               0.40    28000.00
02941              -5.40    28000.00
02942              -3.60    27200.00
02943              -1.40    27200.00
02944              -1.80    26400.00
02945              -2.60    26400.00
02946               0.40    25600.00
02947               2.60    25600.00
02948              -2.20    24800.00
02949              -1.40    24800.00
02950              -3.60    24000.00
02951              -3.80    24000.00
02952              -1.20    24000.00
02953              -3.40    22400.00
02954              -0.60    22400.00
02955               1.20    21600.00
02956              -1.00    21600.00
02957              -0.40    20800.00
02958              -1.00    20000.00
02959              -2.60    19200.00
02960              -3.40    18400.00
02961              -2.00    18400.00
02962              -2.20    18400.00
02963              -1.40    17600.00
02964               0.20    17600.00
02965               0.60    16800.00
02966               0.20    16000.00
02967              -3.00    15200.00
02968              -2.60    14400.00
02969               0.60    14400.00
02970              -4.00    13600.00
02971              -3.60    12800.00
02972               2.00    12800.00
02973               0.20    12000.00
02974              -2.00    11200.00
02975               0.60    11200.00
02976              -0.40     9600.00
02977              -2.20     8800.00
02978              -2.00     8800.00
02979              -1.20     8800.00
02980              -2.20     8000.00
02981              -1.20     7200.00
02982               1.40     6400.00
02983               0.20     5600.00
02984              -1.80     5600.00
02985               0.40     4000.00
02986              -0.40     4000.00
02987              -2.80     3200.00
02988              -1.00     2400.00
02989               0.20     1600.00
02990              -0.80     1600.00
02991              -0.40      800.00
02992               1.20        0.00
02993               0.20        0.00
02994               1.00     -800.00
02995               3.20     -800.00
02996              -2.20    -1600.00
02997              -0.20    -2400.00
02998               1.80    -3200.00
02999               0.60    -3200.00
03000              -0.20    -4000.00
03001               6.80    -4800.00
03002              24.40    -5600.00
03003               5.00    -7200.00
03004             -25.00    -8000.00
03005              -0.40    -8000.00
03006              25.00    -8000.00
03007             -25.00    -8000.00
03008             -23.00    -8000.00
03009              25.00    -9600.00
03010              -8.20   -10400.00
03011             -25.00   -10400.00
03012              25.00   -12000.00
03013             -25.00   -12000.00
03014             -18.40   -12800.00
03015              25.00   -13600.00
03016             -24.60   -13600.00
03017              25.00   -14400.00
03018             -25.00   -14400.00
03019               1.80   -16000.00
03020              25.00   -16000.00
03021             -25.00   -16000.00
03022               4.20   -16800.00
03023              25.00   -17600.00
03024             -23.60   -17600.00
03025             -14.80   -18400.00
03026              25.00   -19200.00
03027             -19.00   -20000.00
03028              -9.20   -20000.00
03029              25.00   -20800.00
03030             -18.00   -21600.00
03031               3.40   -21600.00
03032               8.60   -21600.00
03033             -11.20   -22400.00
03034               6.80   -23200.00
03035               4.20   -23200.00
03036              -6.20   -24000.00
03037              10.00   -24000.00
03038               2.20   -25600.00
03039             -11.60   -25600.00
03040              15.00   -25600.00
03041              -3.40   -25600.00
03042              -6.00   -26400.00
03043              12.60   -27200.00
03044              -4.20   -27200.00
03045              -2.00   -27200.00
03046               6.60   -28000.00
03047              -0.60   -28800.00
03048              -1.20   -28800.00
03049               6.60   -28800.00
03050              -1.40   -29600.00
03051              -0.60   -28800.00
03052               5.00   -29600.00
03053              -2.20   -29600.00
03054               2.20   -29600.00
03055               4.40   -30400.00
03056              -1.40   -30400.00
03057               2.20   -30400.00
03058               3.00   -31200.00
03059              -1.80   -32000.00
03060               3.00   -31200.00
03061               2.60   -32000.00
03062               0.40   -32000.00
03063               3.40   -32000.00
03064               0.60   -32800.00
03065               0.80   -32800.00
03066               2.60   -32800.00
03067               1.40   -32800.00
03068               1.20   -32800.00
03069               2.00   -32800.00
03070               2.00   -32800.00
03071               0.60   -32800.00
03072               2.60   -32800.00
03073               1.00   -32800.00
03074               1.40   -32800.00
03075               3.40   -32800.00
03076               0.40   -32800.00
03077               2.20   -32800.00
03078               2.00   -32800.00
03079               0.60   -32800.00
03080               2.60   -32800.00
03081               2.00   -32800.00
03082               1.20   -32000.00
03083               1.80   -32800.00
03084               1.80   -32800.00
03085               1.40   -32000.00
03086               1.60   -32000.00
03087               2.20   -32000.00
03088               1.20   -32000.00
03089               2.00   -32000.00
03090               1.80   -31200.00
03091               1.40   -32000.00
03092               2.00   -30400.00
03093               1.80   -30400.00
03094               1.80   -30400.00
03095               1.80   -30400.00
03096               1.20   -30400.00
03097               1.20   -29600.00
03098               1.40   -29600.00
03099               1.20   -29600.00
03100               1.60   -28800.00
03101               1.00   -28800.00
03102               1.00   -28800.00
03103               1.20   -28000.00
03104               1.40   -28800.00
03105               1.00   -27200.00
03106               1.20   -27200.00
03107               1.20   -27200.00
03108               1.80   -27200.00
03109               0.40   -26400.00
03110               1.00   -26400.00
03111               2.00   -25600.00
03112               0.60   -24800.00
03113               0.60   -24800.00
03114               2.00   -24000.00
03115               0.40   -24000.00
03116               0.00   -24000.00
03117               2.00   -23200.00
03118               0.60   -22400.00
03119               0.00   -22400.00
03120               1.80   -22400.00
03121               0.60   -20800.00
03122               1.00   -20800.00
03123               1.00   -20000.00
03124              -0.20   -19200.00
03125               1.20   -19200.00
03126               0.60   -18400.00
03127               0.00   -17600.00
03128               1.80   -17600.00
03129               0.40   -17600.00
03130              -0.60   -16800.00
03131               1.80   -16000.00
03132               0.40   -16000.00
03133              -1.00   -14400.00
03134               2.20   -14400.00
03135               0.20   -14400.00
03136              -1.20   -13600.00
03137               2.00   -12800.00
03138               0.20   -12000.00
03139              -1.00   -12000.00
03140               1.80   -11200.00
03141               0.00   -10400.00
03142              -0.60    -9600.00
03143               1.20    -9600.00
03144              -0.20    -8000.00
03145              -0.60    -8000.00
03146               1.00    -7200.00
03147              -0.40    -7200.00
03148              -0.40    -6400.00
03149               0.60    -5600.00
03150               0.00    -4800.00
03151              -0.60    -4000.00
03152              -0.20    -3200.00
03153              -0.40    -3200.00
03154              -0.40    -1600.00
03155              -0.40    -1600.00
03156              -0.40    -1600.00
03157               0.20     -800.00
03158              -0.40        0.00
03159              -0.40      800.00
03160               0.60     1600.00
03161               1.80     1600.00
03162               1.40     2400.00
03163              -2.60     2400.00
03164               0.20     3200.00
03165               0.60     4800.00
03166              -1.40     4000.00
03167               3.40     4800.00
03168              23.60     7200.00
03169              15.20     8000.00
03170             -25.00     8000.00
03171              -6.00     8000.00
03172              25.00     8800.00
03173             -25.00     8800.00
03174              -4.20     9600.00
03175              25.00    10400.00
03176             -25.00     9600.00
03177              22.80    12000.00
03178              25.00    12000.00
03179             -25.00    12000.00
03180              25.00    12800.00
03181             -25.00    12800.00
03182               5.40    14400.00
03183              25.00    14400.00
03184             -25.00    15200.00
03185              25.00    16000.00
03186              21.00    16000.00
03187             -25.00    16800.00
03188              25.00    16800.00
03189               8.20    18400.00
03190             -25.00    18400.00
03191              11.80    19200.00
03192              24.80    19200.00
03193             -25.00    20000.00
03194              22.00    21600.00
03195              10.60    21600.00
03196             -25.00    22400.00
03197              25.00    21600.00
03198             -23.60    22400.00
03199              -2.00    23200.00
03200              11.60    24000.00
03201             -14.20    24000.00
03202               0.20    24800.00
03203              16.40    24800.00
03204             -18.60    25600.00
03205              -3.00    25600.00
03206              16.20    26400.00
03207             -24.40    27200.00
03208               7.80    26400.00
03209               5.60    27200.00
03210             -12.60    28000.00
03211               3.80    28000.00
03212               0.40    28800.00
03213              -7.40    28800.00
03214               0.20    28800.00
03215               2.60    29600.00
03216              -8.20    30400.00
03217               1.80    30400.00
03218              -1.20    30400.00
03219              -6.20    30400.00
03220               3.00    31200.00
03221              -2.20    31200.00
03222              -5.20    31200.00
03223               2.60    31200.00
03224              -4.40    32000.00
03225              -4.40    32800.00
03226               2.00    32800.00
03227              -5.20    32000.00
03228              -1.20    32800.00
03229               0.60    32800.00
03230              -4.40    33600.00
03231              -1.80    32800.00
03232              -2.00    32800.00
03233              -2.80    33600.00
03234              -2.20    33600.00
03235              -1.20    33600.00
03236              -3.00    33600.00
03237              -2.20    33600.00
03238              -0.60    33600.00
03239              -4.60    33600.00
03240              -1.00    33600.00
03241              -2.20    33600.00
03242              -3.80    33600.00
03243               0.20    33600.00
03244              -3.00    33600.00
03245              -3.00    33600.00
03246              -0.60    33600.00
03247              -2.60    33600.00
03248              -2.20    33600.00
03249              -2.20    33600.00
03250              -2.60    33600.00
03251              -2.20    33600.00
03252              -2.20    33600.00
03253              -2.20    33600.00
03254              -2.60    32000.00
03255              -1.80    32800.00
03256              -2.40    32800.00
03257              -2.00    32000.00
03258              -1.80    32800.00
03259              -3.00    32000.00
03260              -1.40    32000.00
03261              -1.80    31200.00
03262              -2.60    31200.00
03263              -1.40    31200.00
03264              -2.20    31200.00
03265              -1.80    30400.00
03266              -1.40    30400.00
03267              -2.20    30400.00
03268              -2.00    29600.00
03269              -2.20    28800.00
03270              -1.80    28800.00
03271              -2.00    28800.00
03272              -2.20    28000.00
03273              -1.80    28000.00
03274              -2.00    27200.00
03275              -1.40    27200.00
03276              -2.00    27200.00
03277              -2.00    26400.00
03278              -1.20    25600.00
03279              -1.40    25600.00
03280              -1.40    25600.00
03281              -1.80    25600.00
03282              -2.00    24000.00
03283              -1.20    24000.00
03284              -1.80    24000.00
03285              -1.80    24000.00
03286              -1.40    22400.00
03287              -1.60    22400.00
03288              -1.20    21600.00
03289              -1.80    21600.00
03290              -1.80    21600.00
03291              -1.80    20000.00
03292              -1.20    19200.00
03293              -1.20    19200.00
03294              -1.40    19200.00
03295              -1.40    17600.00
03296              -1.40    17600.00
03297              -1.20    16800.00
03298              -1.00    16000.00
03299              -1.80    16000.00
03300              -1.00    15200.00
03301              -1.40    14400.00
03302              -1.20    14400.00
03303              -1.00    14400.00
03304              -1.40    12800.00
03305              -1.20    12800.00
03306              -0.60    12000.00
03307              -1.00    12000.00
03308              -0.60    11200.00
03309              -1.20     9600.00
03310              -0.60    10400.00
03311              -1.20     8800.00
03312              -1.00     8800.00
03313              -0.60     8000.00
03314              -1.20     7200.00
03315              -1.00     6400.00
03316              -0.40     6400.00
03317              -1.20     5600.00
03318              -0.60     4800.00
03319              -0.60     3200.00
03320              -0.40     3200.00
03321              -0.20     3200.00
03322              -0.60     2400.00
03323              -0.60     1600.00
03324               0.20     1600.00
03325              -0.20        0.00
03326               0.00        0.00
03327               1.00     -800.00
03328               3.60     -800.00
03329              -0.80    -1600.00
03330              -0.60    -1600.00
03331               1.80    -3200.00
03332               0.60    -3200.00
03333              -0.40    -4000.00
03334               3.80    -4000.00
03335              16.40    -5600.00
03336              23.00    -6400.00
03337             -25.00    -7200.00
03338             -23.40    -8000.00
03339              25.00    -8000.00
03340              -5.00    -8800.00
03341             -25.00    -8800.00
03342              25.00    -9600.00
03343              25.00   -10400.00
03344             -25.00   -10400.00
03345              25.00   -11200.00
03346              25.00   -11200.00
03347             -25.00   -12000.00
03348              25.00   -13600.00
03349             -18.80   -13600.00
03350              15.20   -14400.00
03351               2.60   -14400.00
03352             -25.00   -16000.00
03353              25.00   -16000.00
03354             -17.20   -16000.00
03355             -22.20   -16800.00
03356              25.00   -17600.00
03357              -3.40   -17600.00
03358             -25.00   -18400.00
03359              25.00   -19200.00
03360               8.20   -20000.00
03361             -25.00   -20000.00
03362              25.00   -20000.00
03363              -0.60   -20800.00
03364             -12.40   -22400.00
03365              16.20   -22400.00
03366              -8.60   -22400.00
03367              -0.20   -23200.00
03368               7.00   -24000.00
03369              -3.60   -24000.00
03370               2.60   -24000.00
03371              10.00   -24800.00
03372             -11.80   -25600.00
03373               6.80   -25600.00
03374               7.00   -25600.00
03375             -12.40   -26400.00
03376              11.00   -26400.00
03377               2.40   -26400.00
03378              -5.00   -27200.00
03379               5.60   -27200.00
03380               2.80   -27200.00
03381              -3.60   -28800.00
03382               4.60   -28800.00
03383               2.60   -29600.00
03384              -3.00   -29600.00
03385               5.20   -29600.00
03386               0.40   -29600.00
03387              -0.40   -29600.00
03388               4.80   -30400.00
03389               0.40   -30400.00
03390               0.20   -30400.00
03391               4.40   -31200.00
03392              -0.60   -32000.00
03393               0.60   -32000.00
03394               3.60   -31200.00
03395              -0.60   -32000.00
03396               3.40   -32800.00
03397               2.00   -32800.00
03398               0.20   -32000.00
03399               2.00   -32800.00
03400               2.00   -32800.00
03401               1.80   -32800.00
03402               1.40   -32800.00
03403               2.60   -32800.00
03404               1.00   -32800.00
03405               2.00   -32800.00
03406               1.80   -32800.00
03407               0.60   -32800.00
03408               2.80   -32800.00
03409               1.20   -32800.00
03410               1.20   -32800.00
03411               3.00   -32800.00
03412               0.40   -33600.00
03413               2.00   -32800.00
03414               2.40   -32800.00
03415               1.20   -32800.00
03416               1.80   -32800.00
03417               2.00   -32000.00
03418               2.00   -32800.00
03419               1.20   -32800.00
03420               1.80   -32000.00
03421               1.40   -32000.00
03422               1.20   -32000.00
03423               2.00   -32000.00
03424               1.20   -31200.00
03425               1.40   -32000.00
03426               1.40   -31200.00
03427               1.00   -31200.00
03428               1.80   -30400.00
03429               1.60   -30400.00
03430               1.40   -30400.00
03431               1.80   -29600.00
03432               1.20   -29600.00
03433               1.40   -29600.00
03434               1.20   -29600.00
03435               1.20   -28800.00
03436               1.80   -28800.00
03437               1.20   -28000.00
03438               1.20   -27200.00
03439               0.60   -27200.00
03440               1.00   -27200.00
03441               1.20   -26400.00
03442               1.00   -26400.00
03443               1.40   -26400.00
03444               1.00   -25600.00
03445               1.20   -25600.00
03446               1.20   -25600.00
03447               1.20   -24000.00
03448               1.00   -24000.00
03449               0.80   -23200.00
03450               0.60   -23200.00
03451               0.80   -23200.00
03452               0.40   -22400.00
03453               1.00   -22400.00
03454               1.00   -21600.00
03455               1.00   -20800.00
03456               1.00   -20800.00
03457               0.40   -20000.00
03458               0.40   -19200.00
03459               0.40   -18400.00
03460               0.60   -18400.00
03461               0.60   -17600.00
03462               0.80   -17600.00
03463               0.60   -16800.00
03464               0.60   -16000.00
03465               0.60   -16000.00
03466               0.40   -14400.00
03467               0.20   -14400.00
03468               0.40   -14400.00
03469               0.20   -13600.00
03470               0.20   -12800.00
03471               0.40   -12000.00
03472               0.20   -11200.00
03473               0.60   -11200.00
03474               0.40   -10400.00
03475               0.20   -10400.00
03476               0.40    -9600.00
03477               0.00    -9600.00
03478               0.00    -8000.00
03479               0.40    -8000.00
03480              -0.20    -7200.00
03481               0.20    -6400.00
03482               0.00    -5600.00
03483               0.00    -4800.00
03484               0.00    -4000.00
03485              -0.60    -4000.00
03486              -0.20    -3200.00
03487              -0.20    -3200.00
03488              -0.80    -1600.00
03489              -0.60    -1600.00
03490              -0.20     -800.00
03491              -0.60        0.00
03492              -0.40        0.00
03493               0.20     1600.00
03494               1.00     1600.00
03495               3.20     1600.00
03496              -2.60     2400.00
03497              -0.60     2400.00
03498               1.00     4000.00
03499              -1.20     3200.00
03500               0.20     4800.00
03501              13.00     5600.00
03502              25.00     7200.00
03503             -25.00     8000.00
03504             -25.00     8000.00
03505              25.00     8800.00
03506              -6.20     8800.00
03507             -25.00     9600.00
03508              25.00    10400.00
03509             -11.20     9600.00
03510             -25.00    11200.00
03511              25.00    12000.00
03512             -25.00    11200.00
03513              15.00    12800.00
03514              22.20    12800.00
03515             -25.00    13600.00
03516              25.00    14400.00
03517             -25.00    15200.00
03518              -9.00    16000.00
03519              25.00    16000.00
03520             -25.00    16000.00
03521              18.80    17600.00
03522              25.00    17600.00
03523             -25.00    17600.00
03524             -14.00    19200.00
03525              25.00    19200.00
03526             -25.00    19200.00
03527             -10.20    20800.00
03528              25.00    21600.00
03529             -25.00    21600.00
03530              17.00    22400.00
03531              -2.60    22400.00
03532             -20.20    23200.00
03533              17.60    24000.00
03534              -7.40    24000.00
03535              -9.80    24800.00
03536              14.80    24800.00
03537              -3.60    24800.00
03538             -19.60    25600.00
03539              20.40    25600.00
03540             -12.80    25600.00
03541              -8.60    27200.00
03542              14.80    27200.00
03543             -12.20    28000.00
03544              -1.80    28000.00
03545               3.60    28000.00
03546              -5.00    28800.00
03547              -4.40    28800.00
03548               4.60    28800.00
03549              -6.20    29600.00
03550              -3.40    30400.00
03551               2.20    30400.00
03552              -7.00    30400.00
03553               0.20    30400.00
03554               1.80    31200.00
03555              -6.60    31200.00
03556               0.20    31200.00
03557              -0.60    32800.00
03558              -6.80    32000.00
03559               1.00    32800.00
03560              -2.60    32800.00
03561              -4.40    32800.00
03562               1.80    33600.00
03563              -3.60    32800.00
03564              -3.20    32800.00
03565              -1.20    33600.00
03566              -3.00    33600.00
03567              -2.40    33600.00
03568              -1.20    33600.00
03569              -2.20    33600.00
03570              -3.40    33600.00
03571              -0.20    33600.00
03572              -3.40    33600.00
03573              -2.80    33600.00
03574              -0.60    33600.00
03575              -4.40    33600.00
03576              -0.80    34400.00
03577              -1.80    33600.00
03578              -4.20    33600.00
03579              -1.00    33600.00
03580              -2.00    33600.00
03581              -2.60    33600.00
03582              -2.00    33600.00
03583              -2.20    33600.00
03584              -2.20    33600.00
03585              -2.20    33600.00
03586              -1.80    32800.00
03587              -2.60    33600.00
03588              -2.00    32800.00
03589              -2.20    32800.00
03590              -2.20    32800.00
03591              -1.00    32000.00
03592              -2.80    32000.00
03593              -2.20    31200.00
03594              -0.80    31200.00
03595              -3.00    31200.00
03596              -2.00    31200.00
03597              -1.40    31200.00
03598              -2.60    30400.00
03599              -1.80    30400.00
03600              -1.80    30400.00
03601              -2.20    29600.00
03602              -2.20    30400.00
03603              -1.40    28800.00
03604              -1.80    28800.00
03605              -2.20    28800.00
03606              -2.00    28000.00
03607              -1.80    28000.00
03608              -1.20    27200.00
03609              -2.00    27200.00
03610              -2.40    27200.00
03611              -1.20    25600.00
03612              -1.80    25600.00
03613              -1.80    25600.00
03614              -1.00    25600.00
03615              -2.40    24800.00
03616              -1.40    24000.00
03617              -1.20    24000.00
03618              -1.80    24000.00
03619              -1.40    23200.00
03620              -1.40    22400.00
03621              -1.40    21600.00
03622              -1.80    21600.00
03623              -1.80    20800.00
03624              -1.40    20000.00
03625              -1.40    20800.00
03626              -1.20    19200.00
03627              -1.40    19200.00
03628              -1.40    18400.00
03629              -1.60    17600.00
03630              -1.20    17600.00
03631              -0.80    16000.00
03632              -2.00    16000.00
03633              -1.00    15200.00
03634              -1.20    15200.00
03635              -1.80    14400.00
03636              -1.00    14400.00
03637              -1.20    12800.00
03638              -1.80    12800.00
03639              -0.60    12800.00
03640              -0.80    11200.00
03641              -1.20    12000.00
03642              -1.20    11200.00
03643              -0.60     9600.00
03644              -1.20     9600.00
03645              -1.00     8800.00
03646              -0.60     8000.00
03647              -1.20     8000.00
03648              -0.60     7200.00
03649              -0.40     6400.00
03650              -1.00     5600.00
03651              -0.40     5600.00
03652              -0.60     4800.00
03653              -0.60     3200.00
03654              -0.40     3200.00
03655              -0.60     2400.00
03656              -1.20     1600.00
03657               0.20     1600.00
03658              -0.20        0.00
03659              -0.20        0.00
03660               1.00        0.00
03661               2.60     -800.00
03662               1.40     -800.00
03663              -1.20    -1600.00
03664               1.00    -1600.00
03665               1.00    -3200.00
03666               0.40    -4000.00
03667               1.60    -4000.00
03668               9.80    -4800.00
03669              25.00    -6400.00
03670             -15.80    -7200.00
03671             -25.00    -8000.00
03672              16.20    -8000.00
03673              16.60    -8800.00
03674             -25.00    -8000.00
03675               1.40    -8800.00
03676              25.00   -10400.00
03677             -25.00   -10400.00
03678              -9.00   -11200.00
03679              25.00   -12000.00
03680             -25.00   -12000.00
03681              13.20   -12800.00
03682              10.60   -12800.00
03683             -10.20   -14400.00
03684              25.00   -14400.00
03685             -25.00   -15200.00
03686              25.00   -16000.00
03687              18.20   -16000.00
03688             -25.00   -16800.00
03689              25.00   -17600.00
03690              20.20   -17600.00
03691             -25.00   -19200.00
03692               4.20   -18400.00
03693              25.00   -19200.00
03694             -25.00   -20000.00
03695              11.40   -20800.00
03696              20.40   -20800.00
03697             -21.20   -20800.00
03698              12.60   -22400.00
03699              -0.20   -22400.00
03700              -7.60   -23200.00
03701               7.80   -23200.00
03702               0.40   -24000.00
03703              -3.00   -24000.00
03704              11.80   -24000.00
03705              -5.60   -24800.00
03706              -3.80   -25600.00
03707              14.00   -25600.00
03708             -10.80   -26400.00
03709               3.00   -26400.00
03710               9.60   -27200.00
03711              -6.20   -27200.00
03712               2.20   -27200.00
03713               5.80   -27200.00
03714              -3.00   -28800.00
03715               1.60   -28800.00
03716               6.00   -28800.00
03717              -3.00   -29600.00
03718               1.80   -29600.00
03719               3.60   -29600.00
03720              -2.00   -29600.00
03721               3.40   -29600.00
03722               3.60   -30400.00
03723              -1.20   -31200.00
03724               3.60   -31200.00
03725               2.00   -30400.00
03726              -1.00   -31200.00
03727               3.60   -32000.00
03728               1.00   -32000.00
03729               1.20   -32000.00
03730               3.60   -32000.00
03731              -0.20   -32000.00
03732               1.00   -32800.00
03733               2.40   -32800.00
03734               1.20   -32800.00
03735               0.60   -32800.00
03736               3.60   -32800.00
03737               1.80   -32800.00
03738               0.60   -32800.00
03739               2.80   -32000.00
03740               0.20   -33600.00
03741               2.20   -32800.00
03742               2.60   -33600.00
03743               0.40   -32800.00
03744               2.80   -33600.00
03745               1.20   -32800.00
03746               1.00   -32800.00
03747               3.00   -32800.00
03748               1.40   -32800.00
03749               1.00   -32800.00
03750               2.20   -32800.00
03751               1.60   -32800.00
03752               0.40   -32800.00
03753               2.00   -32000.00
03754               1.80   -32000.00
03755               1.00   -32000.00
03756               2.00   -32000.00
03757               1.20   -30400.00
03758               1.20   -32000.00
03759               1.20   -32000.00
03760               1.00   -31200.00
03761               2.00   -30400.00
03762               2.00   -30400.00
03763               1.20   -29600.00
03764               1.80   -29600.00
03765               1.00   -30400.00
03766               1.00   -29600.00
03767               1.80   -28800.00
03768               1.00   -29600.00
03769               1.20   -28800.00
03770               1.20   -28000.00
03771               1.00   -28000.00
03772               1.00   -28000.00
03773               1.80   -27200.00
03774               1.40   -27200.00
03775               1.00   -27200.00
03776               1.00   -26400.00
03777               0.60   -26400.00
03778               0.60   -25600.00
03779               1.40   -25600.00
03780               1.00   -24800.00
03781               1.20   -24000.00
03782               1.40   -24000.00
03783               1.00   -23200.00
03784               0.60   -23200.00
03785               0.60   -23200.00
03786               1.00   -22400.00
03787               1.00   -22400.00
03788               1.00   -20800.00
03789               1.00   -20800.00
03790               0.60   -20000.00
03791               0.60   -20000.00
03792               0.60   -19200.00
03793               0.60   -18400.00
03794               0.80   -18400.00
03795               0.60   -17600.00
03796               1.00   -17600.00
03797               0.40   -16800.00
03798               0.40   -16000.00
03799               1.40   -16000.00
03800               0.40   -14400.00
03801               0.20   -14400.00
03802               1.80   -13600.00
03803              -0.60   -13600.00
03804              -0.20   -12800.00
03805               1.00   -11200.00
03806              -0.20   -12000.00
03807               0.00   -11200.00
03808               0.20   -10400.00
03809               1.00   -10400.00
03810              -0.20    -9600.00
03811              -1.20    -8800.00
03812               2.00    -8000.00
03813              -0.60    -7200.00
03814              -1.00    -7200.00
03815               1.80    -6400.00
03816              -1.00    -5600.00
03817              -0.80    -4000.00
03818               1.40    -4000.00
03819              -1.80    -3200.00
03820              -0.60    -3200.00
03821               2.00    -2400.00
03822              -2.20    -1600.00
03823              -0.40     -800.00
03824               1.40     -800.00
03825              -2.40        0.00
03826              -0.20        0.00
03827               1.20      800.00
03828               1.80     1600.00
03829               0.60     2400.00
03830              -1.80     2400.00
03831              -0.20     3200.00
03832               0.60     3200.00
03833              -1.60     4800.00
03834               6.20     5600.00
03835              25.00     6400.00
03836              -8.20     7200.00
03837             -25.00     8000.00
03838              13.00     8000.00
03839              17.00     8800.00
03840             -25.00     8800.00
03841              25.00    10400.00
03842              25.00    10400.00
03843             -25.00    11200.00
03844              25.00    12000.00
03845               1.40    12000.00
03846             -25.00    12800.00
03847              25.00    12800.00
03848             -25.00    12800.00
03849              25.00    14400.00
03850              18.20    14400.00
03851             -25.00    15200.00
03852              25.00    16000.00
03853             -25.00    16000.00
03854             -25.00    17600.00
03855              25.00    17600.00
03856             -15.00    18400.00
03857             -25.00    18400.00
03858              25.00    19200.00
03859               6.00    20800.00
03860             -25.00    20800.00
03861              25.00    20800.00
03862             -14.80    21600.00
03863              -8.40    22400.00
03864              20.60    22400.00
03865             -25.00    24000.00
03866              10.20    24000.00
03867               2.00    24000.00
03868             -14.20    24800.00
03869               6.80    24800.00
03870              10.60    24800.00
03871             -22.80    25600.00
03872              10.00    25600.00
03873               4.40    26400.00
03874             -21.40    27200.00
03875              14.80    27200.00
03876              -4.20    27200.00
03877              -8.20    28000.00
03878               5.40    28000.00
03879              -2.20    28800.00
03880              -7.00    28800.00
03881               2.60    28800.00
03882              -1.20    29600.00
03883              -7.00    30400.00
03884               3.00    30400.00
03885              -4.40    30400.00
03886              -4.40    30400.00
03887               3.40    30400.00
03888              -5.00    31200.00
03889              -2.80    31200.00
03890               2.00    32000.00
03891              -6.20    31200.00
03892              -1.60    32800.00
03893               0.40    32800.00
03894              -6.00    32000.00
03895               0.60    33600.00
03896              -1.20    32800.00
03897              -4.40    32800.00
03898              -1.60    33600.00
03899              -2.60    33600.00
03900              -2.80    33600.00
03901              -2.20    33600.00
03902              -1.40    33600.00
03903              -3.80    33600.00
03904              -1.20    33600.00
03905              -1.80    33600.00
03906              -4.20    33600.00
03907               0.20    33600.00
03908              -3.20    33600.00
03909              -2.80    34400.00
03910              -0.20    33600.00
03911              -3.80    33600.00
03912              -2.20    33600.00
03913              -1.20    33600.00
03914              -2.40    33600.00
03915              -2.20    33600.00
03916              -2.20    33600.00
03917              -2.80    33600.00
03918              -2.20    33600.00
03919              -1.40    32800.00
03920              -2.20    33600.00
03921              -2.40    32800.00
03922              -1.40    32800.00
03923              -2.40    32000.00
03924              -1.80    32000.00
03925              -2.20    32000.00
03926              -2.80    32000.00
03927              -1.00    32000.00
03928              -2.20    31200.00
03929              -2.60    31200.00
03930              -1.40    31200.00
03931              -2.20    30400.00
03932              -1.60    30400.00
03933              -2.00    29600.00
03934              -2.20    30400.00
03935              -2.00    28800.00
03936              -1.80    28800.00
03937              -2.00    28800.00
03938              -2.00    28800.00
03939              -1.80    28000.00
03940              -1.60    28000.00
03941              -1.40    27200.00
03942              -1.80    27200.00
03943              -2.40    27200.00
03944              -1.40    26400.00
03945              -1.80    25600.00
03946              -2.20    25600.00
03947              -1.20    25600.00
03948              -2.20    24800.00
03949              -2.00    24800.00
03950              -1.20    24000.00
03951              -1.80    24000.00
03952              -1.40    22400.00
03953              -1.80    22400.00
03954              -2.00    22400.00
03955              -1.20    21600.00
03956              -1.80    21600.00
03957              -2.00    20800.00
03958              -1.80    20000.00
03959              -1.20    19200.00
03960              -1.60    19200.00
03961              -1.60    18400.00
03962              -1.20    18400.00
03963              -1.80    17600.00
03964              -1.20    16800.00
03965              -1.00    16000.00
03966              -1.60    15200.00
03967              -1.00    15200.00
03968              -1.40    14400.00
03969              -1.20    14400.00
03970              -1.00    14400.00
03971              -1.20    12800.00
03972              -1.20    12000.00
03973              -0.60    12000.00
03974              -1.00    11200.00
03975              -1.40    11200.00
03976              -1.00    10400.00
03977              -0.20     9600.00
03978              -2.00     8800.00
03979              -1.20     8800.00
03980               0.00     8000.00
03981              -1.60     7200.00
03982              -1.00     6400.00
03983               0.60     5600.00
03984              -1.00     5600.00
03985              -1.20     4800.00
03986               0.40     3200.00
03987               0.20     3200.00
03988              -1.20     2400.00
03989              -0.40     2400.00
03990               0.20     1600.00
03991              -1.00      800.00
03992               0.20        0.00
03993               0.40        0.00
03994               1.40     -800.00
03995               3.00    -1600.00
03996              -1.20    -1600.00
03997               0.60    -2400.00
03998               1.40    -3200.00
03999               0.20    -4000.00
04000               0.80    -4000.00
04001               5.40    -4000.00
04002              22.60    -5600.00
04003              11.60    -7200.00
04004             -25.00    -7200.00
04005              -5.40    -8000.00
04006              25.00    -8000.00
04007             -25.00    -8000.00
04008             -25.00    -8800.00
04009              25.00    -9600.00
04010               5.40   -10400.00
04011             -25.00   -10400.00
04012              25.00   -11200.00
04013             -16.40   -12000.00
04014             -25.00   -12800.00
04015              25.00   -13600.00
04016             -25.00   -13600.00
04017              25.00   -14400.00
04018             -23.60   -14400.00
04019              -6.80   -16000.00
04020              25.00   -16000.00
04021             -25.00   -16800.00
04022              -1.00   -17600.00
04023              25.00   -17600.00
04024             -20.80   -18400.00
04025             -18.60   -18400.00
04026              25.00   -19200.00
04027             -13.80   -19200.00
04028             -15.40   -20000.00
04029              25.00   -20800.00
04030             -15.60   -21600.00
04031              -1.20   -22400.00
04032              11.60   -22400.00
04033             -11.00   -23200.00
04034               4.20   -23200.00
04035               5.80   -24000.00
04036              -4.60   -24000.00
04037               6.80   -24000.00
04038               4.20   -24800.00
04039             -11.00   -25600.00
04040              13.00   -25600.00
04041              -1.20   -25600.00
04042              -7.00   -26400.00
04043              13.00   -27200.00
04044              -3.20   -27200.00
04045              -2.40   -27200.00
04046               6.80   -28000.00
04047               0.40   -28000.00
04048              -1.80   -28800.00
04049               6.20   -28800.00
04050              -0.40   -29600.00
04051              -1.20   -28800.00
04052               5.40   -29600.00
04053              -1.20   -29600.00
04054               1.80   -30400.00
04055               4.60   -30400.00
04056              -1.20   -30400.00
04057               1.80   -31200.00
04058               3.60   -32000.00
04059              -1.80   -31200.00
04060               2.80   -32000.00
04061               3.20   -32000.00
04062              -0.40   -32000.00
04063               3.60   -32000.00
04064               1.20   -32000.00
04065               0.40   -32000.00
04066               2.00   -32800.00
04067               2.00   -32800.00
04068               1.00   -32800.00
04069               1.80   -32800.00
04070               2.60   -32800.00
04071               0.40   -32800.00
04072               2.60   -32800.00
04073               1.20   -33600.00
04074               1.00   -32800.00
04075               2.80   -32800.00
04076               0.60   -33600.00
04077               2.00   -32800.00
04078               2.00   -32800.00
04079               0.40   -32800.00
04080               2.00   -32800.00
04081               1.80   -32800.00
04082               1.00   -32800.00
04083               1.20   -32000.00
04084               1.80   -32800.00
04085               1.20   -32800.00
04086               1.20   -32000.00
04087               2.00   -32000.00
04088               1.20   -32000.00
04089               1.40   -32000.00
04090               1.80   -32000.00
04091               1.00   -32000.00
04092               1.40   -32000.00
04093               1.20   -31200.00
04094               2.00   -30400.00
04095               1.80   -30400.00
04096               1.00   -30400.00
04097               1.40   -30400.00
04098               1.40   -29600.00
04099               1.40   -29600.00
04100               1.00   -29600.00
04101               1.00   -29600.00
04102               1.60   -28800.00
04103               1.20   -28800.00
04104               1.20   -28800.00
04105               1.40   -27200.00
04106               1.40   -27200.00
04107               1.00   -27200.00
04108               1.20   -27200.00
04109               1.40   -26400.00
04110               1.00   -25600.00
04111               0.40   -26400.00
04112               1.40   -25600.00
04113               1.20   -24000.00
04114               0.40   -24000.00
04115               1.80   -24000.00
04116               1.00   -23200.00
04117               0.60   -23200.00
04118               1.00   -23200.00
04119               1.20   -22400.00
04120               1.20   -21600.00
04121               1.00   -21600.00
04122               1.00   -20800.00
04123               0.60   -20000.00
04124               0.80   -18400.00
04125               1.00   -19200.00
04126               0.40   -18400.00
04127               1.60   -18400.00
04128               0.20   -17600.00
04129               0.20   -16800.00
04130               1.00   -16800.00
04131               0.60   -16000.00
04132               0.80   -15200.00
04133               1.20   -16000.00
04134               0.40   -14400.00
04135               0.40   -14400.00
04136               0.00   -12800.00
04137               0.00   -12800.00
04138               0.40   -12800.00
04139               0.80   -12000.00
04140               0.60   -11200.00
04141               0.40   -10400.00
04142              -0.20    -9600.00
04143              -0.40    -9600.00
04144               0.20    -9600.00
04145               0.20    -8000.00
04146              -0.20    -7200.00
04147               0.20    -7200.00
04148               0.00    -6400.00
04149              -0.40    -6400.00
04150              -0.20    -4800.00
04151               0.20    -4000.00
04152              -0.20    -4000.00
04153              -0.20    -3200.00
04154              -0.60    -2400.00
04155              -0.60    -2400.00
04156              -0.60    -1600.00
04157              -0.60     -800.00
04158              -0.20        0.00
04159              -0.20        0.00
04160               0.20     1600.00
04161               2.00     1600.00
04162               2.20     2400.00
04163              -3.40     2400.00
04164              -0.40     3200.00
04165               1.00     3200.00
04166              -1.40     3200.00
04167               2.60     4800.00
04168              21.20     5600.00
04169              21.20     7200.00
04170             -25.00     8000.00
04171             -12.60     8000.00
04172              25.00     8800.00
04173             -25.00     8800.00
04174             -14.20     9600.00
04175              25.00    10400.00
04176             -25.00    10400.00
04177               7.40    11200.00
04178              25.00    12000.00
04179             -25.00    12000.00
04180              25.00    12800.00
04181             -25.00    12800.00
04182             -10.60    13600.00
04183              25.00    14400.00
04184             -25.00    15200.00
04185              25.00    16000.00
04186              25.00    16000.00
04187             -25.00    16000.00
04188              25.00    16800.00
04189              16.20    17600.00
04190             -25.00    18400.00
04191               5.80    19200.00
04192              25.00    20000.00
04193             -25.00    20000.00
04194              15.40    20800.00
04195              18.20    21600.00
04196             -25.00    21600.00
04197              25.00    22400.00
04198             -19.80    22400.00
04199              -6.20    23200.00
04200              13.80    24000.00
04201             -13.20    24000.00
04202              -2.20    24800.00
04203              17.00    24800.00
04204             -15.60    25600.00
04205              -8.20    25600.00
04206              18.60    25600.00
04207             -23.00    26400.00
04208               4.00    27200.00
04209               8.20    27200.00
04210             -13.40    27200.00
04211               2.40    28000.00
04212               1.80    28000.00
04213              -7.00    28800.00
04214              -1.40    29600.00
04215               3.40    28800.00
04216              -8.00    29600.00
04217               0.20    30400.00
04218              -0.40    30400.00
04219              -7.00    30400.00
04220               2.00    31200.00
04221              -1.80    31200.00
04222              -5.40    31200.00
04223               2.00    32000.00
04224              -3.40    32800.00
04225              -5.40    32000.00
04226               2.00    32800.00
04227              -5.00    32000.00
04228              -2.00    32800.00
04229               1.00    33600.00
04230              -4.60    32800.00
04231              -2.20    33600.00
04232              -1.40    33600.00
04233              -3.00    33600.00
04234              -2.60    33600.00
04235              -0.60    33600.00
04236              -3.00    33600.00
04237              -2.80    33600.00
04238              -0.20    33600.00
04239              -4.60    33600.00
04240              -1.40    33600.00
04241              -1.20    33600.00
04242              -4.00    33600.00
04243               0.40    33600.00
04244              -2.80    33600.00
04245              -3.20    34400.00
04246              -0.60    33600.00
04247              -2.20    33600.00
04248              -2.20    33600.00
04249              -2.20    32800.00
04250              -2.20    33600.00
04251              -2.60    33600.00
04252              -2.20    32800.00
04253              -1.80    33600.00
04254              -2.60    33600.00
04255              -1.80    32800.00
04256              -2.40    32000.00
04257              -2.20    32800.00
04258              -2.00    32800.00
04259              -3.00    32800.00
04260              -1.40    32000.00
04261              -1.40    31200.00
04262              -2.80    31200.00
04263              -1.80    31200.00
04264              -2.00    31200.00
04265              -2.20    31200.00
04266              -2.00    31200.00
04267              -2.20    30400.00
04268              -1.40    30400.00
04269              -2.00    29600.00
04270              -1.80    28800.00
04271              -1.80    28800.00
04272              -2.20    28000.00
04273              -2.00    28000.00
04274              -1.80    28000.00
04275              -1.60    27200.00
04276              -2.20    27200.00
04277              -2.20    26400.00
04278              -1.40    26400.00
04279              -1.80    25600.00
04280              -1.80    25600.00
04281              -1.60    24800.00
04282              -2.20    24000.00
04283              -1.40    24000.00
04284              -2.00    24000.00
04285              -1.40    23200.00
04286              -1.20    22400.00
04287              -2.40    22400.00
04288              -1.00    22400.00
04289              -1.80    21600.00
04290              -2.00    20800.00
04291              -1.40    20000.00
04292              -1.80    19200.00
04293              -1.00    19200.00
04294              -1.40    18400.00
04295              -1.60    18400.00
04296              -1.40    17600.00
04297              -1.20    17600.00
04298              -1.40    16800.00
04299              -1.20    16000.00
04300              -1.00    15200.00
04301              -2.20    15200.00
04302              -0.40    14400.00
04303              -0.40    13600.00
04304              -2.20    12800.00
04305              -0.60    12800.00
04306              -0.20    12000.00
04307              -1.40    11200.00
04308              -0.60    11200.00
04309              -1.00    10400.00
04310              -1.20     9600.00
04311              -0.60     9600.00
04312              -0.60     8800.00
04313              -1.00     8000.00
04314              -1.20     8000.00
04315              -0.20     6400.00
04316              -0.60     6400.00
04317              -1.00     5600.00
04318               0.20     4800.00
04319              -0.80     4800.00
04320              -0.40     3200.00
04321               0.20     2400.00
04322              -0.60     2400.00
04323              -0.60     1600.00
04324               0.40      800.00
04325              -0.20      800.00
04326               0.20        0.00
04327               1.00     -800.00
04328               3.60     -800.00
04329              -0.40    -1600.00
04330              -1.00    -1600.00
04331               1.80    -3200.00
04332               1.20    -3200.00
04333              -0.20    -4800.00
04334               3.40    -4000.00
04335              14.80    -5600.00
04336              25.00    -7200.00
04337             -25.00    -8000.00
04338             -25.00    -8000.00
04339              25.00    -8000.00
04340               0.20    -8800.00
04341             -25.00    -8000.00
04342              25.00    -9600.00
04343              25.00   -10400.00
04344             -25.00   -10400.00
04345              25.00   -11200.00
04346              25.00   -12000.00
04347             -25.00   -12800.00
04348              25.00   -13600.00
04349             -13.40   -12800.00
04350               9.20   -13600.00
04351               9.80   -14400.00
04352             -25.00   -15200.00
04353              25.00   -16000.00
04354              -9.40   -16000.00
04355             -25.00   -17600.00
04356              25.00   -17600.00
04357               2.00   -18400.00
04358             -25.00   -19200.00
04359              20.60   -18400.00
04360              14.20   -19200.00
04361             -25.00   -20000.00
04362              25.00   -20000.00
04363               4.20   -20800.00
04364             -14.80   -21600.00
04365              16.20   -22400.00
04366              -7.20   -22400.00
04367              -1.60   -23200.00
04368               7.40   -24000.00
04369              -2.80   -24000.00
04370               1.00   -24000.00
04371              11.40   -24800.00
04372             -10.80   -25600.00
04373               4.80   -25600.00
04374               9.20   -26400.00
04375             -12.80   -26400.00
04376               9.80   -26400.00
04377               4.40   -27200.00
04378              -5.60   -27200.00
04379               5.20   -27200.00
04380               3.60   -28000.00
04381              -3.40   -28800.00
04382               4.20   -28800.00
04383               3.60   -28800.00
04384              -3.00   -28800.00
04385               4.40   -29600.00
04386               1.80   -29600.00
04387              -1.00   -29600.00
04388               4.20   -30400.00
04389               2.00   -30400.00
04390              -0.80   -30400.00
04391               3.60   -31200.00
04392               0.60   -32000.00
04393               0.40   -32000.00
04394               3.00   -32000.00
04395               0.60   -32000.00
04396               3.40   -32000.00
04397               1.80   -32000.00
04398               0.40   -32800.00
04399               2.40   -32000.00
04400               1.20   -32000.00
04401               1.40   -32800.00
04402               1.80   -32800.00
04403               2.20   -32800.00
04404               0.80   -32800.00
04405               1.80   -32800.00
04406               2.00   -32800.00
04407              -0.20   -32800.00
04408               2.40   -32800.00
04409               1.80   -32800.00
04410               1.00   -32800.00
04411               2.20   -32800.00
04412               1.20   -32800.00
04413               1.40   -32800.00
04414               1.80   -32800.00
04415               1.80   -32800.00
04416               1.20   -32800.00
04417               1.00   -32800.00
04418               1.80   -33600.00
04419               1.20   -32000.00
04420               1.00   -32800.00
04421               1.40   -32800.00
04422               1.80   -32000.00
04423               1.60   -32000.00
04424               1.00   -32000.00
04425               1.40   -31200.00
04426               1.40   -30400.00
04427               1.20   -30400.00
04428               1.80   -30400.00
04429               1.40   -30400.00
04430               1.20   -30400.00
04431               1.80   -29600.00
04432               1.00   -29600.00
04433               1.60   -28800.00
04434               1.40   -29600.00
04435               1.00   -28800.00
04436               1.80   -28800.00
04437               1.00   -28000.00
04438               1.00   -28000.00
04439               1.20   -27200.00
04440               1.00   -27200.00
04441               1.40   -27200.00
04442               1.80   -26400.00
04443               0.80   -25600.00
04444               1.00   -25600.00
04445               1.40   -25600.00
04446               1.00   -25600.00
04447               1.00   -24800.00
04448               1.40   -24000.00
04449               0.60   -24000.00
04450               1.00   -23200.00
04451               1.20   -23200.00
04452               0.60   -23200.00
04453               1.20   -22400.00
04454               0.60   -20800.00
04455               0.60   -20800.00
04456               1.20   -20000.00
04457               0.40   -19200.00
04458               0.40   -18400.00
04459               1.00   -19200.00
04460               1.00   -17600.00
04461               0.40   -17600.00
04462               1.00   -16800.00
04463               0.60   -16800.00
04464               0.20   -16800.00
04465               1.00   -16000.00
04466               0.40   -16000.00
04467               0.20   -14400.00
04468               0.40   -14400.00
04469               0.40   -13600.00
04470               0.20   -12800.00
04471               0.40   -12800.00
04472               0.20   -11200.00
04473               0.40   -11200.00
04474               0.40   -11200.00
04475               0.20   -10400.00
04476               0.00    -9600.00
04477               0.00    -9600.00
04478               0.00    -8000.00
04479              -0.20    -8000.00
04480              -0.20    -7200.00
04481               0.20    -6400.00
04482              -0.40    -6400.00
04483              -0.40    -4800.00
04484              -0.20    -4800.00
04485              -0.60    -4000.00
04486              -0.40    -3200.00
04487               0.20    -3200.00
04488              -0.40    -1600.00
04489              -0.40    -1600.00
04490              -0.40     -800.00
04491              -0.40        0.00
04492              -0.20        0.00
04493               0.20      800.00
04494               0.40     1600.00
04495               3.40     1600.00
04496              -1.80     1600.00
04497              -1.40     3200.00
04498               1.00     3200.00
04499              -0.40     4000.00
04500              -1.00     4800.00
04501              11.60     5600.00
04502              25.00     7200.00
04503             -25.00     8000.00
04504             -25.00     8000.00
04505              25.00     8800.00
04506              -0.60     8800.00
04507             -25.00     8800.00
04508              25.00     9600.00
04509               3.80    10400.00
04510             -25.00    11200.00
04511              25.00    12000.00
04512             -25.00    12000.00
04513               2.00    12800.00
04514              25.00    13600.00
04515             -25.00    13600.00
04516              25.00    14400.00
04517             -25.00    15200.00
04518             -25.00    16000.00
04519              25.00    16000.00
04520             -25.00    16000.00
04521               8.60    17600.00
04522              25.00    17600.00
04523             -25.00    18400.00
04524             -18.20    19200.00
04525              25.00    19200.00
04526             -20.40    20000.00
04527             -18.00    20800.00
04528              25.00    21600.00
04529             -25.00    21600.00
04530              12.20    22400.00
04531               3.40    22400.00
04532             -23.40    23200.00
04533              17.20    23200.00
04534              -6.00    24000.00
04535             -11.40    24800.00
04536              13.80    24800.00
04537              -0.80    25600.00
04538             -21.20    25600.00
04539              19.80    25600.00
04540              -9.80    26400.00
04541             -12.40    26400.00
04542              15.80    27200.00
04543             -11.80    28000.00
04544              -3.40    28000.00
04545               4.40    28000.00
04546              -5.20    28800.00
04547              -5.40    28800.00
04548               4.40    28800.00
04549              -5.20    29600.00
04550              -4.60    30400.00
04551               2.60    30400.00
04552              -6.20    30400.00
04553              -1.00    31200.00
04554               2.00    31200.00
04555              -6.20    31200.00
04556              -0.40    31200.00
04557              -0.40    32800.00
04558              -6.80    32800.00
04559               0.60    32000.00
04560              -2.00    32800.00
04561              -4.60    32800.00
04562               2.00    32800.00
04563              -3.00    32800.00
04564              -3.60    33600.00
04565              -1.00    33600.00
04566              -3.00    33600.00
04567              -2.60    33600.00
04568              -1.20    33600.00
04569              -1.40    33600.00
04570              -3.80    33600.00
04571              -0.40    33600.00
04572              -2.80    33600.00
04573              -3.00    33600.00
04574              -0.40    33600.00
04575              -4.40    33600.00
04576              -1.20    33600.00
04577              -1.40    33600.00
04578              -4.20    33600.00
04579              -1.00    33600.00
04580              -2.00    33600.00
04581              -2.60    33600.00
04582              -1.60    33600.00
04583              -2.20    33600.00
04584              -2.20    33600.00
04585              -2.00    33600.00
04586              -1.80    33600.00
04587              -2.60    32800.00
04588              -1.80    32800.00
04589              -2.00    32000.00
04590              -2.20    32000.00
04591              -1.80    32800.00
04592              -2.80    32000.00
04593              -2.20    32800.00
04594              -1.20    32000.00
04595              -2.80    31200.00
04596              -2.40    31200.00
04597              -1.80    31200.00
04598              -2.20    31200.00
04599              -2.20    30400.00
04600              -1.40    30400.00
04601              -2.60    30400.00
04602              -2.20    29600.00
04603              -2.00    28800.00
04604              -2.20    28800.00
04605              -2.20    28000.00
04606              -2.00    28000.00
04607              -2.20    27200.00
04608              -1.80    27200.00
04609              -1.40    27200.00
04610              -2.60    26400.00
04611              -1.80    26400.00
04612              -1.80    25600.00
04613              -2.00    25600.00
04614              -1.60    25600.00
04615              -2.20    24800.00
04616              -2.00    24000.00
04617              -1.20    24000.00
04618              -1.80    24000.00
04619              -1.80    23200.00
04620              -1.40    22400.00
04621              -1.80    22400.00
04622              -1.80    21600.00
04623              -1.40    20800.00
04624              -1.20    20000.00
04625              -2.00    20000.00
04626              -1.00    19200.00
04627              -0.60    18400.00
04628              -2.20    18400.00
04629              -1.80    17600.00
04630              -1.20    17600.00
04631              -1.40    16800.00
04632              -1.20    16000.00
04633              -1.20    15200.00
04634              -1.00    15200.00
04635              -1.40    14400.00
04636              -1.20    14400.00
04637              -1.20    12800.00
04638              -0.60    12800.00
04639              -1.20    12000.00
04640              -0.60    12000.00
04641              -1.20    11200.00
04642              -1.40    10400.00
04643              -0.40     9600.00
04644              -0.40     8800.00
04645              -1.60     8800.00
04646              -0.40     8800.00
04647              -1.00     8000.00
04648              -0.80     6400.00
04649               0.00     6400.00
04650              -0.60     5600.00
04651              -0.60     5600.00
04652               0.20     4800.00
04653              -1.20     3200.00
04654              -0.40     3200.00
04655               0.20     3200.00
04656              -1.20     2400.00
04657              -0.20     1600.00
04658               0.20      800.00
04659              -0.60        0.00
04660               0.60     -800.00
04661               2.80     -800.00
04662               1.40    -1600.00
04663              -1.80    -1600.00
04664               1.40    -3200.00
04665               1.20    -3200.00
04666               0.20    -4000.00
04667               1.00    -4000.00
04668               8.60    -4800.00
04669              25.00    -6400.00
04670              -9.80    -7200.00
04671             -25.00    -8000.00
04672              12.20    -8800.00
04673              19.40    -9600.00
04674             -25.00    -8000.00
04675              -6.20    -8800.00
04676              25.00   -10400.00
04677             -25.00   -10400.00
04678             -22.80   -11200.00
04679              25.00   -12000.00
04680             -25.00   -12800.00
04681               5.20   -12800.00
04682              17.20   -13600.00
04683             -16.20   -13600.00
04684              25.00   -14400.00
04685             -25.00   -15200.00
04686              21.20   -16000.00
04687              25.00   -16000.00
04688             -25.00   -16800.00
04689              19.40   -16800.00
04690              25.00   -17600.00
04691             -25.00   -18400.00
04692              -1.60   -19200.00
04693              25.00   -19200.00
04694             -25.00   -20000.00
04695               5.20   -20000.00
04696              24.40   -20800.00
04697             -20.60   -21600.00
04698              10.40   -22400.00
04699               2.60   -22400.00
04700              -8.60   -23200.00
04701               7.80   -23200.00
04702               2.00   -24000.00
04703              -3.80   -24000.00
04704              11.60   -24800.00
04705              -3.20   -25600.00
04706              -6.20   -25600.00
04707              15.40   -25600.00
04708              -9.20   -26400.00
04709               0.40   -26400.00
04710              11.20   -27200.00
04711              -5.80   -27200.00
04712               0.60   -27200.00
04713               6.20   -28000.00
04714              -2.20   -28800.00
04715               1.00   -28000.00
04716               6.00   -28800.00
04717              -2.20   -29600.00
04718               1.80   -28800.00
04719               4.20   -30400.00
04720              -2.20   -30400.00
04721               3.40   -30400.00
04722               3.60   -31200.00
04723              -1.40   -30400.00
04724               3.40   -31200.00
04725               2.00   -32000.00
04726              -1.60   -32000.00
04727               3.60   -32000.00
04728               1.00   -31200.00
04729               1.00   -32000.00
04730               3.40   -32000.00
04731               0.40   -32000.00
04732               1.20   -32000.00
04733               1.80   -32800.00
04734               1.40   -32000.00
04735               1.20   -32800.00
04736               2.00   -32800.00
04737               1.80   -32800.00
04738               1.00   -32800.00
04739               2.20   -32800.00
04740               0.40   -32800.00
04741               1.80   -33600.00
04742               2.00   -32800.00
04743               0.40   -32000.00
04744               2.60   -33600.00
04745               1.20   -32800.00
04746               0.40   -33600.00
04747               2.60   -33600.00
04748               1.40   -32800.00
04749               1.20   -32800.00
04750               1.60   -32800.00
04751               1.40   -32800.00
04752               1.40   -32800.00
04753               1.40   -32800.00
04754               1.40   -32000.00
04755               1.40   -32000.00
04756               1.80   -32000.00
04757               1.20   -32000.00
04758               1.20   -32000.00
04759               1.40   -31200.00
04760               1.20   -31200.00
04761               1.80   -30400.00
04762               1.40   -30400.00
04763               1.00   -30400.00
04764               1.80   -30400.00
04765               1.80   -30400.00
04766               1.00   -29600.00
04767               1.60   -28800.00
04768               1.40   -28800.00
04769               1.20   -28800.00
04770               1.40   -28800.00
04771               1.80   -28000.00
04772               1.00   -28000.00
04773               1.20   -27200.00
04774               1.40   -27200.00
04775               1.20   -26400.00
04776               1.00   -26400.00
04777               1.40   -25600.00
04778               1.00   -25600.00
04779               1.40   -25600.00
04780               1.20   -24800.00
04781               1.00   -24800.00
04782               1.20   -24000.00
04783               1.00   -24000.00
04784               1.00   -23200.00
04785               1.00   -23200.00
04786               1.00   -21600.00
04787               1.00   -21600.00
04788               1.00   -20800.00
04789               1.00   -20800.00
04790               0.60   -20000.00
04791               0.40   -20000.00
04792               0.60   -19200.00
04793               1.00   -18400.00
04794               1.00   -17600.00
04795               0.40   -16800.00
04796               0.60   -16800.00
04797               0.40   -16800.00
04798               0.40   -16000.00
04799               0.80   -15200.00
04800               0.20   -14400.00
04801               0.20   -14400.00
04802               1.00   -13600.00
04803               0.00   -12800.00
04804               0.20   -12800.00
04805               0.20   -12000.00
04806               0.20   -11200.00
04807               0.20   -11200.00
04808               0.00   -10400.00
04809               0.00    -9600.00
04810               0.20    -9600.00
04811              -0.20    -8800.00
04812               0.00    -8000.00
04813              -0.20    -7200.00
04814              -0.20    -6400.00
04815               0.20    -6400.00
04816              -0.20    -5600.00
04817              -0.20    -4800.00
04818              -0.20    -4000.00
04819              -0.40    -4000.00
04820              -0.40    -3200.00
04821              -0.20    -1600.00
04822              -0.40    -1600.00
04823              -0.60    -1600.00
04824              -0.20        0.00
04825              -0.40        0.00
04826               0.00      800.00
04827               0.40     1600.00
04828               2.80     1600.00
04829               0.60     2400.00
04830              -2.20     2400.00
04831               0.40     3200.00
04832               0.60     3200.00
04833              -2.00     4000.00
04834               5.80     5600.00
04835              25.00     6400.00
04836              -1.00     7200.00
04837             -25.00     8000.00
04838               8.20     8000.00
04839              21.00     8800.00
04840             -25.00     8800.00
04841              21.20     9600.00
04842              25.00    10400.00
04843             -25.00    10400.00
04844              25.00    12000.00
04845              16.20    11200.00
04846             -25.00    12000.00
04847              25.00    12800.00
04848             -25.00    12800.00
04849              25.00    14400.00
04850              25.00    14400.00
04851             -25.00    15200.00
04852              25.00    16000.00
04853             -17.20    16000.00
04854             -25.00    17600.00
04855              25.00    17600.00
04856              -9.80    18400.00
04857             -25.00    18400.00
04858              24.20    19200.00
04859              11.40    19200.00
04860             -25.00    20800.00
04861              25.00    20800.00
04862              -9.00    21600.00
04863             -13.00    21600.00
04864              24.40    22400.00
04865             -25.00    22400.00
04866               6.20    24000.00
04867               5.80    24000.00
04868             -13.80    24000.00
04869               3.60    24800.00
04870              11.80    25600.00
04871             -21.00    24800.00
04872               6.80    25600.00
04873               6.60    26400.00
04874             -22.80    27200.00
04875              14.40    27200.00
04876              -2.80    28000.00
04877              -9.80    28000.00
04878               5.80    28000.00
04879              -2.80    28800.00
04880              -8.20    28800.00
04881               3.60    28800.00
04882              -0.60    29600.00
04883              -9.00    29600.00
04884               4.20    30400.00
04885              -3.60    31200.00
04886              -6.40    31200.00
04887               3.60    31200.00
04888              -3.20    31200.00
04889              -3.80    31200.00
04890               2.40    32000.00
04891              -5.00    32000.00
04892              -3.00    32800.00
04893               0.40    32800.00
04894              -5.60    32000.00
04895              -0.20    32800.00
04896              -0.60    32800.00
04897              -4.20    33600.00
04898              -1.20    33600.00
04899              -2.60    32800.00
04900              -2.80    33600.00
04901              -1.40    33600.00
04902              -0.40    33600.00
04903              -4.20    33600.00
04904              -1.80    33600.00
04905              -0.60    33600.00
04906              -4.20    33600.00
04907              -0.40    33600.00
04908              -2.80    33600.00
04909              -2.40    33600.00
04910              -0.20    33600.00
04911              -3.80    33600.00
04912              -2.80    33600.00
04913              -1.00    33600.00
04914              -2.60    33600.00
04915              -2.60    33600.00
04916              -2.00    33600.00
04917              -2.00    33600.00
04918              -2.20    32800.00
04919              -1.20    32800.00
04920              -2.20    33600.00
04921              -2.20    32800.00
04922              -1.80    32000.00
04923              -3.00    32800.00
04924              -2.00    32000.00
04925              -1.60    32000.00
04926              -3.20    32800.00
04927              -1.00    32000.00
04928              -1.40    31200.00
04929              -3.20    31200.00
04930              -2.20    31200.00
04931              -2.00    30400.00
04932              -2.20    30400.00
04933              -2.20    30400.00
04934              -2.00    30400.00
04935              -1.80    29600.00
04936              -2.20    28800.00
04937              -1.80    28800.00
04938              -2.20    28800.00
04939              -2.20    28000.00
04940              -2.20    28000.00
04941              -2.60    28000.00
04942              -1.40    27200.00
04943              -2.20    27200.00
04944              -2.00    26400.00
04945              -1.40    25600.00
04946              -2.00    25600.00
04947              -1.80    25600.00
04948              -2.00    24800.00
04949              -1.80    24800.00
04950              -1.80    24000.00
04951              -1.60    24000.00
04952              -1.20    23200.00
04953              -1.80    22400.00
04954              -1.40    22400.00
04955              -1.20    22400.00
04956              -2.00    21600.00
04957              -1.60    20800.00
04958              -1.80    20000.00
04959              -1.20    19200.00
04960              -1.20    19200.00
04961              -1.60    18400.00
04962              -1.00    17600.00
04963              -1.40    17600.00
04964              -1.40    17600.00
04965              -0.40    16000.00
04966              -1.60    16000.00
04967              -1.80    15200.00
04968              -0.60    14400.00
04969              -0.40    14400.00
04970              -2.20    13600.00
04971              -0.60    12800.00
04972              -0.40    12800.00
04973              -2.00    12000.00
04974              -0.60    12000.00
04975              -0.20    11200.00
04976              -2.20     9600.00
04977              -0.20     9600.00
04978              -0.60     8800.00
04979              -1.40     8800.00
04980               0.20     8000.00
04981              -1.40     7200.00
04982              -0.60     6400.00
04983               0.40     6400.00
04984              -1.80     5600.00
04985              -0.20     4800.00
04986               0.60     4000.00
04987              -2.00     3200.00
04988              -0.60     3200.00
04989               0.40     2400.00
04990              -2.20     1600.00
04991              -0.40     1600.00
04992               1.20      800.00
04993              -1.40        0.00
04994               1.40     -800.00
04995               5.00     -800.00
04996              -2.80    -1600.00
04997              -0.40    -2400.00
04998               2.80    -3200.00
04999              -0.40    -3200.00
05000              -0.20    -4000.00
