Unit:(mV)
                     CH1         CH2
Frequency              ? 299.705 kHz
00001             -25.00    -8000.00
00002              17.60    -8000.00
00003              15.40    -8800.00
00004             -25.00    -8800.00
00005               9.40    -9600.00
00006              25.00   -10400.00
00007             -25.00   -10400.00
00008              11.80   -11200.00
00009              25.00   -12800.00
00010             -25.00   -12800.00
00011              25.00   -13600.00
00012               2.20   -13600.00
00013             -13.20   -14400.00
00014              25.00   -15200.00
00015             -25.00   -15200.00
00016              25.00   -16000.00
00017              14.00   -16800.00
00018             -25.00   -17600.00
00019              21.60   -17600.00
00020              16.20   -17600.00
00021             -25.00   -19200.00
00022               5.80   -19200.00
00023              25.00   -20000.00
00024             -25.00   -20800.00
00025              18.60   -20800.00
00026              15.40   -20800.00
00027             -22.80   -22400.00
00028              17.60   -23200.00
00029              -2.80   -23200.00
00030             -10.60   -23200.00
00031              11.40   -23200.00
00032               3.00   -24800.00
00033              -8.60   -24800.00
00034              15.00   -25600.00
00035              -3.00   -25600.00
00036              -7.60   -26400.00
00037              14.20   -26400.00
00038              -7.80   -27200.00
00039               1.20   -27200.00
00040               8.60   -28000.00
00041              -2.40   -28000.00
00042              -0.20   -28800.00
00043               5.80   -28800.00
00044              -1.00   -29600.00
00045              -0.20   -29600.00
00046               6.60   -29600.00
00047              -1.60   -30400.00
00048               1.40   -30400.00
00049               4.40   -31200.00
00050              -0.80   -30400.00
00051               2.60   -31200.00
00052               3.60   -32000.00
00053              -0.60   -32000.00
00054               3.40   -32000.00
00055               1.80   -32800.00
00056              -0.80   -32800.00
00057               3.60   -32800.00
00058               0.60   -32800.00
00059               2.60   -32800.00
00060               4.00   -33600.00
00061               0.40   -32800.00
00062               1.20   -32800.00
00063               2.00   -33600.00
00064               1.20   -33600.00
00065               1.40   -33600.00
00066               3.80   -33600.00
00067               1.60   -33600.00
00068               1.00   -33600.00
00069               3.00   -33600.00
00070               0.60   -33600.00
00071               2.00   -33600.00
00072               2.20   -33600.00
00073               1.60   -32800.00
00074               2.60   -33600.00
00075               0.60   -33600.00
00076               2.00   -33600.00
00077               3.00   -33600.00
00078               1.20   -33600.00
00079               2.20   -33600.00
00080               2.20   -33600.00
00081               1.20   -33600.00
00082               1.40   -32800.00
00083               2.20   -33600.00
00084               1.60   -33600.00
00085               2.00   -32800.00
00086               2.60   -32800.00
00087               1.40   -32800.00
00088               1.80   -32800.00
00089               2.00   -32800.00
00090               1.20   -32000.00
00091               2.20   -32000.00
00092               2.80   -32000.00
00093               1.40   -32000.00
00094               2.00   -31200.00
00095               1.80   -30400.00
00096               1.40   -30400.00
00097               2.00   -29600.00
00098               2.20   -29600.00
00099               1.80   -29600.00
00100               1.80   -29600.00
00101               1.00   -28800.00
00102               1.40   -28800.00
00103               2.00   -28800.00
00104               2.00   -28000.00
00105               1.80   -27200.00
00106               2.00   -27200.00
00107               1.00   -27200.00
00108               1.40   -26400.00
00109               2.00   -26400.00
00110               1.20   -25600.00
00111               1.60   -24800.00
00112               2.00   -24800.00
00113               1.00   -24000.00
00114               1.40   -24000.00
00115               1.20   -23200.00
00116               1.40   -23200.00
00117               1.80   -23200.00
00118               1.40   -22400.00
00119               1.20   -22400.00
00120               1.00   -20800.00
00121               1.00   -20000.00
00122               1.20   -20000.00
00123               1.20   -19200.00
00124               1.40   -18400.00
00125               1.00   -18400.00
00126               1.20   -17600.00
00127               0.60   -17600.00
00128               1.20   -16800.00
00129               0.60   -16000.00
00130               0.60   -15200.00
00131               1.20   -14400.00
00132               0.60   -14400.00
00133               0.60   -13600.00
00134               1.00   -13600.00
00135               0.20   -12800.00
00136               0.20   -12000.00
00137               0.40   -11200.00
00138               0.20   -11200.00
00139               0.40   -10400.00
00140               0.40    -9600.00
00141               0.20    -9600.00
00142               0.40    -8000.00
00143               0.40    -8000.00
00144               0.40    -7200.00
00145               0.20    -6400.00
00146              -0.20    -6400.00
00147              -0.20    -4800.00
00148              -0.20    -4000.00
00149              -0.20    -4000.00
00150               0.20    -3200.00
00151               0.40    -3200.00
00152              -0.20    -1600.00
00153               0.20    -1600.00
00154               0.00     -800.00
00155              -0.20        0.00
00156               0.40        0.00
00157               0.40      800.00
00158               1.80     1600.00
00159               2.60     2400.00
00160              -2.60     2400.00
00161               0.20     3200.00
00162               1.60     4000.00
00163              -1.20     3200.00
00164               4.60     4800.00
00165              25.00     6400.00
00166               6.00     7200.00
00167             -25.00     8000.00
00168               3.40     8000.00
00169              25.00     8000.00
00170             -25.00     8800.00
00171              21.00    10400.00
00172              25.00    10400.00
00173             -25.00    10400.00
00174              25.00    12000.00
00175              18.80    12000.00
00176             -25.00    12800.00
00177              25.00    12800.00
00178             -25.00    13600.00
00179              25.00    15200.00
00180              25.00    14400.00
00181             -25.00    15200.00
00182              25.00    16000.00
00183             -16.00    16800.00
00184             -25.00    17600.00
00185              25.00    17600.00
00186              -7.00    18400.00
00187             -25.00    19200.00
00188              21.40    19200.00
00189              13.40    20000.00
00190             -25.00    20800.00
00191              25.00    21600.00
00192              -6.60    21600.00
00193             -18.80    22400.00
00194              25.00    22400.00
00195             -24.60    23200.00
00196              -2.20    24000.00
00197               9.80    24000.00
00198              -8.40    24800.00
00199              -5.20    24800.00
00200              15.80    24800.00
00201             -16.20    25600.00
00202              -1.40    26400.00
00203               7.80    27200.00
00204             -18.00    27200.00
00205               8.40    28000.00
00206              -0.60    28000.00
00207              -6.40    28800.00
00208               2.00    28800.00
00209              -1.00    28800.00
00210              -7.00    28800.00
00211              -0.60    30400.00
00212               1.00    30400.00
00213              -7.60    30400.00
00214               1.00    31200.00
00215              -1.20    31200.00
00216              -6.00    31200.00
00217               2.00    32800.00
00218              -2.00    32000.00
00219              -4.80    32800.00
00220               0.40    32800.00
00221              -4.40    32800.00
00222              -3.20    32800.00
00223               0.60    33600.00
00224              -4.80    32800.00
00225              -1.00    32800.00
00226              -0.60    32800.00
00227              -3.80    33600.00
00228              -2.80    33600.00
00229              -3.00    33600.00
00230              -1.80    33600.00
00231              -3.00    33600.00
00232              -1.60    33600.00
00233              -2.80    34400.00
00234              -2.00    34400.00
00235              -1.80    34400.00
00236              -4.20    34400.00
00237              -0.80    34400.00
00238              -3.40    34400.00
00239              -3.00    34400.00
00240              -0.40    34400.00
00241              -3.80    34400.00
00242              -2.60    34400.00
00243              -1.40    34400.00
00244              -2.60    34400.00
00245              -2.20    34400.00
00246              -3.40    33600.00
00247              -2.60    33600.00
00248              -2.60    33600.00
00249              -2.20    33600.00
00250              -2.20    33600.00
00251              -2.60    33600.00
00252              -1.60    32800.00
00253              -3.00    33600.00
00254              -2.80    33600.00
00255              -2.20    32800.00
00256              -3.60    32000.00
00257              -2.20    32800.00
00258              -2.20    32800.00
00259              -2.80    32000.00
00260              -2.80    32800.00
00261              -2.80    31200.00
00262              -2.00    31200.00
00263              -2.20    31200.00
00264              -3.40    30400.00
00265              -2.60    30400.00
00266              -2.60    30400.00
00267              -2.80    30400.00
00268              -2.60    28800.00
00269              -2.20    28800.00
00270              -2.40    28800.00
00271              -2.80    28000.00
00272              -2.00    28000.00
00273              -2.80    27200.00
00274              -2.80    27200.00
00275              -2.00    26400.00
00276              -2.60    26400.00
00277              -2.20    25600.00
00278              -2.40    25600.00
00279              -2.60    24800.00
00280              -2.20    24800.00
00281              -2.20    24000.00
00282              -2.00    24000.00
00283              -2.60    24000.00
00284              -2.20    22400.00
00285              -1.80    22400.00
00286              -2.60    21600.00
00287              -2.00    21600.00
00288              -1.80    20800.00
00289              -2.20    20000.00
00290              -2.00    19200.00
00291              -1.80    19200.00
00292              -2.20    18400.00
00293              -2.20    17600.00
00294              -1.00    17600.00
00295              -1.60    16800.00
00296              -2.20    16000.00
00297              -1.80    15200.00
00298              -1.60    15200.00
00299              -1.40    14400.00
00300              -1.60    14400.00
00301              -2.00    13600.00
00302              -1.20    12800.00
00303              -1.40    12800.00
00304              -1.80    11200.00
00305              -1.40    11200.00
00306              -2.00    10400.00
00307              -1.40    10400.00
00308              -0.60     9600.00
00309              -1.40     8800.00
00310              -1.80     8000.00
00311              -1.00     8000.00
00312              -1.20     6400.00
00313              -1.20     7200.00
00314              -0.60     5600.00
00315              -1.20     4800.00
00316              -0.60     4800.00
00317              -1.00     3200.00
00318              -1.20     3200.00
00319              -1.20     2400.00
00320              -1.00     1600.00
00321              -1.00      800.00
00322              -0.60        0.00
00323              -0.20        0.00
00324              -0.20     -800.00
00325               3.20     -800.00
00326               0.20    -1600.00
00327              -2.20    -3200.00
00328               1.20    -2400.00
00329               1.00    -4000.00
00330              -1.20    -4000.00
00331               3.00    -4000.00
00332              16.40    -5600.00
00333              24.20    -7200.00
00334             -25.00    -7200.00
00335             -25.00    -8000.00
00336              25.00    -8000.00
00337              -6.20    -9600.00
00338             -25.00    -8800.00
00339              25.00   -10400.00
00340              25.00   -10400.00
00341             -25.00   -11200.00
00342              25.00   -11200.00
00343              15.00   -12800.00
00344             -25.00   -12800.00
00345              25.00   -13600.00
00346             -25.00   -13600.00
00347              15.80   -14400.00
00348               6.00   -14400.00
00349             -25.00   -16000.00
00350              25.00   -16000.00
00351             -15.40   -16800.00
00352             -18.60   -17600.00
00353              25.00   -17600.00
00354              -2.80   -19200.00
00355             -25.00   -18400.00
00356              25.00   -20000.00
00357               3.60   -20000.00
00358             -25.00   -20800.00
00359              25.00   -20800.00
00360              -7.60   -21600.00
00361             -10.60   -22400.00
00362              19.40   -22400.00
00363             -12.00   -23200.00
00364              -2.60   -24000.00
00365              13.00   -24000.00
00366              -4.20   -24000.00
00367              -2.20   -25600.00
00368              15.00   -25600.00
00369             -11.40   -26400.00
00370               3.00   -26400.00
00371               9.00   -26400.00
00372             -10.00   -27200.00
00373               7.40   -27200.00
00374               3.60   -27200.00
00375              -2.80   -28800.00
00376               3.40   -28800.00
00377               4.20   -28800.00
00378              -2.80   -29600.00
00379               3.40   -29600.00
00380               3.60   -30400.00
00381              -3.00   -30400.00
00382               4.80   -30400.00
00383               2.20   -31200.00
00384              -1.20   -30400.00
00385               5.00   -31200.00
00386               2.00   -32000.00
00387              -1.00   -32000.00
00388               4.20   -32000.00
00389               0.60   -32800.00
00390               0.20   -32800.00
00391               3.40   -32800.00
00392               1.00   -32800.00
00393               3.00   -32800.00
00394               2.20   -32800.00
00395               0.60   -33600.00
00396               1.80   -33600.00
00397               2.20   -33600.00
00398               1.40   -33600.00
00399               1.80   -33600.00
00400               2.60   -33600.00
00401               1.20   -33600.00
00402               2.80   -33600.00
00403               1.60   -33600.00
00404               1.40   -33600.00
00405               2.20   -33600.00
00406               1.40   -33600.00
00407               2.60   -33600.00
00408               2.80   -33600.00
00409               0.20   -33600.00
00410               2.00   -33600.00
00411               3.40   -33600.00
00412               1.20   -33600.00
00413               2.00   -33600.00
00414               3.00   -33600.00
00415               0.80   -32800.00
00416               1.80   -33600.00
00417               2.60   -32800.00
00418               1.80   -32800.00
00419               2.80   -32800.00
00420               2.00   -32800.00
00421               1.40   -32800.00
00422               2.60   -32800.00
00423               1.20   -32000.00
00424               1.80   -32000.00
00425               3.40   -32000.00
00426               0.60   -32000.00
00427               1.40   -32000.00
00428               3.00   -31200.00
00429               1.20   -30400.00
00430               1.80   -30400.00
00431               2.80   -30400.00
00432               1.60   -29600.00
00433               1.40   -30400.00
00434               2.00   -29600.00
00435               1.20   -28800.00
00436               1.40   -28800.00
00437               2.00   -28000.00
00438               2.00   -28000.00
00439               1.80   -27200.00
00440               2.20   -27200.00
00441               0.60   -27200.00
00442               1.40   -26400.00
00443               2.60   -26400.00
00444               0.60   -25600.00
00445               1.80   -25600.00
00446               2.00   -24000.00
00447               0.80   -24000.00
00448               1.80   -24000.00
00449               1.40   -24000.00
00450               1.60   -22400.00
00451               1.40   -22400.00
00452               1.00   -22400.00
00453               1.20   -21600.00
00454               0.60   -20800.00
00455               0.60   -20800.00
00456               1.00   -20000.00
00457               1.40   -19200.00
00458               1.00   -18400.00
00459               1.00   -17600.00
00460               1.20   -16800.00
00461               0.40   -16800.00
00462               0.40   -16800.00
00463               1.00   -16000.00
00464               0.40   -16000.00
00465               1.20   -14400.00
00466               1.00   -14400.00
00467               0.80   -13600.00
00468               0.60   -12800.00
00469               0.40   -12800.00
00470               0.40   -12800.00
00471               0.60   -11200.00
00472               0.40   -11200.00
00473               0.40    -9600.00
00474               0.40    -9600.00
00475               0.60    -8000.00
00476               0.40    -8000.00
00477               0.40    -7200.00
00478               0.60    -7200.00
00479               0.20    -6400.00
00480               0.40    -5600.00
00481              -0.20    -4800.00
00482              -0.40    -4000.00
00483               0.20    -4000.00
00484               0.20    -3200.00
00485              -0.20    -1600.00
00486               0.40    -2400.00
00487              -0.20    -1600.00
00488              -0.20     -800.00
00489               0.40        0.00
00490               0.00      800.00
00491               0.60     1600.00
00492               3.40     1600.00
00493               0.20     2400.00
00494              -2.00     2400.00
00495               1.20     3200.00
00496               0.60     4000.00
00497              -0.60     4800.00
00498              10.60     5600.00
00499              25.00     6400.00
00500             -24.40     8000.00
00501             -25.00     8000.00
00502              22.60     8800.00
00503               5.80     8800.00
00504             -25.00     8800.00
00505              25.00    10400.00
00506               7.20    10400.00
00507             -25.00    11200.00
00508              25.00    12000.00
00509             -25.00    12000.00
00510              -7.60    12800.00
00511              25.00    13600.00
00512             -25.00    13600.00
00513              25.00    15200.00
00514             -25.00    14400.00
00515             -25.00    16000.00
00516              25.00    16000.00
00517             -25.00    16800.00
00518               4.20    17600.00
00519              25.00    18400.00
00520             -23.60    18400.00
00521             -22.00    19200.00
00522              25.00    19200.00
00523             -16.60    20800.00
00524             -21.60    20800.00
00525              25.00    21600.00
00526             -25.00    21600.00
00527               6.80    22400.00
00528              10.60    22400.00
00529             -25.00    23200.00
00530               9.40    24000.00
00531               3.80    24800.00
00532             -12.40    24800.00
00533               5.00    25600.00
00534               7.80    25600.00
00535             -21.80    25600.00
00536              12.20    27200.00
00537              -3.80    27200.00
00538             -11.80    27200.00
00539              10.00    27200.00
00540              -6.80    28000.00
00541              -3.00    28800.00
00542               1.40    28800.00
00543              -2.00    28800.00
00544              -6.00    29600.00
00545               2.60    30400.00
00546              -2.80    29600.00
00547              -6.00    30400.00
00548               2.20    30400.00
00549              -4.60    31200.00
00550              -3.00    31200.00
00551               2.20    31200.00
00552              -4.60    32000.00
00553              -2.60    32800.00
00554               0.20    32800.00
00555              -5.80    32800.00
00556              -1.00    33600.00
00557              -1.20    32800.00
00558              -4.20    33600.00
00559               0.40    33600.00
00560              -2.80    33600.00
00561              -3.00    33600.00
00562              -2.80    33600.00
00563              -2.80    33600.00
00564              -2.20    33600.00
00565              -2.40    34400.00
00566              -1.40    34400.00
00567              -4.20    34400.00
00568              -0.60    34400.00
00569              -2.60    34400.00
00570              -3.80    33600.00
00571              -0.60    34400.00
00572              -4.20    34400.00
00573              -1.40    34400.00
00574              -1.40    34400.00
00575              -4.20    34400.00
00576              -1.40    34400.00
00577              -2.60    34400.00
00578              -2.60    34400.00
00579              -2.60    33600.00
00580              -3.00    34400.00
00581              -2.80    33600.00
00582              -2.60    33600.00
00583              -2.00    33600.00
00584              -3.00    33600.00
00585              -2.80    33600.00
00586              -2.20    33600.00
00587              -3.20    33600.00
00588              -2.20    32800.00
00589              -3.00    32800.00
00590              -3.00    32000.00
00591              -1.80    32800.00
00592              -2.80    32000.00
00593              -2.80    32800.00
00594              -2.60    31200.00
00595              -3.00    31200.00
00596              -2.20    31200.00
00597              -2.60    31200.00
00598              -2.80    31200.00
00599              -2.80    30400.00
00600              -2.00    30400.00
00601              -2.60    29600.00
00602              -2.80    28800.00
00603              -2.00    28800.00
00604              -2.80    28000.00
00605              -2.80    28000.00
00606              -1.60    28000.00
00607              -3.00    27200.00
00608              -2.20    27200.00
00609              -2.00    26400.00
00610              -2.60    25600.00
00611              -2.00    25600.00
00612              -2.60    25600.00
00613              -2.60    24800.00
00614              -2.20    24800.00
00615              -2.20    24000.00
00616              -2.00    24000.00
00617              -2.20    22400.00
00618              -1.80    22400.00
00619              -2.00    22400.00
00620              -2.40    22400.00
00621              -1.80    21600.00
00622              -2.60    20800.00
00623              -1.40    20800.00
00624              -1.60    20000.00
00625              -2.60    18400.00
00626              -1.80    18400.00
00627              -2.20    17600.00
00628              -1.80    17600.00
00629              -1.40    16000.00
00630              -2.20    16000.00
00631              -2.00    16000.00
00632              -1.20    15200.00
00633              -1.80    15200.00
00634              -1.60    14400.00
00635              -1.60    13600.00
00636              -1.20    12800.00
00637              -1.20    12000.00
00638              -1.20    11200.00
00639              -2.00    11200.00
00640              -1.00    10400.00
00641              -1.40     9600.00
00642              -2.00     8800.00
00643              -1.00     8800.00
00644              -1.20     8000.00
00645              -1.40     8000.00
00646              -1.00     7200.00
00647              -1.20     6400.00
00648              -1.20     5600.00
00649              -1.40     4800.00
00650              -0.60     4000.00
00651              -0.60     3200.00
00652              -1.80     2400.00
00653              -1.20     2400.00
00654              -0.60     1600.00
00655              -1.00      800.00
00656              -0.60        0.00
00657              -0.20        0.00
00658               0.40     -800.00
00659               3.40    -1600.00
00660              -1.20    -1600.00
00661              -1.00    -2400.00
00662               1.20    -2400.00
00663               0.60    -3200.00
00664              -1.20    -4000.00
00665               6.20    -4000.00
00666              23.80    -6400.00
00667               7.20    -7200.00
00668             -25.00    -8000.00
00669              -2.60    -8000.00
00670              25.00    -9600.00
00671             -25.00    -8800.00
00672             -22.60    -8800.00
00673              25.00   -10400.00
00674             -18.20   -10400.00
00675             -25.00   -11200.00
00676              25.00   -12000.00
00677             -25.00   -12800.00
00678             -10.40   -13600.00
00679              25.00   -13600.00
00680             -25.00   -14400.00
00681              25.00   -16000.00
00682             -25.00   -16000.00
00683              -1.40   -16000.00
00684              25.00   -16000.00
00685             -25.00   -16800.00
00686               3.00   -16800.00
00687              25.00   -17600.00
00688             -19.40   -18400.00
00689             -13.20   -19200.00
00690              25.00   -19200.00
00691             -21.80   -20800.00
00692              -5.20   -20800.00
00693              25.00   -21600.00
00694             -22.80   -22400.00
00695               6.20   -22400.00
00696              10.40   -23200.00
00697             -14.80   -23200.00
00698               6.00   -24000.00
00699              10.00   -24000.00
00700              -9.20   -24800.00
00701               7.40   -25600.00
00702               7.60   -25600.00
00703             -13.20   -25600.00
00704              11.60   -26400.00
00705               0.20   -26400.00
00706              -5.80   -27200.00
00707               9.60   -27200.00
00708              -0.60   -28800.00
00709              -2.00   -28800.00
00710               4.60   -28800.00
00711               1.80   -28800.00
00712              -1.60   -29600.00
00713               5.80   -29600.00
00714               0.60   -30400.00
00715              -1.40   -30400.00
00716               5.20   -31200.00
00717              -0.40   -31200.00
00718               0.60   -31200.00
00719               4.80   -32000.00
00720              -0.20   -32000.00
00721               0.60   -32000.00
00722               3.60   -32000.00
00723              -0.60   -32000.00
00724               2.00   -32000.00
00725               2.80   -32800.00
00726               1.20   -32800.00
00727               3.00   -32800.00
00728               1.20   -33600.00
00729               1.00   -32800.00
00730               1.80   -33600.00
00731               2.00   -33600.00
00732               1.40   -33600.00
00733               2.60   -33600.00
00734               2.00   -33600.00
00735               0.60   -33600.00
00736               3.60   -33600.00
00737               1.20   -33600.00
00738               1.40   -33600.00
00739               3.40   -33600.00
00740               1.00   -33600.00
00741               2.60   -33600.00
00742               2.60   -33600.00
00743               0.60   -33600.00
00744               2.20   -33600.00
00745               2.60   -33600.00
00746               1.20   -33600.00
00747               2.00   -33600.00
00748               2.20   -33600.00
00749               1.40   -33600.00
00750               2.40   -33600.00
00751               2.60   -32800.00
00752               1.40   -32800.00
00753               2.60   -32800.00
00754               2.20   -32800.00
00755               1.40   -32800.00
00756               2.80   -32800.00
00757               1.20   -32000.00
00758               2.00   -32000.00
00759               3.20   -32000.00
00760               1.00   -32000.00
00761               2.00   -30400.00
00762               2.60   -31200.00
00763               0.40   -30400.00
00764               1.80   -30400.00
00765               3.00   -30400.00
00766               1.20   -29600.00
00767               1.80   -29600.00
00768               2.00   -29600.00
00769               1.20   -28800.00
00770               2.00   -28800.00
00771               2.60   -28000.00
00772               1.80   -27200.00
00773               2.00   -27200.00
00774               1.20   -27200.00
00775               1.00   -26400.00
00776               2.20   -26400.00
00777               1.40   -25600.00
00778               1.20   -25600.00
00779               2.00   -24800.00
00780               1.00   -24000.00
00781               1.00   -24000.00
00782               1.40   -24000.00
00783               1.20   -23200.00
00784               1.40   -22400.00
00785               1.80   -22400.00
00786               0.80   -22400.00
00787               0.60   -20800.00
00788               1.20   -20800.00
00789               0.80   -20000.00
00790               1.20   -18400.00
00791               1.40   -19200.00
00792               1.00   -18400.00
00793               1.00   -17600.00
00794               1.00   -17600.00
00795               0.60   -16800.00
00796               1.00   -16000.00
00797               1.00   -16000.00
00798               0.40   -15200.00
00799               1.00   -14400.00
00800               0.60   -14400.00
00801               0.60   -13600.00
00802               0.40   -12800.00
00803               1.00   -12800.00
00804               1.00   -12000.00
00805               0.40   -11200.00
00806               0.40   -10400.00
00807               0.20    -9600.00
00808               0.20    -9600.00
00809               0.60    -8800.00
00810               0.40    -8800.00
00811               0.40    -7200.00
00812               0.20    -7200.00
00813               0.20    -6400.00
00814               0.20    -4800.00
00815               0.00    -4800.00
00816               0.40    -4000.00
00817               0.40    -3200.00
00818               0.40    -3200.00
00819               0.00    -1600.00
00820              -0.20    -1600.00
00821              -0.20     -800.00
00822              -0.20     -800.00
00823               0.40        0.00
00824               0.20      800.00
00825               1.00     1600.00
00826               3.60     1600.00
00827              -2.00     2400.00
00828              -1.00     3200.00
00829               1.80     3200.00
00830              -0.20     3200.00
00831               0.80     4800.00
00832              18.00     5600.00
00833              25.00     7200.00
00834             -25.00     8000.00
00835             -23.20     8000.00
00836              25.00     8800.00
00837             -21.40     8800.00
00838             -20.40     9600.00
00839              25.00     9600.00
00840             -25.00    10400.00
00841              -0.60    11200.00
00842              25.00    12000.00
00843             -25.00    12000.00
00844              25.00    13600.00
00845              -6.00    12800.00
00846             -25.00    14400.00
00847              25.00    14400.00
00848             -25.00    16000.00
00849              25.00    16000.00
00850              25.00    16000.00
00851             -25.00    16800.00
00852              25.00    17600.00
00853              15.40    17600.00
00854             -25.00    18400.00
00855              -2.20    19200.00
00856              25.00    19200.00
00857             -25.00    20800.00
00858              11.60    20800.00
00859              24.80    21600.00
00860             -25.00    22400.00
00861              25.00    22400.00
00862             -11.00    24000.00
00863             -15.00    24000.00
00864              12.20    24000.00
00865              -2.80    24800.00
00866             -10.20    24800.00
00867              14.00    25600.00
00868              -5.60    25600.00
00869             -14.60    25600.00
00870              15.60    26400.00
00871             -15.40    27200.00
00872              -0.60    28000.00
00873               6.80    28000.00
00874              -9.00    28800.00
00875              -0.40    28800.00
00876               0.40    28800.00
00877              -4.40    28800.00
00878              -3.80    30400.00
00879               3.60    30400.00
00880              -6.00    30400.00
00881              -2.80    30400.00
00882               1.20    31200.00
00883              -6.00    31200.00
00884              -0.20    32000.00
00885               0.40    32000.00
00886              -5.40    32000.00
00887              -0.20    32800.00
00888              -2.00    32000.00
00889              -5.20    32800.00
00890               0.20    32800.00
00891              -3.60    33600.00
00892              -2.20    33600.00
00893               0.20    33600.00
00894              -3.60    33600.00
00895              -2.60    33600.00
00896              -2.80    33600.00
00897              -2.20    33600.00
00898              -2.60    33600.00
00899              -1.80    33600.00
00900              -2.00    33600.00
00901              -3.60    34400.00
00902              -0.80    34400.00
00903              -3.80    34400.00
00904              -2.40    34400.00
00905              -2.00    34400.00
00906              -4.20    34400.00
00907              -0.40    34400.00
00908              -3.00    34400.00
00909              -3.60    33600.00
00910              -1.40    33600.00
00911              -3.00    35200.00
00912              -2.40    34400.00
00913              -2.60    34400.00
00914              -2.80    34400.00
00915              -3.00    34400.00
00916              -2.20    33600.00
00917              -2.20    33600.00
00918              -3.60    33600.00
00919              -2.20    33600.00
00920              -2.60    33600.00
00921              -2.80    33600.00
00922              -2.00    33600.00
00923              -3.60    32800.00
00924              -2.20    32000.00
00925              -2.00    32000.00
00926              -3.40    32800.00
00927              -2.20    32000.00
00928              -2.20    32000.00
00929              -3.00    31200.00
00930              -2.20    31200.00
00931              -2.80    31200.00
00932              -2.60    30400.00
00933              -2.80    30400.00
00934              -2.60    30400.00
00935              -2.60    29600.00
00936              -2.80    28800.00
00937              -2.60    28800.00
00938              -2.60    28000.00
00939              -1.80    28000.00
00940              -2.20    27200.00
00941              -2.60    27200.00
00942              -1.40    27200.00
00943              -2.60    26400.00
00944              -2.20    26400.00
00945              -2.20    25600.00
00946              -3.00    24800.00
00947              -2.20    24800.00
00948              -2.00    24800.00
00949              -2.00    24000.00
00950              -2.00    24000.00
00951              -2.00    22400.00
00952              -1.80    22400.00
00953              -2.20    22400.00
00954              -2.20    21600.00
00955              -2.20    20800.00
00956              -2.00    20000.00
00957              -1.40    20000.00
00958              -1.80    19200.00
00959              -2.00    19200.00
00960              -1.80    18400.00
00961              -2.00    17600.00
00962              -1.60    17600.00
00963              -2.20    16000.00
00964              -1.80    16000.00
00965              -1.80    15200.00
00966              -1.40    15200.00
00967              -1.60    14400.00
00968              -1.20    13600.00
00969              -1.80    12800.00
00970              -1.80    12000.00
00971              -1.60    12000.00
00972              -1.40    11200.00
00973              -2.20    11200.00
00974              -1.00     9600.00
00975              -1.40     9600.00
00976              -1.40     8800.00
00977              -1.40     8800.00
00978              -1.40     8000.00
00979              -1.00     6400.00
00980              -0.80     5600.00
00981              -1.80     5600.00
00982              -1.00     4800.00
00983              -1.20     4800.00
00984              -1.20     4000.00
00985              -1.00     3200.00
00986              -1.00     2400.00
00987              -2.00     1600.00
00988              -0.40     1600.00
00989              -0.60     1600.00
00990              -1.00        0.00
00991               0.00     -800.00
00992               1.80     -800.00
00993               2.00    -1600.00
00994              -2.20    -2400.00
00995               0.60    -2400.00
00996               0.80    -3200.00
00997              -0.20    -4000.00
00998               1.60    -4000.00
00999              10.00    -5600.00
01000              25.00    -6400.00
01001             -17.40    -7200.00
01002             -25.00    -8000.00
01003              18.00    -8000.00
01004              15.40    -8000.00
01005             -25.00    -8800.00
01006              10.60    -9600.00
01007              25.00   -10400.00
01008             -25.00   -10400.00
01009              13.20   -12000.00
01010              25.00   -12800.00
01011             -25.00   -12000.00
01012              25.00   -13600.00
01013               1.60   -13600.00
01014             -12.40   -14400.00
01015              25.00   -14400.00
01016             -25.00   -15200.00
01017              25.00   -16000.00
01018              12.60   -16800.00
01019             -25.00   -16800.00
01020              22.20   -17600.00
01021              15.20   -17600.00
01022             -25.00   -19200.00
01023               7.00   -19200.00
01024              25.00   -20000.00
01025             -25.00   -20000.00
01026              19.80   -20800.00
01027              14.20   -21600.00
01028             -23.00   -22400.00
01029              18.20   -22400.00
01030              -2.20   -22400.00
01031             -11.00   -23200.00
01032              11.40   -24000.00
01033               3.60   -24000.00
01034              -9.00   -24800.00
01035              15.00   -25600.00
01036              -3.00   -25600.00
01037              -7.60   -26400.00
01038              13.20   -27200.00
01039              -7.60   -27200.00
01040               1.80   -27200.00
01041               7.40   -28000.00
01042              -3.00   -28800.00
01043               1.80   -28800.00
01044               4.20   -28800.00
01045              -2.00   -28800.00
01046               1.60   -28800.00
01047               5.20   -29600.00
01048              -3.40   -29600.00
01049               3.00   -30400.00
01050               4.60   -30400.00
01051              -2.20   -30400.00
01052               3.40   -31200.00
01053               4.00   -32000.00
01054              -1.40   -32000.00
01055               2.80   -32000.00
01056               2.00   -32000.00
01057              -0.20   -32800.00
01058               2.60   -32800.00
01059               1.80   -32800.00
01060               3.40   -32800.00
01061               2.00   -33600.00
01062               0.40   -33600.00
01063               3.00   -33600.00
01064               0.80   -33600.00
01065               1.20   -33600.00
01066               3.00   -33600.00
01067               2.20   -33600.00
01068               1.20   -33600.00
01069               3.40   -33600.00
01070               2.20   -33600.00
01071              -0.20   -33600.00
01072               2.60   -33600.00
01073               2.20   -33600.00
01074               1.00   -33600.00
01075               3.80   -33600.00
01076               1.40   -33600.00
01077               1.40   -33600.00
01078               2.60   -33600.00
01079               1.20   -33600.00
01080               2.60   -33600.00
01081               2.00   -33600.00
01082               2.00   -32800.00
01083               2.60   -32800.00
01084               1.40   -33600.00
01085               2.20   -32800.00
01086               2.80   -32800.00
01087               2.00   -32800.00
01088               1.80   -32800.00
01089               2.60   -32800.00
01090               1.00   -32000.00
01091               1.40   -32000.00
01092               3.40   -32000.00
01093               1.80   -32000.00
01094               1.80   -32000.00
01095               2.60   -31200.00
01096               1.60   -30400.00
01097               1.40   -30400.00
01098               2.20   -29600.00
01099               1.80   -30400.00
01100               1.80   -29600.00
01101               2.20   -29600.00
01102               1.40   -28800.00
01103               1.60   -28800.00
01104               1.40   -28000.00
01105               1.60   -28000.00
01106               1.40   -27200.00
01107               1.60   -27200.00
01108               1.40   -27200.00
01109               1.20   -26400.00
01110               1.80   -26400.00
01111               2.00   -25600.00
01112               1.60   -24800.00
01113               1.20   -24800.00
01114               1.40   -24000.00
01115               1.20   -23200.00
01116               1.00   -24000.00
01117               1.20   -23200.00
01118               1.20   -22400.00
01119               1.40   -22400.00
01120               1.40   -21600.00
01121               1.00   -20800.00
01122               1.20   -20000.00
01123               0.80   -19200.00
01124               1.20   -18400.00
01125               1.60   -18400.00
01126               0.80   -17600.00
01127               1.20   -17600.00
01128               1.20   -16800.00
01129               0.40   -16800.00
01130               1.20   -16000.00
01131               1.00   -16000.00
01132               0.40   -14400.00
01133               1.20   -14400.00
01134               0.60   -14400.00
01135               0.40   -12800.00
01136               0.40   -12800.00
01137               0.40   -11200.00
01138               0.60   -11200.00
01139               0.40   -10400.00
01140               0.80   -10400.00
01141               0.60   -10400.00
01142               0.60    -9600.00
01143               0.60    -8000.00
01144               0.40    -8000.00
01145               0.40    -7200.00
01146              -0.20    -6400.00
01147               0.20    -6400.00
01148               1.00    -4800.00
01149               0.00    -4800.00
01150               0.40    -4000.00
01151               1.00    -3200.00
01152              -0.60    -2400.00
01153               0.00    -1600.00
01154               0.20    -1600.00
01155              -0.40    -1600.00
01156               0.60        0.00
01157               0.40        0.00
01158               0.20      800.00
01159               2.20     1600.00
01160               2.60     1600.00
01161              -2.20     2400.00
01162               0.40     3200.00
01163               1.40     3200.00
01164              -1.20     4800.00
01165               4.80     4800.00
01166              25.00     6400.00
01167               5.00     8000.00
01168             -25.00     8000.00
01169               4.20     8000.00
01170              24.60     8800.00
01171             -25.00     8800.00
01172              21.80    10400.00
01173              25.00     9600.00
01174             -25.00    10400.00
01175              25.00    12000.00
01176              17.00    12000.00
01177             -25.00    12000.00
01178              25.00    12800.00
01179             -25.00    13600.00
01180              25.00    14400.00
01181              25.00    14400.00
01182             -25.00    15200.00
01183              25.00    16000.00
01184             -17.80    17600.00
01185             -25.00    17600.00
01186              25.00    17600.00
01187              -7.00    18400.00
01188             -25.00    19200.00
01189              21.20    19200.00
01190              13.00    20000.00
01191             -25.00    20800.00
01192              25.00    21600.00
01193              -7.80    21600.00
01194             -17.20    22400.00
01195              25.00    22400.00
01196             -24.40    23200.00
01197              -0.60    24000.00
01198               8.60    24800.00
01199              -8.60    24800.00
01200              -4.20    24800.00
01201              15.60    25600.00
01202             -17.20    25600.00
01203              -0.60    26400.00
01204               8.40    27200.00
01205             -18.00    27200.00
01206               8.20    27200.00
01207              -0.60    28000.00
01208              -6.20    28000.00
01209               1.40    28800.00
01210              -0.60    28800.00
01211              -6.60    29600.00
01212              -0.40    29600.00
01213               1.20    30400.00
01214              -7.60    30400.00
01215               1.00    31200.00
01216              -1.20    31200.00
01217              -5.60    31200.00
01218               2.20    31200.00
01219              -2.20    32000.00
01220              -4.80    32800.00
01221               1.00    32000.00
01222              -3.80    32800.00
01223              -3.40    33600.00
01224               0.60    33600.00
01225              -4.40    32800.00
01226              -0.60    33600.00
01227              -1.20    33600.00
01228              -4.20    33600.00
01229              -2.20    34400.00
01230              -2.80    33600.00
01231              -2.20    34400.00
01232              -2.20    33600.00
01233              -1.20    34400.00
01234              -4.20    33600.00
01235              -2.20    34400.00
01236              -1.20    34400.00
01237              -5.00    34400.00
01238              -1.20    34400.00
01239              -3.80    34400.00
01240              -3.40    34400.00
01241              -0.40    34400.00
01242              -4.20    34400.00
01243              -1.80    34400.00
01244              -1.80    34400.00
01245              -3.80    34400.00
01246              -2.20    34400.00
01247              -3.00    33600.00
01248              -3.00    34400.00
01249              -2.20    33600.00
01250              -1.80    33600.00
01251              -2.80    33600.00
01252              -3.00    33600.00
01253              -2.00    33600.00
01254              -3.40    33600.00
01255              -2.60    32800.00
01256              -2.20    32800.00
01257              -3.20    32800.00
01258              -1.80    32000.00
01259              -2.00    32800.00
01260              -2.80    32800.00
01261              -2.20    32000.00
01262              -2.80    31200.00
01263              -2.60    31200.00
01264              -2.60    31200.00
01265              -2.80    31200.00
01266              -2.80    30400.00
01267              -2.20    30400.00
01268              -2.20    29600.00
01269              -2.20    28800.00
01270              -2.20    28800.00
01271              -2.20    28800.00
01272              -2.40    28800.00
01273              -2.00    28000.00
01274              -2.80    27200.00
01275              -2.60    27200.00
01276              -1.60    27200.00
01277              -2.40    26400.00
01278              -1.40    25600.00
01279              -2.40    25600.00
01280              -2.20    24800.00
01281              -1.80    24800.00
01282              -2.20    24000.00
01283              -1.80    24000.00
01284              -2.20    24000.00
01285              -2.20    23200.00
01286              -1.80    22400.00
01287              -2.20    21600.00
01288              -2.20    21600.00
01289              -2.00    20800.00
01290              -2.00    20000.00
01291              -1.80    19200.00
01292              -2.00    19200.00
01293              -1.40    18400.00
01294              -2.00    18400.00
01295              -1.80    17600.00
01296              -1.60    16800.00
01297              -2.00    16800.00
01298              -1.80    15200.00
01299              -1.40    15200.00
01300              -1.60    14400.00
01301              -1.80    14400.00
01302              -2.00    13600.00
01303              -1.40    12800.00
01304              -1.20    12800.00
01305              -1.80    11200.00
01306              -1.80    11200.00
01307              -1.60    11200.00
01308              -1.20     9600.00
01309              -1.60     9600.00
01310              -1.20     8800.00
01311              -1.20     8000.00
01312              -1.60     7200.00
01313              -1.20     6400.00
01314              -1.00     6400.00
01315              -1.20     5600.00
01316              -1.20     4800.00
01317              -1.20     4800.00
01318              -1.00     3200.00
01319              -1.00     3200.00
01320              -1.40     3200.00
01321              -1.00     1600.00
01322              -0.60     1600.00
01323              -0.80        0.00
01324               0.00        0.00
01325               0.40     -800.00
01326               3.00     -800.00
01327               0.40    -1600.00
01328              -1.80    -1600.00
01329               1.20    -3200.00
01330               1.00    -3200.00
01331              -1.00    -4000.00
01332               3.40    -4800.00
01333              16.60    -5600.00
01334              23.60    -7200.00
01335             -25.00    -8000.00
01336             -25.00    -8000.00
01337              25.00    -8000.00
01338              -6.20    -8800.00
01339             -25.00    -8800.00
01340              25.00    -9600.00
01341              25.00   -11200.00
01342             -25.00   -10400.00
01343              25.00   -12000.00
01344              13.00   -12800.00
01345             -25.00   -12800.00
01346              25.00   -13600.00
01347             -25.00   -13600.00
01348              17.00   -15200.00
01349               6.40   -15200.00
01350             -25.00   -16000.00
01351              25.00   -16800.00
01352             -14.20   -16800.00
01353             -19.00   -16800.00
01354              25.00   -17600.00
01355              -0.60   -18400.00
01356             -25.00   -19200.00
01357              25.00   -19200.00
01358               4.20   -20000.00
01359             -25.00   -20800.00
01360              25.00   -20800.00
01361              -7.00   -21600.00
01362             -10.20   -22400.00
01363              18.80   -23200.00
01364             -13.00   -23200.00
01365              -2.00   -24000.00
01366              12.60   -24000.00
01367              -5.20   -24000.00
01368              -1.20   -25600.00
01369              14.00   -25600.00
01370             -12.40   -25600.00
01371               4.60   -26400.00
01372               8.40   -27200.00
01373             -10.40   -27200.00
01374               7.80   -27200.00
01375               2.60   -28000.00
01376              -3.00   -28800.00
01377               4.20   -28800.00
01378               3.60   -29600.00
01379              -2.40   -28800.00
01380               3.80   -29600.00
01381               2.20   -29600.00
01382              -2.80   -30400.00
01383               4.40   -30400.00
01384               1.20   -30400.00
01385              -0.20   -31200.00
01386               5.00   -32000.00
01387               1.20   -32000.00
01388              -0.20   -32800.00
01389               4.20   -32000.00
01390               0.20   -32800.00
01391               1.20   -32800.00
01392               3.60   -32800.00
01393               0.20   -33600.00
01394               3.40   -32800.00
01395               2.00   -33600.00
01396               0.40   -33600.00
01397               2.60   -33600.00
01398               2.20   -33600.00
01399               1.20   -33600.00
01400               2.20   -33600.00
01401               2.60   -33600.00
01402               0.60   -33600.00
01403               3.60   -33600.00
01404               2.20   -33600.00
01405               0.80   -34400.00
01406               3.60   -33600.00
01407               1.00   -33600.00
01408               1.40   -33600.00
01409               3.40   -33600.00
01410               0.40   -33600.00
01411               2.60   -33600.00
01412               3.00   -33600.00
01413               1.40   -33600.00
01414               2.20   -33600.00
01415               2.00   -33600.00
01416               1.40   -33600.00
01417               2.20   -32800.00
01418               2.60   -33600.00
01419               1.40   -32800.00
01420               2.60   -32800.00
01421               2.60   -32800.00
01422               1.00   -32800.00
01423               2.80   -32800.00
01424               2.20   -32000.00
01425               1.20   -32000.00
01426               3.00   -32000.00
01427               2.00   -32000.00
01428               1.00   -32000.00
01429               2.60   -31200.00
01430               2.00   -31200.00
01431               1.40   -30400.00
01432               2.20   -30400.00
01433               1.80   -29600.00
01434               1.20   -29600.00
01435               2.00   -29600.00
01436               1.20   -29600.00
01437               1.40   -28800.00
01438               1.80   -28800.00
01439               1.40   -28000.00
01440               1.80   -27200.00
01441               1.80   -27200.00
01442               0.80   -26400.00
01443               2.00   -26400.00
01444               2.00   -26400.00
01445               1.00   -25600.00
01446               2.00   -25600.00
01447               1.80   -24800.00
01448               0.80   -24000.00
01449               1.80   -24000.00
01450               1.20   -23200.00
01451               1.20   -23200.00
01452               1.60   -22400.00
01453               1.80   -22400.00
01454               1.20   -21600.00
01455               1.00   -20800.00
01456               1.20   -20000.00
01457               1.00   -18400.00
01458               1.60   -18400.00
01459               1.40   -18400.00
01460               0.60   -17600.00
01461               1.20   -17600.00
01462               1.00   -16800.00
01463               1.00   -16800.00
01464               1.20   -16000.00
01465               0.60   -15200.00
01466               1.00   -14400.00
01467               1.20   -14400.00
01468               0.60   -13600.00
01469               0.40   -12800.00
01470               0.80   -12800.00
01471               1.00   -12800.00
01472               0.60   -11200.00
01473               0.60   -10400.00
01474               0.40   -10400.00
01475               0.40    -9600.00
01476               0.40    -9600.00
01477               0.60    -8000.00
01478               0.80    -8000.00
01479               0.40    -7200.00
01480               0.40    -6400.00
01481               1.00    -5600.00
01482               0.20    -4800.00
01483               0.00    -4800.00
01484               0.60    -4000.00
01485               0.20    -3200.00
01486              -0.20    -1600.00
01487               0.20    -1600.00
01488              -0.20     -800.00
01489              -0.40     -800.00
01490               0.20        0.00
01491               0.20        0.00
01492               0.20      800.00
01493               3.40     1600.00
01494               0.20     2400.00
01495              -2.20     2400.00
01496               1.20     3200.00
01497               0.40     3200.00
01498              -0.80     4800.00
01499              10.20     5600.00
01500              25.00     7200.00
01501             -25.00     8000.00
01502             -25.00     8000.00
01503              23.40     8000.00
01504               4.20     8800.00
01505             -25.00     8800.00
01506              25.00    10400.00
01507               4.60    11200.00
01508             -25.00    11200.00
01509              25.00    12000.00
01510             -25.00    12000.00
01511              -5.00    13600.00
01512              25.00    13600.00
01513             -25.00    13600.00
01514              25.00    14400.00
01515             -25.00    15200.00
01516             -25.00    16000.00
01517              25.00    16000.00
01518             -25.00    17600.00
01519               5.80    17600.00
01520              25.00    18400.00
01521             -23.80    18400.00
01522             -21.20    19200.00
01523              25.00    19200.00
01524             -18.00    19200.00
01525             -20.40    20800.00
01526              25.00    21600.00
01527             -25.00    22400.00
01528               8.40    22400.00
01529               9.80    22400.00
01530             -24.60    23200.00
01531              10.00    24000.00
01532               3.60    24000.00
01533             -12.20    24800.00
01534               5.80    25600.00
01535               7.80    25600.00
01536             -21.40    25600.00
01537              12.40    26400.00
01538              -3.60    27200.00
01539             -11.60    27200.00
01540              10.20    28000.00
01541              -6.80    28000.00
01542              -3.40    28000.00
01543               1.40    28800.00
01544              -2.00    28800.00
01545              -6.00    28800.00
01546               2.60    30400.00
01547              -2.80    30400.00
01548              -6.00    31200.00
01549               2.20    31200.00
01550              -4.40    31200.00
01551              -3.00    32000.00
01552               2.20    32000.00
01553              -5.00    32800.00
01554              -2.80    32800.00
01555               0.20    32000.00
01556              -5.80    32800.00
01557              -1.20    33600.00
01558              -1.20    32800.00
01559              -4.40    33600.00
01560               0.20    33600.00
01561              -2.80    33600.00
01562              -3.40    33600.00
01563              -2.80    33600.00
01564              -2.80    33600.00
01565              -2.80    33600.00
01566              -2.60    33600.00
01567              -1.40    33600.00
01568              -4.40    34400.00
01569              -1.00    34400.00
01570              -2.80    34400.00
01571              -4.20    33600.00
01572              -1.00    34400.00
01573              -4.20    34400.00
01574              -1.80    34400.00
01575              -1.80    34400.00
01576              -4.20    34400.00
01577              -1.60    34400.00
01578              -2.80    34400.00
01579              -3.00    34400.00
01580              -2.80    34400.00
01581              -3.40    34400.00
01582              -2.80    34400.00
01583              -2.60    34400.00
01584              -2.20    34400.00
01585              -3.00    33600.00
01586              -2.20    33600.00
01587              -2.20    33600.00
01588              -3.00    33600.00
01589              -2.00    33600.00
01590              -3.60    32800.00
01591              -2.80    32800.00
01592              -1.80    32000.00
01593              -3.00    32800.00
01594              -2.60    32000.00
01595              -2.60    31200.00
01596              -2.80    32000.00
01597              -2.00    31200.00
01598              -2.40    31200.00
01599              -2.80    31200.00
01600              -2.20    30400.00
01601              -2.00    30400.00
01602              -2.20    29600.00
01603              -2.40    30400.00
01604              -2.20    28800.00
01605              -2.60    28800.00
01606              -2.00    28000.00
01607              -2.00    28000.00
01608              -3.00    28000.00
01609              -2.20    27200.00
01610              -1.80    27200.00
01611              -2.80    26400.00
01612              -2.00    25600.00
01613              -2.40    25600.00
01614              -2.20    24800.00
01615              -2.00    24800.00
01616              -2.00    24000.00
01617              -2.00    24000.00
01618              -2.20    22400.00
01619              -1.80    22400.00
01620              -2.00    21600.00
01621              -2.20    21600.00
01622              -2.20    20800.00
01623              -2.20    21600.00
01624              -1.80    20000.00
01625              -2.00    19200.00
01626              -2.20    19200.00
01627              -2.00    18400.00
01628              -2.20    17600.00
01629              -1.40    17600.00
01630              -2.00    16800.00
01631              -2.20    16000.00
01632              -1.80    15200.00
01633              -1.40    15200.00
01634              -2.00    14400.00
01635              -1.80    14400.00
01636              -2.00    13600.00
01637              -1.80    12800.00
01638              -1.20    12800.00
01639              -1.40    11200.00
01640              -2.20    11200.00
01641              -1.40    11200.00
01642              -1.40     9600.00
01643              -1.40     8800.00
01644              -0.60     8800.00
01645              -1.40     8000.00
01646              -1.40     7200.00
01647              -1.20     6400.00
01648              -1.20     5600.00
01649              -0.80     5600.00
01650              -1.20     4800.00
01651              -1.20     4800.00
01652              -0.40     3200.00
01653              -1.20     2400.00
01654              -1.40     1600.00
01655              -0.60     1600.00
01656              -0.60      800.00
01657              -1.00        0.00
01658               0.20     -800.00
01659               0.40    -1600.00
01660               3.40    -1600.00
01661              -1.40    -1600.00
01662              -0.60    -3200.00
01663               1.40    -3200.00
01664               0.60    -3200.00
01665              -0.60    -4000.00
01666               6.20    -4800.00
01667              24.20    -5600.00
01668               6.80    -7200.00
01669             -25.00    -8000.00
01670              -1.80    -8000.00
01671              25.00    -8000.00
01672             -25.00    -9600.00
01673             -21.60    -8800.00
01674              25.00   -10400.00
01675             -21.00   -10400.00
01676             -25.00   -11200.00
01677              25.00   -12800.00
01678             -25.00   -12000.00
01679              -7.80   -13600.00
01680              25.00   -13600.00
01681             -25.00   -14400.00
01682              25.00   -14400.00
01683             -25.00   -14400.00
01684              -0.40   -16000.00
01685              25.00   -16000.00
01686             -25.00   -16800.00
01687               3.60   -17600.00
01688              25.00   -17600.00
01689             -20.40   -18400.00
01690             -13.00   -19200.00
01691              25.00   -20000.00
01692             -23.00   -20000.00
01693              -4.40   -20800.00
01694              25.00   -21600.00
01695             -23.40   -22400.00
01696               7.00   -22400.00
01697              10.00   -22400.00
01698             -15.20   -23200.00
01699               6.00   -24000.00
01700              10.00   -24000.00
01701              -9.80   -24800.00
01702               7.80   -25600.00
01703               7.40   -25600.00
01704             -13.80   -26400.00
01705              12.00   -26400.00
01706              -0.20   -26400.00
01707              -5.40   -27200.00
01708              10.20   -27200.00
01709              -1.00   -27200.00
01710              -1.80   -28800.00
01711               5.40   -28800.00
01712               0.60   -28800.00
01713              -1.80   -29600.00
01714               5.80   -29600.00
01715              -0.40   -30400.00
01716              -1.20   -30400.00
01717               5.40   -30400.00
01718              -0.80   -31200.00
01719               1.00   -30400.00
01720               5.40   -31200.00
01721              -0.40   -31200.00
01722               0.80   -32000.00
01723               3.80   -32000.00
01724              -0.60   -32800.00
01725               2.00   -32000.00
01726               2.80   -32800.00
01727               1.20   -33600.00
01728               3.40   -33600.00
01729               1.00   -32800.00
01730               1.40   -33600.00
01731               1.80   -33600.00
01732               2.00   -33600.00
01733               1.60   -33600.00
01734               2.60   -33600.00
01735               2.20   -33600.00
01736               1.00   -33600.00
01737               3.20   -33600.00
01738               1.20   -33600.00
01739               1.40   -33600.00
01740               3.20   -33600.00
01741               1.20   -33600.00
01742               2.60   -33600.00
01743               2.00   -33600.00
01744               1.20   -33600.00
01745               2.60   -33600.00
01746               2.00   -33600.00
01747               1.80   -33600.00
01748               2.00   -33600.00
01749               1.80   -33600.00
01750               1.80   -33600.00
01751               2.20   -32800.00
01752               2.00   -32800.00
01753               1.60   -32800.00
01754               2.20   -32800.00
01755               1.60   -32000.00
01756               1.40   -32800.00
01757               2.20   -32800.00
01758               1.40   -32000.00
01759               2.00   -32000.00
01760               2.60   -32000.00
01761               1.00   -32000.00
01762               1.60   -30400.00
01763               2.00   -32000.00
01764               1.20   -30400.00
01765               1.80   -30400.00
01766               2.00   -29600.00
01767               1.20   -29600.00
01768               1.40   -29600.00
01769               2.00   -28800.00
01770               1.60   -28800.00
01771               1.60   -28000.00
01772               1.80   -28000.00
01773               1.40   -27200.00
01774               1.80   -27200.00
01775               1.20   -27200.00
01776               1.40   -26400.00
01777               2.40   -26400.00
01778               1.40   -25600.00
01779               1.40   -25600.00
01780               2.20   -24800.00
01781               1.00   -24000.00
01782               1.00   -24000.00
01783               1.60   -24000.00
01784               1.00   -23200.00
01785               1.40   -23200.00
01786               1.40   -22400.00
01787               1.40   -22400.00
01788               1.40   -20800.00
01789               1.40   -20800.00
01790               1.00   -20000.00
01791               1.20   -19200.00
01792               1.20   -18400.00
01793               0.80   -18400.00
01794               0.80   -17600.00
01795               1.00   -17600.00
01796               1.00   -16800.00
01797               1.20   -16000.00
01798               1.40   -16000.00
01799               1.00   -14400.00
01800               1.00   -15200.00
01801               0.60   -14400.00
01802               1.00   -13600.00
01803               0.60   -12800.00
01804               1.00   -12000.00
01805               1.20   -11200.00
01806               0.60   -11200.00
01807               0.40   -11200.00
01808               0.40    -9600.00
01809               0.40    -9600.00
01810               0.40    -8800.00
01811               0.40    -8000.00
01812               0.40    -7200.00
01813               0.40    -7200.00
01814               0.20    -6400.00
01815               0.60    -5600.00
01816               0.20    -5600.00
01817               0.20    -4800.00
01818               0.40    -4000.00
01819               0.20    -3200.00
01820              -0.20    -2400.00
01821              -0.40    -1600.00
01822              -0.20    -1600.00
01823              -0.20     -800.00
01824               0.40        0.00
01825               0.40      800.00
01826               1.20     1600.00
01827               3.60     2400.00
01828              -2.00     2400.00
01829              -1.00     2400.00
01830               1.40     3200.00
01831              -0.60     3200.00
01832               1.00     4800.00
01833              18.40     5600.00
01834              25.00     7200.00
01835             -25.00     8000.00
01836             -22.20     8000.00
01837              25.00     8800.00
01838             -22.60     8000.00
01839             -18.80     8800.00
01840              25.00    10400.00
01841             -25.00     9600.00
01842               2.80    11200.00
01843              25.00    12000.00
01844             -25.00    12000.00
01845              25.00    12800.00
01846              -8.60    12800.00
01847             -25.00    14400.00
01848              25.00    14400.00
01849             -25.00    15200.00
01850              25.00    16000.00
01851              25.00    16000.00
01852             -25.00    16800.00
01853              25.00    17600.00
01854              14.60    18400.00
01855             -25.00    18400.00
01856              -1.40    19200.00
01857              25.00    19200.00
01858             -25.00    20800.00
01859              12.80    20800.00
01860              24.20    21600.00
01861             -25.00    22400.00
01862              25.00    22400.00
01863             -11.00    22400.00
01864             -14.60    24000.00
01865              11.60    24000.00
01866              -2.60    24000.00
01867             -10.20    25600.00
01868              14.40    25600.00
01869              -5.80    25600.00
01870             -14.60    26400.00
01871              15.60    27200.00
01872             -15.40    27200.00
01873              -0.40    27200.00
01874               6.80    28000.00
01875              -8.20    28000.00
01876              -0.40    28800.00
01877               0.60    28800.00
01878              -4.40    28800.00
01879              -3.80    29600.00
01880               3.40    30400.00
01881              -6.00    30400.00
01882              -2.80    31200.00
01883               1.40    31200.00
01884              -6.20    31200.00
01885              -0.40    32000.00
01886               0.40    31200.00
01887              -6.00    32800.00
01888              -0.60    32000.00
01889              -2.00    32800.00
01890              -6.00    32800.00
01891               0.20    32800.00
01892              -3.20    33600.00
01893              -2.80    33600.00
01894               0.20    33600.00
01895              -3.60    33600.00
01896              -3.00    33600.00
01897              -3.00    33600.00
01898              -2.80    33600.00
01899              -2.80    33600.00
01900              -1.40    34400.00
01901              -2.60    34400.00
01902              -3.60    34400.00
01903              -0.60    34400.00
01904              -4.60    34400.00
01905              -2.60    34400.00
01906              -2.00    34400.00
01907              -4.40    34400.00
01908              -0.20    34400.00
01909              -3.00    34400.00
01910              -3.60    34400.00
01911              -1.20    34400.00
01912              -3.00    34400.00
01913              -2.20    34400.00
01914              -2.80    33600.00
01915              -3.60    34400.00
01916              -2.20    34400.00
01917              -2.40    33600.00
01918              -3.00    33600.00
01919              -2.80    34400.00
01920              -1.20    33600.00
01921              -3.00    33600.00
01922              -3.00    33600.00
01923              -1.40    32800.00
01924              -3.80    32800.00
01925              -2.80    32000.00
01926              -1.20    32800.00
01927              -3.00    32000.00
01928              -3.00    32800.00
01929              -2.20    32000.00
01930              -2.00    31200.00
01931              -2.80    30400.00
01932              -2.60    30400.00
01933              -2.00    31200.00
01934              -3.00    30400.00
01935              -2.40    30400.00
01936              -1.40    28800.00
01937              -3.00    28800.00
01938              -2.60    28000.00
01939              -1.80    28800.00
01940              -2.00    28000.00
01941              -3.00    27200.00
01942              -2.80    27200.00
01943              -1.00    27200.00
01944              -2.80    26400.00
01945              -2.20    26400.00
01946              -1.20    25600.00
01947              -3.60    25600.00
01948              -2.20    24800.00
01949              -1.00    24800.00
01950              -2.20    24000.00
01951              -2.80    24000.00
01952              -1.80    23200.00
01953              -2.20    22400.00
01954              -2.80    21600.00
01955              -1.40    21600.00
01956              -1.80    21600.00
01957              -2.80    20800.00
01958              -1.80    20000.00
01959              -1.80    19200.00
01960              -2.00    18400.00
01961              -2.20    18400.00
01962              -1.40    17600.00
01963              -1.20    17600.00
01964              -2.80    16000.00
01965              -1.80    16000.00
01966              -1.60    15200.00
01967              -2.20    14400.00
01968              -1.40    14400.00
01969              -1.20    14400.00
01970              -2.20    12800.00
01971              -1.40    12800.00
01972              -1.20    12000.00
01973              -1.60    11200.00
01974              -1.80    11200.00
01975              -0.60     9600.00
01976              -1.80     9600.00
01977              -1.60     8800.00
01978              -1.00     8800.00
01979              -1.40     8000.00
01980              -1.40     7200.00
01981              -0.60     6400.00
01982              -1.20     5600.00
01983              -1.20     4800.00
01984              -1.20     4800.00
01985              -0.60     4000.00
01986              -0.60     3200.00
01987              -1.00     3200.00
01988              -0.60     2400.00
01989              -0.60     1600.00
01990              -0.80      800.00
01991              -0.60        0.00
01992               0.20     -800.00
01993               2.00     -800.00
01994               2.60    -1600.00
01995              -2.20    -1600.00
01996               0.40    -2400.00
01997               1.20    -3200.00
01998              -0.20    -4000.00
01999               1.00    -4000.00
02000              10.80    -4800.00
02001              25.00    -6400.00
02002             -19.00    -7200.00
02003             -25.00    -8000.00
02004              18.80    -8000.00
02005              14.20    -8800.00
02006             -25.00    -8800.00
02007              12.20    -9600.00
02008              25.00   -10400.00
02009             -25.00   -10400.00
02010              16.20   -11200.00
02011              25.00   -12000.00
02012             -25.00   -12000.00
02013              25.00   -12800.00
02014              -0.40   -13600.00
02015             -11.00   -14400.00
02016              25.00   -14400.00
02017             -25.00   -16000.00
02018              25.00   -16800.00
02019              11.40   -16800.00
02020             -25.00   -17600.00
02021              23.00   -17600.00
02022              14.00   -19200.00
02023             -25.00   -18400.00
02024               8.20   -19200.00
02025              24.40   -20000.00
02026             -25.00   -20000.00
02027              21.40   -20800.00
02028              13.40   -21600.00
02029             -23.00   -22400.00
02030              18.80   -23200.00
02031              -2.80   -23200.00
02032             -10.80   -24000.00
02033              11.40   -24000.00
02034               2.80   -24000.00
02035              -8.60   -25600.00
02036              14.80   -25600.00
02037              -3.80   -25600.00
02038              -6.80   -26400.00
02039              13.20   -26400.00
02040              -8.40   -27200.00
02041               2.20   -27200.00
02042               8.20   -27200.00
02043              -3.00   -28000.00
02044               1.00   -28800.00
02045               5.20   -28800.00
02046              -1.80   -29600.00
02047               1.00   -29600.00
02048               5.60   -29600.00
02049              -2.20   -30400.00
02050               2.20   -30400.00
02051               4.20   -30400.00
02052              -1.40   -31200.00
02053               3.80   -31200.00
02054               3.40   -32000.00
02055              -1.80   -32000.00
02056               3.80   -32000.00
02057               2.60   -32000.00
02058              -1.60   -32000.00
02059               3.60   -32800.00
02060               2.00   -32800.00
02061               2.00   -32800.00
02062               2.80   -33600.00
02063               0.60   -32800.00
02064               1.40   -33600.00
02065               1.80   -33600.00
02066               2.00   -33600.00
02067               1.40   -33600.00
02068               2.60   -33600.00
02069               2.20   -33600.00
02070               2.60   -33600.00
02071               1.80   -33600.00
02072              -0.60   -32800.00
02073               3.80   -33600.00
02074               2.00   -33600.00
02075              -0.40   -33600.00
02076               4.20   -33600.00
02077               2.40   -33600.00
02078               0.60   -33600.00
02079               3.00   -33600.00
02080               1.40   -33600.00
02081               2.00   -33600.00
02082               2.00   -33600.00
02083               1.80   -33600.00
02084               1.00   -33600.00
02085               1.40   -32800.00
02086               2.60   -32800.00
02087               2.40   -32800.00
02088               2.40   -32800.00
02089               1.80   -32800.00
02090               2.00   -32800.00
02091               1.20   -32000.00
02092               0.20   -32000.00
02093               3.00   -32000.00
02094               3.00   -32000.00
02095               1.20   -32000.00
02096               2.80   -32000.00
02097               2.00   -30400.00
02098               0.60   -29600.00
02099               1.40   -30400.00
02100               1.60   -29600.00
02101               0.80   -29600.00
02102               2.00   -29600.00
02103               2.20   -28800.00
02104               1.80   -28800.00
02105               1.80   -28800.00
02106               2.40   -28000.00
02107               1.80   -27200.00
02108               1.80   -27200.00
02109               0.40   -27200.00
02110               1.40   -26400.00
02111               2.60   -25600.00
02112               1.40   -25600.00
02113               1.20   -25600.00
02114               2.00   -24800.00
02115               1.40   -24800.00
02116               1.00   -24000.00
02117               1.00   -24000.00
02118               1.20   -23200.00
02119               1.60   -22400.00
02120               1.40   -22400.00
02121               1.80   -21600.00
02122               1.20   -20800.00
02123               1.20   -20800.00
02124               1.00   -20000.00
02125               1.40   -18400.00
02126               1.40   -19200.00
02127               1.00   -18400.00
02128               1.20   -17600.00
02129               1.00   -17600.00
02130               0.60   -16800.00
02131               1.40   -16000.00
02132               1.20   -16000.00
02133               1.20   -14400.00
02134               1.00   -14400.00
02135               0.40   -13600.00
02136               0.40   -13600.00
02137               0.60   -13600.00
02138               0.80   -12000.00
02139               1.00   -11200.00
02140               1.00   -10400.00
02141               0.60   -10400.00
02142               0.00    -9600.00
02143               0.20    -8800.00
02144               0.40    -8000.00
02145               0.20    -8000.00
02146               0.40    -7200.00
02147               0.20    -7200.00
02148               0.20    -6400.00
02149               0.00    -4800.00
02150               0.00    -4800.00
02151               0.40    -4000.00
02152               0.20    -3200.00
02153              -0.60    -2400.00
02154               0.40    -2400.00
02155               0.20    -1600.00
02156              -0.80     -800.00
02157               0.60        0.00
02158               0.60        0.00
02159               0.00        0.00
02160               2.40      800.00
02161               2.60     1600.00
02162              -3.00     2400.00
02163               0.20     3200.00
02164               1.40     3200.00
02165              -1.80     4000.00
02166               4.80     4800.00
02167              25.00     6400.00
02168               3.80     7200.00
02169             -25.00     8000.00
02170               5.20     8000.00
02171              24.40     8000.00
02172             -25.00     8800.00
02173              23.80     9600.00
02174              25.00    10400.00
02175             -25.00    10400.00
02176              25.00    11200.00
02177              14.00    12000.00
02178             -25.00    12000.00
02179              25.00    12800.00
02180             -25.00    14400.00
02181              25.00    14400.00
02182              25.00    14400.00
02183             -25.00    15200.00
02184              25.00    16000.00
02185             -19.60    16800.00
02186             -25.00    16800.00
02187              25.00    18400.00
02188              -7.00    19200.00
02189             -25.00    18400.00
02190              21.80    19200.00
02191              12.20    20800.00
02192             -25.00    20800.00
02193              25.00    21600.00
02194              -9.20    22400.00
02195             -16.40    21600.00
02196              25.00    22400.00
02197             -25.00    23200.00
02198              -0.20    24000.00
02199               9.00    24000.00
02200              -9.40    24000.00
02201              -3.60    24800.00
02202              16.20    25600.00
02203             -18.00    25600.00
02204               0.60    26400.00
02205               8.40    27200.00
02206             -18.80    27200.00
02207               8.40    27200.00
02208              -0.80    28000.00
02209              -7.00    28000.00
02210               1.20    28800.00
02211              -0.40    28800.00
02212              -6.80    28800.00
02213              -0.60    30400.00
02214               1.20    29600.00
02215              -7.60    30400.00
02216               0.60    30400.00
02217              -1.40    31200.00
02218              -5.40    31200.00
02219               2.00    32000.00
02220              -2.80    32800.00
02221              -4.60    32000.00
02222               0.60    32800.00
02223              -4.40    32800.00
02224              -3.60    32800.00
02225               0.00    32800.00
02226              -4.60    33600.00
02227              -0.60    33600.00
02228              -1.40    33600.00
02229              -3.80    33600.00
02230              -2.60    33600.00
02231              -3.00    33600.00
02232              -2.20    34400.00
02233              -3.00    33600.00
02234              -1.20    34400.00
02235              -3.40    34400.00
02236              -2.60    34400.00
02237              -1.20    34400.00
02238              -4.60    34400.00
02239              -1.20    34400.00
02240              -3.00    33600.00
02241              -3.00    33600.00
02242              -0.40    34400.00
02243              -5.20    34400.00
02244              -2.20    33600.00
02245              -1.40    34400.00
02246              -4.00    34400.00
02247              -1.40    34400.00
02248              -3.00    34400.00
02249              -3.40    33600.00
02250              -1.80    33600.00
02251              -2.20    33600.00
02252              -2.80    33600.00
02253              -2.60    33600.00
02254              -2.20    33600.00
02255              -3.40    33600.00
02256              -2.00    33600.00
02257              -3.00    32800.00
02258              -2.80    32800.00
02259              -1.40    32000.00
02260              -3.40    32800.00
02261              -1.80    32800.00
02262              -2.00    31200.00
02263              -3.80    31200.00
02264              -1.40    31200.00
02265              -2.20    31200.00
02266              -3.00    30400.00
02267              -1.80    30400.00
02268              -2.20    30400.00
02269              -2.80    29600.00
02270              -2.60    28800.00
02271              -2.60    28800.00
02272              -3.00    28800.00
02273              -2.20    28800.00
02274              -1.80    27200.00
02275              -2.80    27200.00
02276              -2.20    27200.00
02277              -2.00    26400.00
02278              -2.80    26400.00
02279              -2.20    25600.00
02280              -2.60    25600.00
02281              -2.60    24800.00
02282              -1.80    24800.00
02283              -2.40    24000.00
02284              -2.20    24000.00
02285              -2.40    23200.00
02286              -2.00    23200.00
02287              -2.00    22400.00
02288              -2.40    22400.00
02289              -2.20    20800.00
02290              -2.80    20800.00
02291              -2.00    20000.00
02292              -1.80    19200.00
02293              -1.80    18400.00
02294              -1.60    18400.00
02295              -2.00    17600.00
02296              -2.00    17600.00
02297              -2.00    16800.00
02298              -2.20    16000.00
02299              -1.80    16000.00
02300              -1.60    14400.00
02301              -1.20    15200.00
02302              -1.40    14400.00
02303              -1.80    12800.00
02304              -1.40    12800.00
02305              -1.20    12000.00
02306              -1.60    12000.00
02307              -1.80    11200.00
02308              -1.40    11200.00
02309              -1.20     9600.00
02310              -1.60     9600.00
02311              -1.00     8000.00
02312              -1.00     8000.00
02313              -1.20     8000.00
02314              -1.00     8000.00
02315              -1.00     6400.00
02316              -1.40     5600.00
02317              -0.80     4800.00
02318              -0.60     4000.00
02319              -0.60     3200.00
02320              -0.40     3200.00
02321              -1.20     2400.00
02322              -0.80     1600.00
02323              -0.60      800.00
02324              -0.60        0.00
02325              -0.20        0.00
02326              -0.20     -800.00
02327               3.40    -1600.00
02328               0.40    -1600.00
02329              -2.00    -2400.00
02330               1.80    -3200.00
02331               1.40    -3200.00
02332              -1.20    -4000.00
02333               3.40    -4800.00
02334              17.00    -5600.00
02335              23.00    -7200.00
02336             -25.00    -8000.00
02337             -23.80    -8000.00
02338              25.00    -8800.00
02339              -8.60    -9600.00
02340             -25.00    -8800.00
02341              25.00    -9600.00
02342              25.00   -11200.00
02343             -25.00   -11200.00
02344              25.00   -12000.00
02345              10.60   -12800.00
02346             -25.00   -12800.00
02347              25.00   -13600.00
02348             -25.00   -13600.00
02349              17.00   -14400.00
02350               3.80   -15200.00
02351             -25.00   -16000.00
02352              25.00   -16000.00
02353             -17.80   -16800.00
02354             -16.80   -17600.00
02355              25.00   -17600.00
02356              -3.60   -18400.00
02357             -25.00   -19200.00
02358              25.00   -20000.00
02359               0.80   -20000.00
02360             -25.00   -20800.00
02361              25.00   -21600.00
02362              -9.00   -22400.00
02363              -9.60   -22400.00
02364              19.00   -22400.00
02365             -12.60   -23200.00
02366              -2.20   -23200.00
02367              13.00   -24000.00
02368              -4.60   -24000.00
02369              -2.00   -25600.00
02370              14.80   -25600.00
02371             -12.00   -25600.00
02372               3.40   -26400.00
02373               8.40   -26400.00
02374              -9.20   -27200.00
02375               7.80   -27200.00
02376               3.40   -28000.00
02377              -3.20   -28800.00
02378               3.00   -28800.00
02379               3.60   -28800.00
02380              -2.60   -29600.00
02381               4.40   -29600.00
02382               4.20   -30400.00
02383              -3.00   -30400.00
02384               4.80   -30400.00
02385               1.80   -31200.00
02386              -1.00   -31200.00
02387               5.20   -32000.00
02388               2.00   -31200.00
02389              -1.00   -32000.00
02390               4.20   -32800.00
02391               0.60   -32000.00
02392               0.40   -32000.00
02393               4.00   -32800.00
02394               1.40   -32800.00
02395               2.60   -32800.00
02396               2.00   -32800.00
02397               1.20   -33600.00
02398               1.80   -33600.00
02399               2.00   -33600.00
02400               2.40   -33600.00
02401               2.00   -33600.00
02402               3.00   -33600.00
02403               0.60   -33600.00
02404               2.60   -33600.00
02405               1.80   -33600.00
02406              -0.20   -33600.00
02407               3.40   -33600.00
02408               1.80   -33600.00
02409               1.40   -33600.00
02410               3.00   -33600.00
02411               1.20   -34400.00
02412               2.00   -33600.00
02413               2.60   -33600.00
02414               1.40   -33600.00
02415               1.80   -33600.00
02416               2.00   -33600.00
02417               1.40   -33600.00
02418               2.20   -32800.00
02419               1.60   -33600.00
02420               2.60   -33600.00
02421               1.80   -32800.00
02422               2.20   -32800.00
02423               1.40   -32800.00
02424               2.00   -32800.00
02425               1.40   -32000.00
02426               1.80   -32000.00
02427               3.00   -32000.00
02428               1.20   -32000.00
02429               2.20   -31200.00
02430               2.60   -32000.00
02431               1.00   -30400.00
02432               2.20   -30400.00
02433               2.00   -30400.00
02434               1.00   -29600.00
02435               1.80   -28800.00
02436               2.40   -29600.00
02437               0.80   -28800.00
02438               1.80   -28800.00
02439               1.80   -28000.00
02440               1.20   -28000.00
02441               2.40   -27200.00
02442               1.80   -27200.00
02443               1.00   -27200.00
02444               2.20   -26400.00
02445               2.00   -25600.00
02446               1.20   -25600.00
02447               1.60   -25600.00
02448               2.00   -24000.00
02449               1.00   -24000.00
02450               1.20   -24000.00
02451               2.00   -23200.00
02452               1.00   -22400.00
02453               1.80   -23200.00
02454               1.80   -22400.00
02455               1.20   -21600.00
02456               1.40   -20800.00
02457               1.00   -20000.00
02458               1.00   -20000.00
02459               1.40   -18400.00
02460               1.00   -18400.00
02461               1.00   -17600.00
02462               1.60   -17600.00
02463               0.60   -16800.00
02464               1.00   -16800.00
02465               1.40   -16000.00
02466               0.80   -15200.00
02467               1.00   -14400.00
02468               1.20   -14400.00
02469               0.60   -13600.00
02470               0.40   -13600.00
02471               0.60   -12000.00
02472               0.40   -12000.00
02473               0.40   -11200.00
02474               0.60   -11200.00
02475               0.40   -10400.00
02476               0.40    -9600.00
02477               0.60    -8800.00
02478               0.40    -8000.00
02479               0.40    -7200.00
02480               0.40    -7200.00
02481               0.20    -6400.00
02482               0.40    -6400.00
02483               0.20    -4800.00
02484              -0.40    -4800.00
02485               0.20    -4000.00
02486               0.20    -3200.00
02487              -0.40    -1600.00
02488               0.20    -1600.00
02489              -0.20    -1600.00
02490              -0.20     -800.00
02491               0.40        0.00
02492               0.40      800.00
02493               0.40     1600.00
02494               3.60     1600.00
02495               0.20     2400.00
02496              -2.20     2400.00
02497               1.40     3200.00
02498               0.40     4000.00
02499              -1.20     4800.00
02500              10.80     5600.00
02501              25.00     7200.00
02502             -25.00     8000.00
02503             -25.00     8000.00
02504              24.20     8800.00
02505               3.60     8800.00
02506             -25.00     8800.00
02507              25.00     9600.00
02508               2.20    10400.00
02509             -25.00    11200.00
02510              25.00    12000.00
02511             -25.00    12000.00
02512              -2.00    12800.00
02513              25.00    12800.00
02514             -25.00    14400.00
02515              25.00    14400.00
02516             -25.00    15200.00
02517             -25.00    16000.00
02518              25.00    16000.00
02519             -25.00    16800.00
02520               7.80    17600.00
02521              25.00    17600.00
02522             -24.20    19200.00
02523             -20.40    19200.00
02524              25.00    19200.00
02525             -19.40    20800.00
02526             -19.00    20000.00
02527              25.00    21600.00
02528             -25.00    21600.00
02529               9.20    22400.00
02530               8.80    22400.00
02531             -24.40    23200.00
02532              10.00    24000.00
02533               2.80    24000.00
02534             -12.40    24800.00
02535               5.80    25600.00
02536               6.80    25600.00
02537             -21.20    25600.00
02538              13.20    26400.00
02539              -4.20    27200.00
02540             -10.20    27200.00
02541              10.60    27200.00
02542              -7.60    28000.00
02543              -3.60    28000.00
02544               1.00    28800.00
02545              -3.60    28800.00
02546              -7.00    28800.00
02547               3.00    30400.00
02548              -2.80    30400.00
02549              -5.40    31200.00
02550               3.60    31200.00
02551              -4.60    30400.00
02552              -3.20    31200.00
02553               1.80    31200.00
02554              -6.80    32000.00
02555              -3.00    32800.00
02556              -0.20    32000.00
02557              -5.80    32800.00
02558               0.40    33600.00
02559              -0.80    33600.00
02560              -4.20    33600.00
02561               0.60    33600.00
02562              -3.80    33600.00
02563              -4.60    33600.00
02564              -3.00    33600.00
02565              -3.80    34400.00
02566              -2.40    33600.00
02567              -1.40    34400.00
02568              -1.20    34400.00
02569              -3.00    34400.00
02570               0.00    34400.00
02571              -3.60    34400.00
02572              -4.20    34400.00
02573              -1.20    34400.00
02574              -5.20    34400.00
02575              -1.80    34400.00
02576              -1.20    34400.00
02577              -3.80    34400.00
02578              -0.80    34400.00
02579              -2.00    34400.00
02580              -2.80    34400.00
02581              -3.00    34400.00
02582              -3.60    33600.00
02583              -3.20    34400.00
02584              -2.60    33600.00
02585              -1.80    33600.00
02586              -2.80    33600.00
02587              -1.40    33600.00
02588              -1.80    33600.00
02589              -3.00    33600.00
02590              -2.20    32800.00
02591              -3.60    32800.00
02592              -3.60    32000.00
02593              -2.00    32800.00
02594              -2.60    32800.00
02595              -2.20    32000.00
02596              -2.00    32000.00
02597              -2.20    31200.00
02598              -2.00    31200.00
02599              -2.60    30400.00
02600              -2.60    31200.00
02601              -3.00    30400.00
02602              -2.80    28800.00
02603              -2.20    29600.00
02604              -3.20    28800.00
02605              -2.20    28800.00
02606              -2.20    28800.00
02607              -2.20    28000.00
02608              -1.80    28000.00
02609              -3.00    27200.00
02610              -2.60    27200.00
02611              -2.20    26400.00
02612              -2.80    26400.00
02613              -2.00    25600.00
02614              -2.80    25600.00
02615              -2.60    24800.00
02616              -1.80    24800.00
02617              -2.20    24000.00
02618              -2.00    24000.00
02619              -2.20    24000.00
02620              -2.00    22400.00
02621              -2.20    21600.00
02622              -2.60    21600.00
02623              -2.60    21600.00
02624              -2.20    20800.00
02625              -1.40    20000.00
02626              -2.00    19200.00
02627              -1.80    19200.00
02628              -1.80    17600.00
02629              -2.20    17600.00
02630              -1.40    17600.00
02631              -2.20    16800.00
02632              -2.20    16000.00
02633              -1.80    15200.00
02634              -1.60    15200.00
02635              -1.40    14400.00
02636              -1.20    14400.00
02637              -1.80    13600.00
02638              -1.00    12800.00
02639              -1.20    12000.00
02640              -1.40    12000.00
02641              -2.00    11200.00
02642              -1.20    10400.00
02643              -1.20     9600.00
02644              -1.40     8800.00
02645              -0.60     8800.00
02646              -1.20     8000.00
02647              -1.20     8000.00
02648              -0.60     6400.00
02649              -1.20     6400.00
02650              -1.00     5600.00
02651              -0.60     4800.00
02652              -1.00     4000.00
02653              -0.60     3200.00
02654              -0.60     2400.00
02655              -1.40     2400.00
02656              -0.40     1600.00
02657              -0.60      800.00
02658              -1.20        0.00
02659               0.60        0.00
02660               1.00     -800.00
02661               3.00    -1600.00
02662              -1.00    -1600.00
02663              -0.60    -3200.00
02664               1.40    -3200.00
02665               0.80    -3200.00
02666              -0.60    -4000.00
02667               6.40    -4800.00
02668              24.20    -6400.00
02669               5.20    -7200.00
02670             -25.00    -8000.00
02671              -0.40    -8800.00
02672              25.00    -8800.00
02673             -25.00    -9600.00
02674             -19.80    -8800.00
02675              25.00   -10400.00
02676             -23.60   -10400.00
02677             -25.00   -11200.00
02678              25.00   -12000.00
02679             -25.00   -12800.00
02680              -5.80   -13600.00
02681              25.00   -13600.00
02682             -25.00   -14400.00
02683              25.00   -14400.00
02684             -25.00   -14400.00
02685               1.00   -16000.00
02686              25.00   -16000.00
02687             -25.00   -16800.00
02688               4.40   -17600.00
02689              25.00   -18400.00
02690             -21.00   -18400.00
02691             -11.80   -19200.00
02692              25.00   -20000.00
02693             -23.60   -20000.00
02694              -2.80   -20800.00
02695              25.00   -20800.00
02696             -23.60   -21600.00
02697               7.60   -22400.00
02698               9.40   -23200.00
02699             -15.00   -24000.00
02700               6.80   -24000.00
02701              10.00   -24000.00
02702              -9.40   -24800.00
02703               8.20   -25600.00
02704               7.20   -25600.00
02705             -13.00   -25600.00
02706              12.20   -26400.00
02707              -0.80   -27200.00
02708              -4.60   -27200.00
02709               9.80   -27200.00
02710              -1.20   -28800.00
02711              -1.20   -28800.00
02712               5.80   -28800.00
02713               1.40   -29600.00
02714              -1.60   -29600.00
02715               5.80   -29600.00
02716              -0.40   -29600.00
02717              -1.20   -30400.00
02718               5.80   -31200.00
02719              -0.60   -31200.00
02720               1.40   -30400.00
02721               5.80   -31200.00
02722              -1.00   -32000.00
02723               1.20   -32000.00
02724               4.00   -32000.00
02725              -1.20   -32800.00
02726               2.20   -32800.00
02727               3.00   -32800.00
02728               1.00   -32800.00
02729               3.60   -32800.00
02730               1.40   -32800.00
02731               1.00   -33600.00
02732               1.80   -33600.00
02733               1.80   -33600.00
02734               1.40   -33600.00
02735               2.20   -33600.00
02736               2.00   -33600.00
02737               0.80   -33600.00
02738               3.60   -33600.00
02739               1.00   -33600.00
02740               1.40   -33600.00
02741               3.40   -33600.00
02742               0.60   -34400.00
02743               2.60   -33600.00
02744               2.20   -33600.00
02745               1.00   -33600.00
02746               2.80   -33600.00
02747               2.00   -33600.00
02748               1.20   -33600.00
02749               2.00   -33600.00
02750               2.00   -33600.00
02751               1.60   -33600.00
02752               2.20   -33600.00
02753               2.00   -32800.00
02754               1.20   -32800.00
02755               2.60   -32800.00
02756               1.80   -32000.00
02757               1.60   -32800.00
02758               2.60   -32800.00
02759               1.80   -32000.00
02760               1.80   -32000.00
02761               2.20   -31200.00
02762               1.00   -32000.00
02763               2.00   -31200.00
02764               1.80   -30400.00
02765               1.20   -30400.00
02766               2.00   -29600.00
02767               2.20   -30400.00
02768               1.40   -29600.00
02769               2.00   -29600.00
02770               2.20   -28800.00
02771               1.40   -29600.00
02772               1.80   -28000.00
02773               2.20   -28800.00
02774               1.20   -28000.00
02775               1.80   -27200.00
02776               1.80   -27200.00
02777               1.20   -26400.00
02778               2.00   -26400.00
02779               2.00   -25600.00
02780               1.20   -25600.00
02781               1.80   -25600.00
02782               1.40   -24000.00
02783               1.20   -24000.00
02784               1.80   -23200.00
02785               1.40   -23200.00
02786               1.60   -22400.00
02787               1.40   -22400.00
02788               1.40   -22400.00
02789               1.00   -20800.00
02790               0.60   -20800.00
02791               1.00   -20000.00
02792               1.20   -20000.00
02793               1.00   -18400.00
02794               1.00   -18400.00
02795               1.20   -17600.00
02796               1.20   -17600.00
02797               1.40   -16800.00
02798               0.60   -16800.00
02799               0.80   -16000.00
02800               1.00   -15200.00
02801               0.40   -14400.00
02802               0.60   -13600.00
02803               1.20   -13600.00
02804              -0.20   -12800.00
02805               1.00   -12000.00
02806               1.20   -11200.00
02807              -0.20   -11200.00
02808               0.80   -10400.00
02809               0.40   -10400.00
02810               0.20    -8800.00
02811               0.80    -8000.00
02812               0.40    -8000.00
02813               0.20    -7200.00
02814               0.40    -7200.00
02815               0.40    -6400.00
02816               0.40    -5600.00
02817              -0.20    -4800.00
02818               0.40    -4000.00
02819               0.40    -3200.00
02820              -0.20    -3200.00
02821               0.00    -2400.00
02822               0.40    -1600.00
02823              -0.20    -1600.00
02824               0.20     -800.00
02825               0.40        0.00
02826               0.20      800.00
02827               1.00     1600.00
02828               3.60     1600.00
02829              -2.00     3200.00
02830              -0.60     3200.00
02831               1.40     3200.00
02832              -0.20     3200.00
02833               1.40     4800.00
02834              18.80     5600.00
02835              25.00     7200.00
02836             -25.00     8000.00
02837             -21.00     8800.00
02838              25.00     8800.00
02839             -23.60     8000.00
02840             -17.20     8800.00
02841              25.00     9600.00
02842             -25.00     9600.00
02843               5.80    12000.00
02844              25.00    12000.00
02845             -25.00    12000.00
02846              25.00    13600.00
02847             -11.40    13600.00
02848             -25.00    14400.00
02849              25.00    14400.00
02850             -25.00    15200.00
02851              25.00    16000.00
02852              25.00    16000.00
02853             -25.00    17600.00
02854              25.00    17600.00
02855              14.00    18400.00
02856             -25.00    19200.00
02857              -0.40    19200.00
02858              25.00    19200.00
02859             -25.00    20800.00
02860              14.60    21600.00
02861              22.60    21600.00
02862             -25.00    22400.00
02863              25.00    22400.00
02864             -12.60    23200.00
02865             -13.80    24000.00
02866              11.60    24000.00
02867              -3.00    24800.00
02868             -10.20    24800.00
02869              14.20    25600.00
02870              -6.20    25600.00
02871             -14.00    26400.00
02872              15.00    26400.00
02873             -15.60    27200.00
02874               0.60    27200.00
02875               5.80    28000.00
02876              -8.40    28000.00
02877              -0.20    28000.00
02878               0.40    28800.00
02879              -4.40    28800.00
02880              -4.20    28800.00
02881               3.40    29600.00
02882              -6.00    30400.00
02883              -3.40    30400.00
02884               1.20    31200.00
02885              -6.20    31200.00
02886              -0.40    31200.00
02887               0.40    32000.00
02888              -5.80    32800.00
02889              -0.40    32800.00
02890              -1.80    32800.00
02891              -5.40    33600.00
02892               0.00    32800.00
02893              -2.80    33600.00
02894              -2.60    33600.00
02895              -0.60    33600.00
02896              -3.00    33600.00
02897              -3.00    33600.00
02898              -3.40    33600.00
02899              -1.40    34400.00
02900              -2.80    34400.00
02901              -2.00    34400.00
02902              -2.00    34400.00
02903              -3.60    33600.00
02904              -0.60    33600.00
02905              -3.60    34400.00
02906              -2.60    34400.00
02907              -2.00    34400.00
02908              -3.60    34400.00
02909              -1.00    34400.00
02910              -2.60    34400.00
02911              -3.00    34400.00
02912              -2.00    34400.00
02913              -2.80    34400.00
02914              -2.00    33600.00
02915              -3.00    34400.00
02916              -3.00    33600.00
02917              -2.20    34400.00
02918              -2.20    34400.00
02919              -2.20    33600.00
02920              -2.80    33600.00
02921              -2.00    33600.00
02922              -2.80    32800.00
02923              -3.20    33600.00
02924              -2.20    32800.00
02925              -3.00    32800.00
02926              -2.20    32000.00
02927              -2.00    32800.00
02928              -3.00    32000.00
02929              -2.80    32800.00
02930              -2.80    32000.00
02931              -2.80    31200.00
02932              -2.20    31200.00
02933              -2.80    31200.00
02934              -2.60    30400.00
02935              -2.80    30400.00
02936              -2.20    29600.00
02937              -2.60    30400.00
02938              -2.80    29600.00
02939              -2.20    28800.00
02940              -2.80    28000.00
02941              -2.20    28000.00
02942              -2.40    27200.00
02943              -3.00    27200.00
02944              -2.00    27200.00
02945              -2.40    26400.00
02946              -2.80    25600.00
02947              -2.20    25600.00
02948              -3.00    25600.00
02949              -2.60    24000.00
02950              -2.20    24800.00
02951              -2.00    24000.00
02952              -2.20    23200.00
02953              -2.20    22400.00
02954              -1.80    22400.00
02955              -2.20    22400.00
02956              -2.00    21600.00
02957              -2.60    20800.00
02958              -2.00    20800.00
02959              -1.20    20000.00
02960              -2.20    19200.00
02961              -1.80    18400.00
02962              -2.00    18400.00
02963              -2.20    17600.00
02964              -1.20    17600.00
02965              -1.40    16800.00
02966              -2.00    15200.00
02967              -2.00    16000.00
02968              -1.20    15200.00
02969              -1.20    14400.00
02970              -2.40    13600.00
02971              -1.20    12800.00
02972               0.00    12800.00
02973              -2.20    12000.00
02974              -1.40    11200.00
02975              -1.20    11200.00
02976              -1.80    10400.00
02977              -2.20     9600.00
02978              -0.20     8800.00
02979              -0.60     8000.00
02980              -2.40     7200.00
02981              -0.80     7200.00
02982              -0.40     6400.00
02983              -1.20     5600.00
02984              -1.20     4800.00
02985              -0.60     4800.00
02986              -0.60     4000.00
02987              -1.80     3200.00
02988              -0.20     2400.00
02989              -0.60     1600.00
02990              -1.40     1600.00
02991              -0.60        0.00
02992               0.00        0.00
02993              -1.20        0.00
02994               1.40    -1600.00
02995               3.60    -1600.00
02996              -2.80    -2400.00
02997               0.40    -3200.00
02998               2.00    -3200.00
02999              -0.60    -4000.00
03000               0.40    -4800.00
03001              11.40    -4800.00
03002              25.00    -6400.00
03003             -20.80    -8000.00
03004             -25.00    -8000.00
03005              19.40    -8800.00
03006              12.40    -8800.00
03007             -25.00    -8800.00
03008              14.00    -9600.00
03009              25.00   -10400.00
03010             -25.00   -10400.00
03011              19.00   -11200.00
03012              25.00   -12800.00
03013             -25.00   -12800.00
03014              25.00   -13600.00
03015              -1.20   -13600.00
03016             -10.80   -14400.00
03017              25.00   -14400.00
03018             -25.00   -16000.00
03019              25.00   -16800.00
03020              10.60   -16000.00
03021             -25.00   -17600.00
03022              23.20   -17600.00
03023              14.20   -18400.00
03024             -25.00   -19200.00
03025               8.40   -19200.00
03026              24.20   -20000.00
03027             -25.00   -20800.00
03028              22.20   -21600.00
03029              13.00   -22400.00
03030             -23.00   -22400.00
03031              19.00   -22400.00
03032              -2.80   -23200.00
03033             -11.40   -23200.00
03034              12.20   -24000.00
03035               3.40   -24000.00
03036              -8.60   -25600.00
03037              15.80   -25600.00
03038              -4.40   -25600.00
03039              -6.60   -26400.00
03040              13.80   -26400.00
03041              -9.00   -26400.00
03042               2.60   -28000.00
03043               8.40   -28000.00
03044              -3.60   -28800.00
03045               1.40   -28800.00
03046               5.60   -29600.00
03047              -2.20   -28800.00
03048               1.80   -29600.00
03049               6.60   -29600.00
03050              -3.80   -30400.00
03051               2.20   -30400.00
03052               4.20   -30400.00
03053              -2.40   -31200.00
03054               3.60   -32000.00
03055               4.20   -32000.00
03056              -2.00   -32000.00
03057               3.00   -32000.00
03058               2.20   -32800.00
03059              -1.20   -32800.00
03060               3.80   -32800.00
03061               2.00   -32800.00
03062               1.80   -33600.00
03063               2.80   -33600.00
03064               0.60   -33600.00
03065               1.40   -33600.00
03066               2.00   -33600.00
03067               1.40   -33600.00
03068               1.60   -33600.00
03069               2.80   -33600.00
03070               1.00   -33600.00
03071               1.40   -33600.00
03072               2.60   -33600.00
03073               0.20   -33600.00
03074               2.80   -34400.00
03075               2.60   -33600.00
03076               1.00   -33600.00
03077               3.00   -33600.00
03078               1.00   -33600.00
03079               1.40   -33600.00
03080               2.80   -33600.00
03081               1.80   -33600.00
03082               2.00   -33600.00
03083               2.00   -33600.00
03084               1.60   -33600.00
03085               1.40   -33600.00
03086               2.60   -32800.00
03087               1.80   -33600.00
03088               2.00   -32800.00
03089               2.40   -32800.00
03090               1.00   -32000.00
03091               2.00   -32800.00
03092               2.40   -32000.00
03093               1.40   -32800.00
03094               2.80   -32800.00
03095               2.60   -32000.00
03096               1.00   -32000.00
03097               2.40   -31200.00
03098               1.80   -31200.00
03099               1.20   -30400.00
03100               2.00   -29600.00
03101               2.20   -30400.00
03102               1.60   -29600.00
03103               2.20   -29600.00
03104               1.80   -28800.00
03105               1.80   -28800.00
03106               1.60   -28800.00
03107               1.80   -28000.00
03108               1.80   -27200.00
03109               2.00   -27200.00
03110               1.00   -26400.00
03111               1.80   -26400.00
03112               2.20   -25600.00
03113               1.00   -25600.00
03114               1.40   -25600.00
03115               1.80   -24000.00
03116               1.00   -24800.00
03117               1.40   -24000.00
03118               1.40   -23200.00
03119               1.00   -22400.00
03120               1.40   -22400.00
03121               1.20   -22400.00
03122               1.60   -21600.00
03123               0.60   -20800.00
03124               1.20   -20000.00
03125               1.20   -20000.00
03126               1.00   -18400.00
03127               1.20   -19200.00
03128               1.00   -18400.00
03129               1.00   -17600.00
03130               1.00   -17600.00
03131               0.80   -16000.00
03132               1.00   -16000.00
03133               1.00   -16000.00
03134               0.60   -14400.00
03135               0.40   -14400.00
03136               0.60   -14400.00
03137               0.60   -12800.00
03138               0.40   -12800.00
03139               1.00   -12800.00
03140               0.60   -11200.00
03141               0.40   -10400.00
03142               0.40   -10400.00
03143               0.20    -9600.00
03144               0.40    -9600.00
03145               0.40    -8000.00
03146               0.20    -8000.00
03147               0.40    -7200.00
03148               0.20    -7200.00
03149               0.20    -5600.00
03150               0.20    -4800.00
03151               0.20    -4800.00
03152               0.20    -4800.00
03153               0.40    -3200.00
03154               0.40    -3200.00
03155               0.20    -2400.00
03156               0.20    -1600.00
03157               0.20     -800.00
03158               0.20        0.00
03159               0.20        0.00
03160               0.60      800.00
03161               2.00     1600.00
03162               2.60     2400.00
03163              -2.80     2400.00
03164               0.40     3200.00
03165               1.40     4000.00
03166              -1.20     4800.00
03167               5.20     4800.00
03168              25.00     6400.00
03169               2.60     7200.00
03170             -25.00     8000.00
03171               6.20     8000.00
03172              23.60     8800.00
03173             -25.00     8800.00
03174              25.00     9600.00
03175              25.00    11200.00
03176             -25.00    11200.00
03177              25.00    12000.00
03178              12.00    11200.00
03179             -25.00    12800.00
03180              25.00    12800.00
03181             -25.00    14400.00
03182              25.00    14400.00
03183              25.00    14400.00
03184             -25.00    15200.00
03185              25.00    16000.00
03186             -22.00    16800.00
03187             -25.00    17600.00
03188              25.00    18400.00
03189              -8.40    18400.00
03190             -25.00    19200.00
03191              22.80    20000.00
03192              11.40    20800.00
03193             -25.00    20800.00
03194              25.00    21600.00
03195             -10.60    22400.00
03196             -15.40    22400.00
03197              25.00    22400.00
03198             -25.00    23200.00
03199               0.40    24000.00
03200               8.40    24800.00
03201              -9.80    24800.00
03202              -3.60    24800.00
03203              15.60    25600.00
03204             -18.00    25600.00
03205               0.80    26400.00
03206               7.60    27200.00
03207             -18.20    27200.00
03208               8.60    27200.00
03209              -1.40    28000.00
03210              -6.40    28800.00
03211               2.00    28000.00
03212              -0.60    28800.00
03213              -6.60    28800.00
03214              -0.20    30400.00
03215               1.00    30400.00
03216              -7.80    30400.00
03217               1.00    31200.00
03218              -1.40    31200.00
03219              -6.00    31200.00
03220               2.20    32000.00
03221              -2.60    31200.00
03222              -4.60    32800.00
03223               1.00    32000.00
03224              -4.40    32800.00
03225              -3.00    32800.00
03226               0.20    33600.00
03227              -4.80    33600.00
03228              -0.60    33600.00
03229              -1.20    33600.00
03230              -3.60    33600.00
03231              -2.20    33600.00
03232              -2.80    33600.00
03233              -2.20    34400.00
03234              -2.80    33600.00
03235              -0.80    34400.00
03236              -3.60    34400.00
03237              -2.20    34400.00
03238              -1.40    34400.00
03239              -4.60    35200.00
03240              -1.20    34400.00
03241              -3.20    34400.00
03242              -3.00    34400.00
03243              -0.40    34400.00
03244              -3.80    34400.00
03245              -2.60    34400.00
03246              -1.80    34400.00
03247              -2.80    34400.00
03248              -2.40    34400.00
03249              -3.00    33600.00
03250              -2.80    34400.00
03251              -2.80    33600.00
03252              -2.20    33600.00
03253              -2.80    33600.00
03254              -2.80    33600.00
03255              -2.00    33600.00
03256              -3.40    33600.00
03257              -2.80    33600.00
03258              -2.20    33600.00
03259              -2.80    32800.00
03260              -2.60    32000.00
03261              -2.20    32000.00
03262              -2.00    32800.00
03263              -2.80    32000.00
03264              -3.80    31200.00
03265              -2.20    31200.00
03266              -1.40    31200.00
03267              -3.80    31200.00
03268              -4.00    30400.00
03269              -0.60    30400.00
03270              -3.00    30400.00
03271              -4.20    28800.00
03272              -1.00    28800.00
03273              -2.00    28000.00
03274              -3.80    28000.00
03275              -0.80    28000.00
03276              -3.00    27200.00
03277              -4.40    27200.00
03278              -1.20    27200.00
03279              -1.60    26400.00
03280              -2.40    26400.00
03281              -2.20    25600.00
03282              -2.20    25600.00
03283              -2.20    24000.00
03284              -2.80    24800.00
03285              -2.20    23200.00
03286              -1.80    23200.00
03287              -2.20    22400.00
03288              -1.60    22400.00
03289              -2.40    21600.00
03290              -2.80    21600.00
03291              -1.20    20800.00
03292              -1.20    20800.00
03293              -2.20    20000.00
03294              -2.00    19200.00
03295              -2.60    18400.00
03296              -2.20    18400.00
03297              -1.20    17600.00
03298              -1.40    16800.00
03299              -2.00    16000.00
03300              -1.00    16000.00
03301              -2.20    15200.00
03302              -2.00    14400.00
03303              -1.20    14400.00
03304              -2.60    12800.00
03305              -0.60    12800.00
03306              -0.40    12800.00
03307              -2.20    12000.00
03308              -1.20    11200.00
03309              -1.20    11200.00
03310              -1.80     9600.00
03311              -1.20     9600.00
03312              -0.40     8800.00
03313              -2.20     8000.00
03314              -1.40     7200.00
03315              -0.80     6400.00
03316              -1.20     6400.00
03317              -0.60     5600.00
03318              -1.00     4800.00
03319              -1.40     4800.00
03320              -0.60     3200.00
03321              -1.60     3200.00
03322              -1.40     2400.00
03323              -0.60     2400.00
03324              -0.60     1600.00
03325              -0.20      800.00
03326               0.20        0.00
03327              -0.20     -800.00
03328               3.40     -800.00
03329              -0.20    -1600.00
03330              -2.20    -1600.00
03331               1.20    -3200.00
03332               1.00    -3200.00
03333              -1.00    -4000.00
03334               3.80    -4800.00
03335              17.00    -5600.00
03336              22.80    -7200.00
03337             -25.00    -7200.00
03338             -23.60    -8000.00
03339              25.00    -8800.00
03340              -8.60    -9600.00
03341             -25.00    -8800.00
03342              25.00    -9600.00
03343              25.00   -11200.00
03344             -25.00   -10400.00
03345              25.00   -12000.00
03346               8.60   -12800.00
03347             -25.00   -12800.00
03348              25.00   -13600.00
03349             -25.00   -13600.00
03350              18.60   -14400.00
03351               2.80   -14400.00
03352             -25.00   -16000.00
03353              25.00   -16000.00
03354             -18.00   -16800.00
03355             -16.40   -17600.00
03356              25.00   -17600.00
03357              -4.40   -18400.00
03358             -25.00   -19200.00
03359              25.00   -20000.00
03360               0.40   -20000.00
03361             -25.00   -20000.00
03362              25.00   -20800.00
03363              -9.80   -21600.00
03364              -8.60   -22400.00
03365              19.00   -23200.00
03366             -12.60   -23200.00
03367              -1.60   -24000.00
03368              12.80   -24000.00
03369              -5.00   -24800.00
03370              -1.20   -25600.00
03371              15.00   -25600.00
03372             -12.20   -25600.00
03373               4.40   -26400.00
03374               7.80   -26400.00
03375              -9.80   -27200.00
03376               8.20   -27200.00
03377               3.00   -27200.00
03378              -2.60   -28000.00
03379               3.80   -28800.00
03380               3.40   -28800.00
03381              -2.80   -29600.00
03382               4.20   -29600.00
03383               2.80   -29600.00
03384              -2.80   -30400.00
03385               5.20   -30400.00
03386               1.40   -31200.00
03387              -0.60   -31200.00
03388               5.00   -32000.00
03389               1.20   -31200.00
03390              -0.60   -32800.00
03391               4.20   -32000.00
03392               0.40   -32800.00
03393               0.60   -32800.00
03394               3.40   -32800.00
03395               1.20   -32800.00
03396               2.80   -32800.00
03397               1.80   -32800.00
03398               1.40   -32800.00
03399               1.80   -33600.00
03400               1.60   -33600.00
03401               1.80   -33600.00
03402               2.00   -33600.00
03403               2.20   -33600.00
03404               1.00   -33600.00
03405               3.00   -33600.00
03406               1.80   -33600.00
03407               0.40   -33600.00
03408               3.40   -34400.00
03409               1.20   -33600.00
03410               2.00   -33600.00
03411               2.80   -33600.00
03412               1.00   -33600.00
03413               2.60   -33600.00
03414               2.20   -33600.00
03415               1.40   -33600.00
03416               2.40   -33600.00
03417               2.00   -33600.00
03418               1.80   -33600.00
03419               2.20   -32800.00
03420               2.20   -33600.00
03421               1.60   -32800.00
03422               2.40   -32800.00
03423               2.00   -32800.00
03424               1.20   -32800.00
03425               2.20   -32000.00
03426               1.40   -32000.00
03427               1.40   -32000.00
03428               2.80   -32000.00
03429               1.80   -32000.00
03430               1.80   -31200.00
03431               2.60   -30400.00
03432               1.80   -30400.00
03433               1.80   -30400.00
03434               2.20   -29600.00
03435               2.00   -29600.00
03436               1.40   -29600.00
03437               2.20   -28800.00
03438               1.40   -28800.00
03439               1.20   -28800.00
03440               2.00   -28800.00
03441               1.80   -28000.00
03442               1.80   -28000.00
03443               1.80   -27200.00
03444               1.20   -26400.00
03445               1.60   -26400.00
03446               2.00   -25600.00
03447               1.20   -25600.00
03448               2.00   -25600.00
03449               1.40   -24800.00
03450               1.00   -24000.00
03451               1.40   -24000.00
03452               1.20   -23200.00
03453               1.00   -23200.00
03454               1.40   -23200.00
03455               1.20   -22400.00
03456               1.00   -20800.00
03457               1.20   -20800.00
03458               1.00   -20000.00
03459               1.00   -19200.00
03460               1.40   -20000.00
03461               1.00   -18400.00
03462               0.60   -17600.00
03463               1.80   -17600.00
03464               0.20   -16800.00
03465               0.60   -16800.00
03466               1.40   -16000.00
03467               0.40   -15200.00
03468               0.40   -14400.00
03469               0.60   -14400.00
03470               0.40   -13600.00
03471               1.20   -13600.00
03472               0.40   -12000.00
03473               0.60   -12000.00
03474               1.00   -11200.00
03475               0.20   -10400.00
03476               0.40    -9600.00
03477               0.60    -9600.00
03478               0.40    -9600.00
03479               0.20    -8000.00
03480               0.40    -7200.00
03481               0.40    -7200.00
03482               0.20    -6400.00
03483               0.40    -6400.00
03484               0.40    -4800.00
03485              -0.20    -4000.00
03486               0.40    -4000.00
03487               0.40    -3200.00
03488               0.20    -2400.00
03489               0.20    -2400.00
03490               0.20     -800.00
03491              -0.20        0.00
03492               0.20        0.00
03493               0.20      800.00
03494               1.00     1600.00
03495               3.60     1600.00
03496               0.20     2400.00
03497              -1.40     2400.00
03498               1.40     3200.00
03499               0.60     4000.00
03500              -1.20     4800.00
03501              10.80     5600.00
03502              25.00     7200.00
03503             -25.00     8000.00
03504             -25.00     8000.00
03505              24.60     8800.00
03506               2.80     8800.00
03507             -25.00     8800.00
03508              25.00    10400.00
03509               0.40    10400.00
03510             -25.00    11200.00
03511              25.00    12000.00
03512             -25.00    12000.00
03513              -0.20    12800.00
03514              25.00    12800.00
03515             -25.00    14400.00
03516              25.00    14400.00
03517             -25.00    15200.00
03518             -25.00    15200.00
03519              25.00    16800.00
03520             -25.00    16800.00
03521               8.20    17600.00
03522              25.00    18400.00
03523             -25.00    18400.00
03524             -20.40    19200.00
03525              25.00    20000.00
03526             -20.80    20800.00
03527             -18.00    21600.00
03528              25.00    21600.00
03529             -25.00    21600.00
03530               9.80    22400.00
03531               8.20    22400.00
03532             -24.60    24000.00
03533              10.00    24000.00
03534               3.60    24000.00
03535             -12.40    24000.00
03536               5.80    24800.00
03537               7.20    25600.00
03538             -21.40    25600.00
03539              13.00    25600.00
03540              -4.60    27200.00
03541             -10.80    27200.00
03542              10.20    27200.00
03543              -7.00    28000.00
03544              -3.00    28800.00
03545               1.20    28800.00
03546              -2.00    28800.00
03547              -6.20    28800.00
03548               2.60    29600.00
03549              -3.00    30400.00
03550              -6.20    30400.00
03551               2.60    31200.00
03552              -4.20    31200.00
03553              -3.00    31200.00
03554               2.20    32800.00
03555              -5.00    32000.00
03556              -2.20    32000.00
03557               0.20    32800.00
03558              -5.40    32000.00
03559              -1.00    32800.00
03560              -1.80    33600.00
03561              -4.20    33600.00
03562               0.20    33600.00
03563              -2.80    33600.00
03564              -3.00    33600.00
03565              -2.80    33600.00
03566              -2.40    34400.00
03567              -2.20    33600.00
03568              -2.00    34400.00
03569              -1.20    34400.00
03570              -3.80    34400.00
03571              -1.20    34400.00
03572              -2.80    34400.00
03573              -3.80    34400.00
03574              -1.20    34400.00
03575              -4.00    34400.00
03576              -1.20    34400.00
03577              -1.80    34400.00
03578              -3.80    34400.00
03579              -1.60    34400.00
03580              -3.00    34400.00
03581              -2.80    34400.00
03582              -2.40    33600.00
03583              -3.40    34400.00
03584              -2.80    34400.00
03585              -2.40    33600.00
03586              -2.20    33600.00
03587              -3.00    33600.00
03588              -2.60    34400.00
03589              -2.80    33600.00
03590              -3.00    33600.00
03591              -2.20    32800.00
03592              -3.40    32800.00
03593              -2.80    33600.00
03594              -2.20    32800.00
03595              -2.60    32000.00
03596              -2.40    32000.00
03597              -2.80    32000.00
03598              -2.80    31200.00
03599              -2.40    31200.00
03600              -2.80    30400.00
03601              -2.60    30400.00
03602              -2.60    30400.00
03603              -2.20    30400.00
03604              -2.00    28800.00
03605              -3.00    29600.00
03606              -2.00    28800.00
03607              -2.20    28800.00
03608              -2.80    28000.00
03609              -2.00    28000.00
03610              -2.80    27200.00
03611              -2.80    27200.00
03612              -1.80    26400.00
03613              -2.20    26400.00
03614              -2.20    25600.00
03615              -2.20    25600.00
03616              -2.20    24800.00
03617              -2.60    24800.00
03618              -1.80    24000.00
03619              -2.00    24000.00
03620              -2.60    24000.00
03621              -1.40    22400.00
03622              -2.00    21600.00
03623              -2.60    22400.00
03624              -1.80    21600.00
03625              -2.20    20800.00
03626              -2.20    20800.00
03627              -1.40    19200.00
03628              -2.20    18400.00
03629              -2.00    18400.00
03630              -1.40    17600.00
03631              -1.20    16000.00
03632              -2.20    16800.00
03633              -1.40    16000.00
03634              -1.40    16000.00
03635              -1.80    15200.00
03636              -1.20    14400.00
03637              -1.80    14400.00
03638              -2.00    13600.00
03639              -1.00    12800.00
03640              -1.40    12000.00
03641              -1.40    11200.00
03642              -1.80    11200.00
03643              -1.40    11200.00
03644              -1.40     9600.00
03645              -1.20     8800.00
03646              -1.20     8800.00
03647              -1.40     8000.00
03648              -1.40     7200.00
03649              -0.80     7200.00
03650              -1.20     6400.00
03651              -1.20     4800.00
03652              -1.20     4800.00
03653              -0.60     4000.00
03654              -1.00     3200.00
03655              -1.20     2400.00
03656              -1.00     1600.00
03657              -0.80     1600.00
03658              -1.00      800.00
03659              -0.60        0.00
03660               0.20     -800.00
03661               0.60     -800.00
03662               3.60    -1600.00
03663              -1.40    -1600.00
03664              -1.00    -2400.00
03665               1.40    -3200.00
03666               0.40    -3200.00
03667              -0.80    -4800.00
03668               6.60    -4800.00
03669              24.60    -6400.00
03670               5.00    -8000.00
03671             -25.00    -8000.00
03672               0.00    -8800.00
03673              25.00    -8800.00
03674             -25.00    -9600.00
03675             -19.80    -8800.00
03676              25.00   -10400.00
03677             -25.00   -10400.00
03678             -25.00   -11200.00
03679              25.00   -12000.00
03680             -25.00   -12000.00
03681              -4.60   -12800.00
03682              25.00   -13600.00
03683             -25.00   -14400.00
03684              25.00   -15200.00
03685             -25.00   -16000.00
03686               1.80   -16000.00
03687              25.00   -16800.00
03688             -25.00   -16800.00
03689               5.40   -17600.00
03690              25.00   -17600.00
03691             -21.20   -18400.00
03692             -11.80   -19200.00
03693              25.00   -20000.00
03694             -24.20   -20000.00
03695              -2.40   -20800.00
03696              25.00   -21600.00
03697             -23.60   -22400.00
03698               8.40   -22400.00
03699               9.40   -23200.00
03700             -15.00   -23200.00
03701               6.20   -24000.00
03702               9.80   -24000.00
03703             -10.00   -24800.00
03704               8.40   -25600.00
03705               7.00   -25600.00
03706             -13.20   -26400.00
03707              12.40   -26400.00
03708              -0.80   -26400.00
03709              -5.20   -27200.00
03710              10.00   -27200.00
03711              -1.20   -28800.00
03712              -1.80   -28000.00
03713               5.40   -28800.00
03714               1.20   -28800.00
03715              -2.00   -28800.00
03716               6.00   -29600.00
03717              -0.40   -29600.00
03718              -1.40   -30400.00
03719               5.40   -30400.00
03720              -0.60   -30400.00
03721               1.00   -30400.00
03722               5.40   -32000.00
03723              -0.60   -32000.00
03724               1.20   -32000.00
03725               3.80   -32000.00
03726              -1.00   -32800.00
03727               2.20   -32800.00
03728               2.60   -32800.00
03729               1.00   -32800.00
03730               2.80   -32800.00
03731               1.20   -32800.00
03732               1.20   -33600.00
03733               2.00   -33600.00
03734               2.20   -33600.00
03735               1.60   -33600.00
03736               2.80   -33600.00
03737               2.20   -33600.00
03738               1.20   -33600.00
03739               3.40   -33600.00
03740               1.00   -33600.00
03741               1.40   -33600.00
03742               3.00   -33600.00
03743               1.00   -33600.00
03744               2.80   -33600.00
03745               2.00   -33600.00
03746               1.00   -33600.00
03747               2.80   -33600.00
03748               1.80   -33600.00
03749               2.00   -33600.00
03750               2.60   -33600.00
03751               2.00   -32800.00
03752               2.00   -33600.00
03753               2.60   -33600.00
03754               2.00   -32800.00
03755               1.60   -32800.00
03756               2.20   -32800.00
03757               2.20   -32000.00
03758               1.80   -32800.00
03759               2.00   -32000.00
03760               1.40   -32000.00
03761               2.20   -32000.00
03762               2.20   -32000.00
03763               1.40   -32000.00
03764               2.20   -30400.00
03765               2.60   -30400.00
03766               1.40   -30400.00
03767               1.80   -31200.00
03768               1.80   -29600.00
03769               1.80   -29600.00
03770               1.80   -29600.00
03771               2.00   -29600.00
03772               1.40   -28800.00
03773               1.20   -28800.00
03774               1.80   -28000.00
03775               1.20   -28000.00
03776               2.00   -27200.00
03777               1.40   -27200.00
03778               1.00   -27200.00
03779               1.80   -26400.00
03780               1.40   -26400.00
03781               1.00   -25600.00
03782               1.80   -24800.00
03783               1.40   -24000.00
03784               1.00   -24000.00
03785               1.40   -23200.00
03786               1.20   -23200.00
03787               1.20   -22400.00
03788               1.20   -22400.00
03789               1.20   -22400.00
03790               1.00   -20800.00
03791               1.20   -20800.00
03792               1.00   -20000.00
03793               1.00   -19200.00
03794               1.40   -18400.00
03795               0.60   -18400.00
03796               1.00   -17600.00
03797               1.00   -17600.00
03798               0.40   -16800.00
03799               1.20   -16000.00
03800               0.60   -16000.00
03801               0.60   -14400.00
03802               1.00   -14400.00
03803               1.00   -14400.00
03804               0.20   -13600.00
03805               0.60   -12800.00
03806               0.40   -12000.00
03807               0.60   -11200.00
03808               0.40   -11200.00
03809               0.60   -10400.00
03810               0.40    -9600.00
03811               0.40    -9600.00
03812               0.60    -8800.00
03813               0.40    -8000.00
03814               0.40    -7200.00
03815               0.40    -7200.00
03816               0.20    -6400.00
03817               0.60    -5600.00
03818               0.20    -4800.00
03819               0.20    -4000.00
03820               0.40    -3200.00
03821               0.20    -3200.00
03822              -0.20    -2400.00
03823              -0.40    -1600.00
03824              -0.40    -1600.00
03825               0.40        0.00
03826              -0.20        0.00
03827               0.60      800.00
03828               0.40     1600.00
03829               4.40     1600.00
03830              -2.00     2400.00
03831              -1.40     3200.00
03832               1.80     3200.00
03833               0.20     3200.00
03834               0.60     4800.00
03835              18.80     5600.00
03836              25.00     7200.00
03837             -25.00     8000.00
03838             -21.00     8000.00
03839              25.00     8000.00
03840             -25.00     8800.00
03841             -17.80     9600.00
03842              25.00    10400.00
03843             -25.00    10400.00
03844               5.80    11200.00
03845              25.00    12000.00
03846             -25.00    12000.00
03847              25.00    12800.00
03848             -13.20    12800.00
03849             -25.00    14400.00
03850              25.00    14400.00
03851             -25.00    15200.00
03852              25.00    16000.00
03853              25.00    16000.00
03854             -25.00    16800.00
03855              25.00    17600.00
03856              13.80    18400.00
03857             -25.00    18400.00
03858               0.20    19200.00
03859              25.00    20000.00
03860             -25.00    20800.00
03861              15.40    21600.00
03862              23.00    21600.00
03863             -25.00    22400.00
03864              25.00    22400.00
03865             -12.60    24000.00
03866             -14.00    24000.00
03867              11.00    24000.00
03868              -2.20    24800.00
03869              -9.80    24800.00
03870              13.40    25600.00
03871              -6.20    25600.00
03872             -12.60    26400.00
03873              14.60    26400.00
03874             -15.60    27200.00
03875               2.00    27200.00
03876               5.20    28000.00
03877              -9.40    28000.00
03878               1.00    28800.00
03879               0.80    28800.00
03880              -5.40    29600.00
03881              -2.80    29600.00
03882               4.20    30400.00
03883              -6.80    30400.00
03884              -2.20    31200.00
03885               1.80    31200.00
03886              -7.00    31200.00
03887               0.20    31200.00
03888               1.20    32800.00
03889              -5.80    32000.00
03890              -0.40    32000.00
03891              -1.80    32800.00
03892              -5.40    32800.00
03893               0.20    32000.00
03894              -3.40    33600.00
03895              -2.00    33600.00
03896              -0.20    33600.00
03897              -3.60    33600.00
03898              -2.20    33600.00
03899              -3.00    33600.00
03900              -2.80    33600.00
03901              -2.80    33600.00
03902              -1.80    33600.00
03903              -3.00    34400.00
03904              -3.40    34400.00
03905              -0.60    33600.00
03906              -4.40    34400.00
03907              -1.80    34400.00
03908              -2.00    34400.00
03909              -4.20    34400.00
03910               0.20    34400.00
03911              -3.80    34400.00
03912              -3.80    35200.00
03913              -1.20    34400.00
03914              -3.00    33600.00
03915              -2.60    34400.00
03916              -2.80    33600.00
03917              -3.00    34400.00
03918              -3.00    33600.00
03919              -2.20    33600.00
03920              -2.20    33600.00
03921              -3.00    33600.00
03922              -2.20    33600.00
03923              -2.80    33600.00
03924              -2.60    33600.00
03925              -2.40    33600.00
03926              -3.40    32800.00
03927              -2.20    32800.00
03928              -2.20    32800.00
03929              -3.00    32800.00
03930              -2.20    32000.00
03931              -2.80    32000.00
03932              -2.60    31200.00
03933              -2.00    31200.00
03934              -3.00    30400.00
03935              -2.60    31200.00
03936              -2.40    30400.00
03937              -2.20    30400.00
03938              -2.00    30400.00
03939              -2.80    28800.00
03940              -2.60    28800.00
03941              -2.20    28800.00
03942              -2.00    28000.00
03943              -2.60    27200.00
03944              -3.00    27200.00
03945              -2.00    27200.00
03946              -2.60    26400.00
03947              -2.40    26400.00
03948              -2.20    25600.00
03949              -2.60    25600.00
03950              -2.00    24800.00
03951              -2.00    24800.00
03952              -2.00    24000.00
03953              -2.20    23200.00
03954              -2.00    23200.00
03955              -1.80    22400.00
03956              -2.20    22400.00
03957              -2.20    21600.00
03958              -2.00    20800.00
03959              -2.00    19200.00
03960              -1.40    19200.00
03961              -2.00    19200.00
03962              -2.20    18400.00
03963              -1.80    18400.00
03964              -1.80    17600.00
03965              -1.20    17600.00
03966              -2.80    16800.00
03967              -2.00    16000.00
03968              -0.60    15200.00
03969              -1.80    15200.00
03970              -2.60    14400.00
03971              -1.60    13600.00
03972              -1.00    12800.00
03973              -1.80    12800.00
03974              -2.80    12000.00
03975              -0.60    11200.00
03976              -1.00    11200.00
03977              -2.00     9600.00
03978              -2.20     9600.00
03979              -0.60     8800.00
03980              -1.40     8000.00
03981              -1.80     8000.00
03982              -0.60     7200.00
03983              -1.80     5600.00
03984              -2.00     5600.00
03985               0.20     4800.00
03986              -1.20     4000.00
03987              -1.40     3200.00
03988              -0.60     3200.00
03989              -1.00     2400.00
03990              -2.20     2400.00
03991              -1.20     1600.00
03992              -0.20        0.00
03993               0.20        0.00
03994              -0.20     -800.00
03995               2.40     -800.00
03996               2.20    -1600.00
03997              -2.80    -2400.00
03998              -0.20    -3200.00
03999               1.00    -3200.00
04000              -0.80    -4000.00
04001               1.40    -4800.00
04002              11.60    -4800.00
04003              25.00    -6400.00
04004             -21.00    -8000.00
04005             -25.00    -8000.00
04006              20.20    -8000.00
04007              12.40    -8800.00
04008             -25.00    -9600.00
04009              14.20    -9600.00
04010              25.00   -10400.00
04011             -25.00   -10400.00
04012              19.80   -11200.00
04013              25.00   -12800.00
04014             -25.00   -12800.00
04015              25.00   -13600.00
04016              -2.60   -13600.00
04017              -9.40   -14400.00
04018              25.00   -14400.00
04019             -25.00   -16000.00
04020              25.00   -16800.00
04021              10.00   -16800.00
04022             -25.00   -16800.00
04023              23.60   -17600.00
04024              13.80   -18400.00
04025             -25.00   -19200.00
04026               9.00   -19200.00
04027              23.60   -20000.00
04028             -25.00   -20000.00
04029              22.60   -20800.00
04030              12.40   -21600.00
04031             -22.00   -22400.00
04032              19.20   -23200.00
04033              -3.80   -23200.00
04034             -10.80   -24000.00
04035              10.80   -24000.00
04036               2.80   -24000.00
04037              -8.60   -24800.00
04038              15.60   -25600.00
04039              -3.80   -25600.00
04040              -6.00   -26400.00
04041              13.40   -26400.00
04042              -9.00   -27200.00
04043               2.40   -28000.00
04044               7.80   -28000.00
04045              -3.60   -28800.00
04046               1.20   -28800.00
04047               5.40   -28800.00
04048              -2.00   -29600.00
04049               1.40   -29600.00
04050               6.00   -30400.00
04051              -3.00   -30400.00
04052               1.80   -30400.00
04053               3.60   -30400.00
04054              -2.00   -31200.00
04055               3.40   -31200.00
04056               4.20   -32000.00
04057              -1.00   -32000.00
04058               3.60   -32000.00
04059               2.20   -32000.00
04060              -1.00   -32800.00
04061               3.40   -32800.00
04062               1.80   -32800.00
04063               1.60   -32800.00
04064               3.00   -32800.00
04065               1.20   -33600.00
04066               1.60   -33600.00
04067               2.00   -33600.00
04068               1.80   -33600.00
04069               1.80   -33600.00
04070               3.40   -33600.00
04071               1.00   -33600.00
04072               2.00   -33600.00
04073               3.40   -33600.00
04074              -0.20   -33600.00
04075               2.80   -33600.00
04076               3.00   -33600.00
04077               0.80   -33600.00
04078               3.00   -33600.00
04079               1.80   -33600.00
04080               1.20   -33600.00
04081               2.80   -33600.00
04082               2.00   -33600.00
04083               2.20   -33600.00
04084               2.40   -33600.00
04085               1.40   -32800.00
04086               2.00   -33600.00
04087               2.40   -32800.00
04088               1.40   -33600.00
04089               2.60   -32800.00
04090               2.80   -32800.00
04091               1.40   -32800.00
04092               2.00   -32800.00
04093               2.20   -32000.00
04094               1.40   -32800.00
04095               2.40   -32000.00
04096               2.60   -32000.00
04097               1.40   -32000.00
04098               2.20   -31200.00
04099               1.40   -32000.00
04100               1.40   -30400.00
04101               2.00   -30400.00
04102               2.00   -30400.00
04103               1.40   -29600.00
04104               1.80   -29600.00
04105               1.80   -29600.00
04106               1.60   -28800.00
04107               2.00   -28800.00
04108               2.00   -28000.00
04109               1.40   -28000.00
04110               2.00   -27200.00
04111               1.00   -27200.00
04112               1.40   -26400.00
04113               2.00   -26400.00
04114               1.20   -25600.00
04115               1.20   -24800.00
04116               1.80   -25600.00
04117               0.80   -24000.00
04118               1.40   -24000.00
04119               1.20   -24000.00
04120               1.40   -23200.00
04121               1.20   -22400.00
04122               1.80   -22400.00
04123               1.20   -21600.00
04124               1.20   -20800.00
04125               1.20   -20000.00
04126               1.20   -20000.00
04127               1.40   -20000.00
04128               0.20   -18400.00
04129               1.40   -18400.00
04130               1.20   -17600.00
04131              -0.20   -16800.00
04132               1.80   -16800.00
04133               1.20   -16000.00
04134               0.40   -16000.00
04135               2.00   -15200.00
04136               0.60   -14400.00
04137               0.40   -13600.00
04138               1.20   -12800.00
04139               0.20   -12800.00
04140               0.60   -12800.00
04141               1.20   -11200.00
04142              -0.20   -11200.00
04143               1.00   -10400.00
04144               0.40    -9600.00
04145              -0.40    -9600.00
04146               2.00    -8800.00
04147               0.40    -8000.00
04148              -0.40    -7200.00
04149               1.40    -6400.00
04150              -0.20    -6400.00
04151              -0.20    -5600.00
04152               1.00    -4800.00
04153               0.20    -4000.00
04154              -0.20    -3200.00
04155               0.40    -3200.00
04156              -0.20    -2400.00
04157              -0.60    -1600.00
04158               0.40     -800.00
04159               0.40        0.00
04160               0.20        0.00
04161               0.60        0.00
04162               2.00     1600.00
04163               2.00     1600.00
04164              -2.80     1600.00
04165               0.20     3200.00
04166               1.60     3200.00
04167              -1.60     4000.00
04168               5.40     4800.00
04169              25.00     7200.00
04170               1.60     7200.00
04171             -25.00     8000.00
04172               6.60     8000.00
04173              23.00     8800.00
04174             -25.00     8800.00
04175              25.00     9600.00
04176              25.00    10400.00
04177             -25.00    11200.00
04178              25.00    12000.00
04179              10.60    11200.00
04180             -25.00    12000.00
04181              25.00    12800.00
04182             -25.00    13600.00
04183              25.00    14400.00
04184              25.00    14400.00
04185             -25.00    15200.00
04186              25.00    16000.00
04187             -22.80    16000.00
04188             -25.00    17600.00
04189              25.00    17600.00
04190              -8.20    18400.00
04191             -25.00    18400.00
04192              22.60    19200.00
04193              10.80    20000.00
04194             -25.00    20800.00
04195              25.00    21600.00
04196             -10.80    21600.00
04197             -14.80    22400.00
04198              25.00    22400.00
04199             -25.00    24000.00
04200               0.40    24000.00
04201               8.40    24000.00
04202              -9.40    24800.00
04203              -3.00    24800.00
04204              16.20    25600.00
04205             -18.20    25600.00
04206               1.40    25600.00
04207               7.80    27200.00
04208             -18.60    27200.00
04209               9.00    27200.00
04210              -1.40    27200.00
04211              -6.80    28000.00
04212               2.00    28800.00
04213              -0.40    28800.00
04214              -6.20    28800.00
04215               0.40    29600.00
04216               1.00    30400.00
04217              -7.80    30400.00
04218               1.00    31200.00
04219              -1.60    30400.00
04220              -6.00    31200.00
04221               2.80    31200.00
04222              -2.40    31200.00
04223              -5.20    32800.00
04224               1.40    32000.00
04225              -4.60    32800.00
04226              -3.60    32800.00
04227               0.20    32800.00
04228              -5.00    32800.00
04229              -0.40    33600.00
04230              -1.20    33600.00
04231              -4.20    33600.00
04232              -2.00    33600.00
04233              -3.00    33600.00
04234              -2.40    33600.00
04235              -2.60    33600.00
04236              -1.40    33600.00
04237              -4.20    33600.00
04238              -2.20    34400.00
04239              -1.40    34400.00
04240              -4.40    34400.00
04241              -1.00    34400.00
04242              -3.40    34400.00
04243              -3.00    34400.00
04244              -0.60    34400.00
04245              -3.80    34400.00
04246              -2.20    34400.00
04247              -2.40    34400.00
04248              -3.40    34400.00
04249              -2.20    34400.00
04250              -3.40    34400.00
04251              -2.80    34400.00
04252              -2.60    33600.00
04253              -2.60    33600.00
04254              -2.80    33600.00
04255              -2.60    33600.00
04256              -2.00    33600.00
04257              -3.00    33600.00
04258              -1.80    33600.00
04259              -2.80    32800.00
04260              -3.60    32000.00
04261              -1.20    32800.00
04262              -2.80    32800.00
04263              -3.00    32000.00
04264              -2.00    32000.00
04265              -2.80    32000.00
04266              -2.40    31200.00
04267              -2.00    31200.00
04268              -3.00    30400.00
04269              -2.20    30400.00
04270              -2.20    30400.00
04271              -2.20    29600.00
04272              -2.20    29600.00
04273              -2.20    28800.00
04274              -2.60    28800.00
04275              -2.20    28000.00
04276              -2.00    28000.00
04277              -2.80    27200.00
04278              -2.40    27200.00
04279              -1.80    26400.00
04280              -2.20    25600.00
04281              -1.80    25600.00
04282              -2.40    25600.00
04283              -2.60    25600.00
04284              -1.80    24800.00
04285              -2.60    24000.00
04286              -2.20    24000.00
04287              -2.00    23200.00
04288              -1.80    22400.00
04289              -2.20    22400.00
04290              -2.60    21600.00
04291              -1.40    21600.00
04292              -2.80    20800.00
04293              -1.40    20000.00
04294              -1.00    19200.00
04295              -3.00    19200.00
04296              -1.80    18400.00
04297              -2.00    17600.00
04298              -2.20    17600.00
04299              -1.20    16800.00
04300              -2.00    16000.00
04301              -1.80    15200.00
04302              -2.00    14400.00
04303              -2.20    14400.00
04304              -1.80    13600.00
04305              -1.40    13600.00
04306              -1.80    12800.00
04307              -1.20    12000.00
04308              -1.40    12000.00
04309              -1.80    11200.00
04310              -1.40    11200.00
04311              -0.60     9600.00
04312              -2.20     8800.00
04313              -1.60     8800.00
04314              -1.20     8000.00
04315              -2.00     8000.00
04316              -1.20     7200.00
04317              -0.60     6400.00
04318              -1.20     5600.00
04319              -0.60     4800.00
04320              -1.80     4800.00
04321              -1.20     3200.00
04322              -1.00     3200.00
04323              -1.20     2400.00
04324               0.00     2400.00
04325               0.00     1600.00
04326              -0.60      800.00
04327              -0.20        0.00
04328              -0.20     -800.00
04329               3.00    -1600.00
04330               0.40    -1600.00
04331              -2.00    -1600.00
04332               1.60    -3200.00
04333               0.80    -4000.00
04334              -1.20    -3200.00
04335               3.80    -4000.00
04336              18.00    -5600.00
04337              22.80    -7200.00
04338             -25.00    -8000.00
04339             -23.60    -8000.00
04340              25.00    -8800.00
04341              -9.20    -8800.00
04342             -25.00    -9600.00
04343              25.00   -10400.00
04344              25.00   -10400.00
04345             -25.00   -10400.00
04346              25.00   -12000.00
04347               7.80   -12000.00
04348             -25.00   -12800.00
04349              25.00   -13600.00
04350             -25.00   -13600.00
04351              19.40   -14400.00
04352               2.20   -14400.00
04353             -25.00   -16000.00
04354              25.00   -16800.00
04355             -18.20   -16800.00
04356             -17.20   -17600.00
04357              25.00   -17600.00
04358              -3.80   -18400.00
04359             -25.00   -19200.00
04360              25.00   -20000.00
04361               0.60   -20000.00
04362             -25.00   -20000.00
04363              25.00   -21600.00
04364              -9.80   -22400.00
04365              -9.80   -22400.00
04366              20.00   -23200.00
04367             -13.80   -24000.00
04368              -2.20   -24000.00
04369              14.60   -24000.00
04370              -6.20   -24000.00
04371              -1.20   -25600.00
04372              15.60   -25600.00
04373             -14.00   -26400.00
04374               5.20   -26400.00
04375               9.00   -27200.00
04376             -11.80   -27200.00
04377               9.00   -28000.00
04378               3.60   -27200.00
04379              -4.60   -28800.00
04380               5.00   -28800.00
04381               4.40   -28800.00
04382              -4.40   -29600.00
04383               5.40   -29600.00
04384               3.00   -29600.00
04385              -4.40   -30400.00
04386               6.60   -30400.00
04387               1.20   -30400.00
04388              -1.80   -31200.00
04389               6.20   -32000.00
04390               0.40   -32000.00
04391              -0.60   -32800.00
04392               5.40   -32000.00
04393              -0.40   -32800.00
04394               0.40   -32800.00
04395               4.40   -33600.00
04396               0.20   -33600.00
04397               2.80   -32800.00
04398               2.60   -33600.00
04399               0.60   -33600.00
04400               2.00   -33600.00
04401               2.00   -33600.00
04402               1.80   -33600.00
04403               2.40   -33600.00
04404               2.80   -33600.00
04405               1.00   -33600.00
04406               3.40   -33600.00
04407               1.80   -33600.00
04408               0.40   -33600.00
04409               3.60   -33600.00
04410               1.20   -34400.00
04411               2.00   -33600.00
04412               3.40   -34400.00
04413               1.00   -33600.00
04414               2.60   -34400.00
04415               2.80   -33600.00
04416               1.40   -34400.00
04417               2.20   -33600.00
04418               2.00   -33600.00
04419               1.80   -33600.00
04420               2.00   -32800.00
04421               2.20   -33600.00
04422               1.40   -33600.00
04423               2.20   -32800.00
04424               2.20   -32800.00
04425               1.20   -32800.00
04426               2.40   -32000.00
04427               2.00   -32000.00
04428               1.40   -32800.00
04429               2.80   -32000.00
04430               1.80   -32000.00
04431               1.80   -32000.00
04432               2.80   -31200.00
04433               1.20   -31200.00
04434               1.20   -30400.00
04435               2.00   -30400.00
04436               1.20   -29600.00
04437               1.60   -29600.00
04438               2.60   -29600.00
04439               1.00   -29600.00
04440               1.80   -28000.00
04441               1.80   -28800.00
04442               1.40   -28800.00
04443               2.00   -27200.00
04444               1.80   -27200.00
04445               0.60   -27200.00
04446               1.80   -26400.00
04447               1.80   -25600.00
04448               1.00   -25600.00
04449               2.00   -25600.00
04450               1.40   -24800.00
04451               1.20   -24000.00
04452               1.80   -23200.00
04453               1.00   -24000.00
04454               1.20   -23200.00
04455               1.80   -22400.00
04456               1.20   -21600.00
04457               1.20   -21600.00
04458               1.20   -20800.00
04459               1.00   -20800.00
04460               1.20   -20000.00
04461               1.60   -18400.00
04462               1.20   -18400.00
04463               1.00   -18400.00
04464               1.20   -17600.00
04465               1.00   -17600.00
04466               1.20   -16800.00
04467               1.00   -16000.00
04468               0.60   -15200.00
04469               1.20   -14400.00
04470               0.60   -13600.00
04471               0.80   -13600.00
04472               0.80   -12800.00
04473               0.40   -12800.00
04474               1.00   -12000.00
04475               0.80   -12000.00
04476               0.40   -10400.00
04477               0.40   -10400.00
04478               0.20    -9600.00
04479               0.80    -9600.00
04480               0.60    -8000.00
04481               0.40    -8000.00
04482               0.40    -7200.00
04483               0.40    -6400.00
04484               0.20    -6400.00
04485               0.20    -4800.00
04486               0.20    -4000.00
04487               0.00    -4000.00
04488               0.20    -4000.00
04489               0.00    -3200.00
04490              -0.40    -2400.00
04491               0.00    -1600.00
04492               0.20     -800.00
04493              -0.20        0.00
04494               0.20        0.00
04495               0.60     1600.00
04496               3.60     1600.00
04497               0.20     2400.00
04498              -1.80     2400.00
04499               0.60     3200.00
04500               0.60     4000.00
04501              -1.20     4000.00
04502              10.80     5600.00
04503              25.00     7200.00
04504             -25.00     8000.00
04505             -25.00     8000.00
04506              24.80     8800.00
04507               2.40     8800.00
04508             -25.00     8800.00
04509              25.00     9600.00
04510              -0.60    10400.00
04511             -25.00    11200.00
04512              25.00    12000.00
04513             -25.00    12000.00
04514               1.00    12800.00
04515              25.00    12800.00
04516             -25.00    14400.00
04517              25.00    14400.00
04518             -25.00    15200.00
04519             -25.00    15200.00
04520              25.00    16000.00
04521             -25.00    16000.00
04522               4.20    17600.00
04523              25.00    17600.00
04524             -24.60    18400.00
04525             -14.00    19200.00
04526              25.00    19200.00
04527             -18.40    20800.00
04528             -16.60    21600.00
04529              25.00    21600.00
04530             -25.00    22400.00
04531               7.80    22400.00
04532              11.80    22400.00
04533             -25.00    24000.00
04534              11.60    24000.00
04535               7.40    24800.00
04536             -14.60    24800.00
04537               8.60    24800.00
04538               6.20    25600.00
04539             -25.00    25600.00
04540              16.20    26400.00
04541              -5.80    27200.00
04542             -14.60    27200.00
04543              15.00    27200.00
04544              -3.00    28000.00
04545              -5.40    28800.00
04546               3.60    28800.00
04547              -3.40    28800.00
04548             -10.00    29600.00
04549               5.40    30400.00
04550              -7.60    30400.00
04551              -5.20    30400.00
04552               6.60    30400.00
04553              -5.20    30400.00
04554              -2.00    32800.00
04555               4.40    31200.00
04556              -7.40    32000.00
04557              -3.80    32800.00
04558               0.40    32800.00
04559              -9.80    32000.00
04560               0.20    33600.00
04561               0.20    33600.00
04562              -4.20    32800.00
04563               2.60    33600.00
04564              -3.00    33600.00
04565              -4.80    33600.00
04566              -2.40    34400.00
04567              -4.60    33600.00
04568              -4.00    34400.00
04569              -0.60    33600.00
04570              -2.00    33600.00
04571              -3.80    33600.00
04572               1.20    34400.00
04573              -3.40    34400.00
04574              -3.80    34400.00
04575              -0.80    34400.00
04576              -6.00    34400.00
04577              -2.40    34400.00
04578              -1.20    34400.00
04579              -4.60    33600.00
04580              -0.60    34400.00
04581              -1.80    34400.00
04582              -2.60    34400.00
04583              -2.00    34400.00
04584              -3.40    34400.00
04585              -3.40    33600.00
04586              -3.00    34400.00
04587              -2.20    33600.00
04588              -2.80    33600.00
04589              -1.80    33600.00
04590              -1.80    33600.00
04591              -3.00    33600.00
04592              -1.80    33600.00
04593              -3.40    32800.00
04594              -3.40    32800.00
04595              -2.00    32000.00
04596              -3.00    32000.00
04597              -2.40    32000.00
04598              -2.00    32000.00
04599              -2.40    31200.00
04600              -1.80    31200.00
04601              -2.00    31200.00
04602              -2.80    30400.00
04603              -2.80    30400.00
04604              -2.60    30400.00
04605              -2.60    28800.00
04606              -2.60    28800.00
04607              -2.20    28800.00
04608              -2.20    28800.00
04609              -2.00    28800.00
04610              -2.00    27200.00
04611              -2.80    27200.00
04612              -2.00    27200.00
04613              -2.00    27200.00
04614              -2.60    25600.00
04615              -2.20    25600.00
04616              -2.80    25600.00
04617              -2.20    24800.00
04618              -2.00    24000.00
04619              -2.00    24000.00
04620              -2.00    24000.00
04621              -2.20    23200.00
04622              -2.40    22400.00
04623              -2.60    22400.00
04624              -2.40    21600.00
04625              -2.20    20800.00
04626              -2.20    20800.00
04627              -1.20    20000.00
04628              -1.80    19200.00
04629              -2.00    18400.00
04630              -2.00    18400.00
04631              -2.00    17600.00
04632              -2.00    17600.00
04633              -1.80    16800.00
04634              -2.20    16000.00
04635              -2.00    15200.00
04636              -1.80    15200.00
04637              -1.40    14400.00
04638              -1.60    13600.00
04639              -1.40    13600.00
04640              -1.40    12800.00
04641              -1.40    12000.00
04642              -1.80    12000.00
04643              -1.80    11200.00
04644              -1.20     9600.00
04645              -1.00     9600.00
04646              -1.80     8800.00
04647              -1.00     8800.00
04648              -1.40     8000.00
04649              -1.60     8000.00
04650              -1.00     6400.00
04651              -1.20     6400.00
04652              -1.20     5600.00
04653              -0.60     4800.00
04654              -1.20     4000.00
04655              -0.60     3200.00
04656              -0.80     2400.00
04657              -1.20     1600.00
04658              -0.60     1600.00
04659              -0.40      800.00
04660              -0.60        0.00
04661              -0.20        0.00
04662               1.00     -800.00
04663               3.60    -1600.00
04664              -1.40    -1600.00
04665              -0.60    -3200.00
04666               1.40    -3200.00
04667               0.40    -4000.00
04668              -0.20    -4000.00
04669               6.60    -4800.00
04670              24.60    -6400.00
04671               5.00    -7200.00
04672             -25.00    -8000.00
04673               0.20    -8000.00
04674              25.00    -8800.00
04675             -25.00    -9600.00
04676             -19.40    -8800.00
04677              25.00   -10400.00
04678             -25.00   -10400.00
04679             -25.00   -11200.00
04680              25.00   -12000.00
04681             -25.00   -12000.00
04682              -4.40   -13600.00
04683              25.00   -13600.00
04684             -25.00   -14400.00
04685              25.00   -15200.00
04686             -25.00   -16000.00
04687               2.00   -16000.00
04688              25.00   -16800.00
04689             -25.00   -16800.00
04690               5.20   -17600.00
04691              25.00   -17600.00
04692             -21.40   -19200.00
04693             -11.80   -19200.00
04694              25.00   -20000.00
04695             -25.00   -20800.00
04696              -2.40   -20800.00
04697              25.00   -20800.00
04698             -23.80   -22400.00
04699               7.80   -22400.00
04700               9.20   -23200.00
04701             -15.40   -24000.00
04702               6.80   -24000.00
04703               9.40   -24000.00
04704             -10.00   -24800.00
04705               9.00   -25600.00
04706               6.20   -25600.00
04707             -13.40   -25600.00
04708              13.00   -26400.00
04709              -1.20   -27200.00
04710              -5.20   -27200.00
04711              10.60   -28000.00
04712              -1.40   -28000.00
04713              -2.20   -28800.00
04714               5.80   -28800.00
04715               0.80   -29600.00
04716              -1.80   -28800.00
04717               6.40   -29600.00
04718              -0.60   -29600.00
04719              -0.60   -30400.00
04720               5.80   -30400.00
04721              -0.80   -31200.00
04722               1.40   -30400.00
04723               5.60   -31200.00
04724              -1.00   -32000.00
04725               1.40   -32800.00
04726               4.20   -32000.00
04727              -1.20   -32800.00
04728               2.20   -32800.00
04729               2.80   -32800.00
04730               1.00   -32800.00
04731               3.40   -33600.00
04732               1.40   -33600.00
04733               1.20   -33600.00
04734               2.00   -33600.00
04735               2.00   -33600.00
04736               1.40   -33600.00
04737               2.80   -33600.00
04738               2.20   -33600.00
04739               1.20   -33600.00
04740               3.60   -33600.00
04741               0.80   -33600.00
04742               1.40   -33600.00
04743               3.60   -33600.00
04744               1.20   -33600.00
04745               2.60   -33600.00
04746               2.20   -33600.00
04747               1.00   -33600.00
04748               2.60   -33600.00
04749               2.00   -33600.00
04750               1.60   -33600.00
04751               2.20   -33600.00
04752               2.00   -33600.00
04753               1.40   -33600.00
04754               2.20   -33600.00
04755               2.20   -33600.00
04756               1.40   -33600.00
04757               2.60   -32800.00
04758               2.00   -32800.00
04759               1.20   -32800.00
04760               2.80   -32000.00
04761               1.20   -32800.00
04762               1.80   -32000.00
04763               3.00   -32000.00
04764               0.60   -32000.00
04765               1.80   -31200.00
04766               2.40   -30400.00
04767               1.00   -30400.00
04768               2.20   -30400.00
04769               2.00   -29600.00
04770               1.00   -29600.00
04771               2.20   -29600.00
04772               1.80   -29600.00
04773               1.40   -28800.00
04774               2.60   -28800.00
04775               1.60   -28000.00
04776               1.00   -28000.00
04777               2.60   -27200.00
04778               1.00   -27200.00
04779               1.00   -27200.00
04780               2.60   -26400.00
04781               1.40   -26400.00
04782               1.00   -25600.00
04783               2.00   -24800.00
04784               1.20   -24800.00
04785               1.60   -24000.00
04786               1.60   -23200.00
04787               1.20   -23200.00
04788               1.60   -23200.00
04789               1.40   -22400.00
04790               1.40   -22400.00
04791               1.40   -21600.00
04792               1.20   -20800.00
04793               1.00   -20000.00
04794               1.00   -20000.00
04795               2.00   -18400.00
04796               1.20   -18400.00
04797               1.00   -17600.00
04798               1.40   -17600.00
04799               1.20   -16800.00
04800               1.20   -16800.00
04801               1.20   -16000.00
04802               1.00   -15200.00
04803               0.60   -15200.00
04804               0.40   -14400.00
04805               0.60   -13600.00
04806               1.00   -12800.00
04807               0.80   -12800.00
04808               1.00   -11200.00
04809               0.40   -11200.00
04810               0.20   -10400.00
04811               0.20    -9600.00
04812               0.40    -9600.00
04813               0.60    -8800.00
04814               0.40    -8000.00
04815               0.60    -8000.00
04816               0.40    -7200.00
04817              -0.20    -6400.00
04818               0.20    -4800.00
04819              -0.20    -4800.00
04820              -0.20    -4000.00
04821               0.20    -4000.00
04822              -0.40    -3200.00
04823              -0.20    -2400.00
04824               0.40    -1600.00
04825              -0.60    -1600.00
04826               0.20     -800.00
04827               1.00        0.00
04828              -0.60      800.00
04829               0.60     1600.00
04830               4.20     1600.00
04831              -2.20     1600.00
04832              -1.20     3200.00
04833               2.00     3200.00
04834              -0.20     3200.00
04835               1.00     4800.00
04836              18.80     6400.00
04837              25.00     7200.00
04838             -25.00     8000.00
04839             -20.20     8000.00
04840              25.00     8800.00
04841             -23.60     8000.00
04842             -17.00     9600.00
04843              25.00     9600.00
04844             -25.00    10400.00
04845               6.60    11200.00
04846              25.00    12000.00
04847             -25.00    12000.00
04848              25.00    12800.00
04849             -14.00    12800.00
04850             -25.00    14400.00
04851              25.00    14400.00
04852             -25.00    15200.00
04853              25.00    16000.00
04854              25.00    16000.00
04855             -25.00    16800.00
04856              25.00    17600.00
04857              15.80    18400.00
04858             -25.00    18400.00
04859              -0.40    19200.00
04860              25.00    19200.00
04861             -25.00    20800.00
04862              14.80    21600.00
04863              23.40    21600.00
04864             -25.00    22400.00
04865              25.00    23200.00
04866             -10.80    22400.00
04867             -15.60    24000.00
04868              12.60    24000.00
04869              -2.20    24800.00
04870             -12.40    25600.00
04871              16.20    24800.00
04872              -6.80    25600.00
04873             -14.80    26400.00
04874              17.00    27200.00
04875             -17.00    27200.00
04876              -0.20    27200.00
04877               9.00    27200.00
04878             -10.00    28000.00
04879              -1.40    28800.00
04880               2.60    28800.00
04881              -7.40    28800.00
04882              -3.40    29600.00
04883               5.20    30400.00
04884              -8.40    29600.00
04885              -1.20    30400.00
04886               2.00    30400.00
04887              -9.20    31200.00
04888               1.00    31200.00
04889               0.60    32000.00
04890              -7.80    32000.00
04891               1.00    31200.00
04892              -1.20    32800.00
04893              -6.20    32800.00
04894               0.60    32800.00
04895              -3.80    33600.00
04896              -2.80    33600.00
04897              -0.20    33600.00
04898              -4.20    33600.00
04899              -2.80    33600.00
04900              -3.00    33600.00
04901              -3.00    33600.00
04902              -2.20    33600.00
04903              -0.60    34400.00
04904              -2.80    34400.00
04905              -2.80    33600.00
04906              -0.60    34400.00
04907              -5.20    34400.00
04908              -2.20    34400.00
04909              -1.40    34400.00
04910              -4.40    34400.00
04911               0.20    34400.00
04912              -2.40    34400.00
04913              -4.40    34400.00
04914              -1.80    34400.00
04915              -2.80    35200.00
04916              -3.00    34400.00
04917              -2.60    34400.00
04918              -2.60    33600.00
04919              -2.60    33600.00
04920              -2.20    34400.00
04921              -2.20    33600.00
04922              -3.00    33600.00
04923              -2.00    33600.00
04924              -3.00    33600.00
04925              -2.80    32800.00
04926              -2.00    32800.00
04927              -3.00    32000.00
04928              -1.80    32000.00
04929              -2.00    32800.00
04930              -2.80    32000.00
04931              -2.20    32000.00
04932              -2.80    31200.00
04933              -2.60    32000.00
04934              -1.40    31200.00
04935              -3.00    30400.00
04936              -2.60    30400.00
04937              -2.00    30400.00
04938              -2.40    30400.00
04939              -2.80    29600.00
04940              -2.20    28800.00
04941              -2.20    28800.00
04942              -2.80    28000.00
04943              -2.00    28000.00
04944              -2.40    27200.00
04945              -3.40    27200.00
04946              -2.00    27200.00
04947              -2.20    26400.00
04948              -2.20    26400.00
04949              -2.00    25600.00
04950              -2.60    25600.00
04951              -2.00    24800.00
04952              -2.40    24000.00
04953              -2.20    24000.00
04954              -2.00    24000.00
04955              -2.80    22400.00
04956              -1.80    22400.00
04957              -2.20    21600.00
04958              -3.20    21600.00
04959              -2.00    20800.00
04960              -2.00    20800.00
04961              -1.80    20000.00
04962              -1.20    19200.00
04963              -2.20    19200.00
04964              -2.60    18400.00
04965              -2.00    17600.00
04966              -1.80    17600.00
04967              -2.20    16000.00
04968              -1.40    16000.00
04969              -2.00    15200.00
04970              -1.80    14400.00
04971              -1.20    15200.00
04972              -2.00    14400.00
04973              -1.40    12800.00
04974              -1.00    12800.00
04975              -2.00    12000.00
04976              -1.80    11200.00
04977              -1.20    10400.00
04978              -1.40     9600.00
04979              -1.80     9600.00
04980              -0.60     8800.00
04981              -1.40     8800.00
04982              -1.40     7200.00
04983              -0.60     7200.00
04984              -1.00     5600.00
04985              -1.20     6400.00
04986              -0.60     5600.00
04987              -1.20     4800.00
04988              -0.60     3200.00
04989              -0.60     3200.00
04990              -1.40     2400.00
04991              -1.00     2400.00
04992              -0.60     1600.00
04993              -1.00      800.00
04994              -0.20        0.00
04995              -0.20     -800.00
04996               1.80     -800.00
04997               2.60    -1600.00
04998              -2.20    -1600.00
04999               0.60    -2400.00
05000               1.60    -3200.00
