Unit:(mV)
                     CH1         CH2
Frequency              ? 261.054 kHz
00001               0.00    -2800.00
00002              -8.00    -2800.00
00003             -10.00    -2600.00
00004             -10.00    -2600.00
00005              -2.00    -2400.00
00006               4.00    -2400.00
00007               6.00    -2400.00
00008               0.00    -2400.00
00009              -8.00    -2400.00
00010              -8.00    -2200.00
00011               0.00    -2000.00
00012              -2.00    -2000.00
00013              -2.00    -2000.00
00014               2.00    -2000.00
00015               2.00    -2000.00
00016              -2.00    -2000.00
00017              -8.00    -1800.00
00018             -10.00    -1800.00
00019              -6.00    -1600.00
00020               0.00    -1600.00
00021               6.00    -1400.00
00022               4.00    -1400.00
00023              -6.00    -1400.00
00024              -6.00    -1400.00
00025              -8.00    -1000.00
00026              -2.00    -1200.00
00027               0.00    -1000.00
00028               0.00     -800.00
00029               0.00    -1000.00
00030              -2.00     -800.00
00031               2.00     -800.00
00032              -2.00     -800.00
00033              -6.00     -600.00
00034              -2.00     -800.00
00035              -4.00     -600.00
00036               0.00     -400.00
00037               0.00     -400.00
00038               0.00     -400.00
00039              -2.00     -400.00
00040              -6.00        0.00
00041              -4.00        0.00
00042               0.00        0.00
00043               0.00        0.00
00044               0.00      200.00
00045               0.00      200.00
00046              -2.00        0.00
00047               0.00      200.00
00048               0.00      400.00
00049              -2.00      400.00
00050               6.00      400.00
00051               8.00      400.00
00052               0.00      600.00
00053              -6.00      400.00
00054              -6.00      600.00
00055              18.00      800.00
00056             136.00     1000.00
00057             110.00     1000.00
00058            -254.00      800.00
00059            -254.00      800.00
00060             246.00     1000.00
00061             246.00     1200.00
00062            -254.00     1000.00
00063            -254.00     1000.00
00064             246.00     1600.00
00065             246.00     1600.00
00066            -254.00     1000.00
00067            -254.00     1600.00
00068             246.00     1800.00
00069             166.00     1600.00
00070            -254.00     1600.00
00071              34.00     2000.00
00072             118.00     1800.00
00073            -130.00     1800.00
00074              82.00     2000.00
00075              86.00     2000.00
00076            -190.00     1800.00
00077              58.00     2200.00
00078              82.00     2400.00
00079            -120.00     2200.00
00080              68.00     2400.00
00081               6.00     2400.00
00082            -138.00     2400.00
00083             160.00     2600.00
00084              40.00     2400.00
00085            -232.00     2600.00
00086              96.00     2800.00
00087             122.00     2800.00
00088            -138.00     2800.00
00089              30.00     3000.00
00090              26.00     2800.00
00091             -72.00     3000.00
00092              66.00     3200.00
00093             -10.00     3200.00
00094             -56.00     3200.00
00095              54.00     3200.00
00096             -32.00     3200.00
00097             -22.00     3400.00
00098              60.00     3400.00
00099             -48.00     3400.00
00100             -18.00     3200.00
00101              48.00     3600.00
00102             -32.00     3400.00
00103             -14.00     3600.00
00104              26.00     3600.00
00105             -16.00     3400.00
00106             -16.00     3600.00
00107              -2.00     3600.00
00108               0.00     3600.00
00109              10.00     3800.00
00110             -10.00     3800.00
00111             -16.00     3800.00
00112               8.00     4000.00
00113              -8.00     4000.00
00114             -18.00     3800.00
00115               8.00     4000.00
00116               0.00     4000.00
00117             -22.00     4000.00
00118               2.00     4200.00
00119               2.00     4000.00
00120             -22.00     4000.00
00121              -6.00     4000.00
00122               2.00     4200.00
00123              -2.00     4000.00
00124              -6.00     4200.00
00125             -10.00     4200.00
00126              -6.00     4200.00
00127              -2.00     4200.00
00128             -14.00     4200.00
00129               0.00     4200.00
00130               6.00     4400.00
00131             -14.00     4400.00
00132             -10.00     4200.00
00133              -2.00     4400.00
00134             -10.00     4200.00
00135              -6.00     4200.00
00136               0.00     4400.00
00137              -6.00     4200.00
00138             -10.00     4200.00
00139             -10.00     4400.00
00140              -8.00     4200.00
00141               0.00     4200.00
00142              -2.00     4200.00
00143              -6.00     4200.00
00144              -2.00     4400.00
00145              -8.00     4200.00
00146             -14.00     4200.00
00147              -6.00     4400.00
00148              -8.00     4400.00
00149              -2.00     4200.00
00150               4.00     4400.00
00151              -6.00     4200.00
00152             -10.00     4200.00
00153              -6.00     4200.00
00154              -2.00     4400.00
00155              -2.00     4200.00
00156              -4.00     4200.00
00157              -2.00     4200.00
00158              -2.00     4200.00
00159              -8.00     4200.00
00160              -8.00     4200.00
00161              -2.00     4200.00
00162               0.00     4200.00
00163              -6.00     4000.00
00164              -6.00     4200.00
00165              -2.00     4000.00
00166              -8.00     4200.00
00167              -6.00     4200.00
00168               0.00     4000.00
00169              -2.00     4000.00
00170              -6.00     3800.00
00171              -8.00     4000.00
00172              -6.00     3800.00
00173              -8.00     4000.00
00174              -2.00     3800.00
00175              -2.00     3600.00
00176               0.00     3600.00
00177              -6.00     3600.00
00178              -8.00     3600.00
00179              -6.00     3600.00
00180              -8.00     3400.00
00181              -8.00     3400.00
00182              -6.00     3400.00
00183              -2.00     3400.00
00184              -8.00     3400.00
00185             -10.00     3400.00
00186              -6.00     3400.00
00187              -6.00     3200.00
00188              -6.00     3200.00
00189              -2.00     3200.00
00190              -2.00     3000.00
00191              -8.00     3000.00
00192              -6.00     3200.00
00193              -8.00     2800.00
00194              -6.00     2800.00
00195              -8.00     2800.00
00196              -2.00     2800.00
00197              -6.00     2800.00
00198              -8.00     2600.00
00199              -8.00     2800.00
00200              -6.00     2600.00
00201              -2.00     2600.00
00202              -4.00     2400.00
00203              -2.00     2400.00
00204              -6.00     2400.00
00205              -6.00     2200.00
00206              -8.00     2000.00
00207              -8.00     2200.00
00208              -2.00     2000.00
00209              -2.00     2000.00
00210              -2.00     2000.00
00211              -2.00     1800.00
00212              -6.00     2000.00
00213              -8.00     1800.00
00214              -2.00     1800.00
00215              -2.00     1600.00
00216              -6.00     1600.00
00217              -6.00     1600.00
00218              -6.00     1600.00
00219              -2.00     1400.00
00220              -6.00     1400.00
00221              -2.00     1400.00
00222              -2.00     1200.00
00223              -2.00     1200.00
00224              -2.00     1200.00
00225              -6.00     1000.00
00226              -2.00     1000.00
00227              -6.00     1000.00
00228              -6.00      800.00
00229              -2.00      800.00
00230               0.00      800.00
00231              -2.00      600.00
00232              -6.00      800.00
00233              -6.00      600.00
00234              -4.00      400.00
00235              -2.00      200.00
00236              -6.00      200.00
00237              -2.00      200.00
00238               0.00      200.00
00239               0.00        0.00
00240               0.00      200.00
00241               6.00        0.00
00242               2.00        0.00
00243              -2.00        0.00
00244             -10.00        0.00
00245              -6.00     -200.00
00246               4.00     -400.00
00247              30.00     -400.00
00248             126.00     -400.00
00249              86.00     -800.00
00250            -254.00    -1000.00
00251            -254.00     -600.00
00252             246.00     -600.00
00253             246.00     -800.00
00254            -102.00    -1200.00
00255            -254.00     -800.00
00256             118.00     -800.00
00257             246.00    -1200.00
00258            -208.00    -1200.00
00259            -254.00    -1000.00
00260             192.00    -1400.00
00261             238.00    -1200.00
00262            -116.00    -1400.00
00263             -52.00    -1600.00
00264             -56.00    -1600.00
00265             -72.00    -1600.00
00266             182.00    -1800.00
00267             102.00    -1800.00
00268            -226.00    -1600.00
00269             -58.00    -2000.00
00270             158.00    -2000.00
00271              10.00    -2000.00
00272             -34.00    -2200.00
00273             -56.00    -2200.00
00274             -28.00    -2000.00
00275             102.00    -2200.00
00276              30.00    -2400.00
00277            -144.00    -2400.00
00278               8.00    -2400.00
00279             106.00    -2400.00
00280             -28.00    -2400.00
00281             -44.00    -2400.00
00282               0.00    -2600.00
00283               8.00    -2600.00
00284              20.00    -2800.00
00285               0.00    -2800.00
00286             -40.00    -2800.00
00287               2.00    -2800.00
00288              26.00    -2800.00
00289               0.00    -3000.00
00290             -16.00    -3000.00
00291             -10.00    -3000.00
00292               4.00    -3000.00
00293              16.00    -3200.00
00294              -4.00    -3000.00
00295             -22.00    -3200.00
00296              10.00    -3400.00
00297              18.00    -3400.00
00298             -16.00    -3200.00
00299             -22.00    -3200.00
00300              14.00    -3200.00
00301              14.00    -3200.00
00302              -2.00    -3600.00
00303              -8.00    -3600.00
00304             -10.00    -3600.00
00305              -2.00    -3600.00
00306               2.00    -3600.00
00307               2.00    -3600.00
00308               2.00    -3600.00
00309              -6.00    -3800.00
00310              -2.00    -3800.00
00311               0.00    -3800.00
00312             -10.00    -3800.00
00313              -8.00    -3800.00
00314               8.00    -3800.00
00315               6.00    -3800.00
00316              -6.00    -3800.00
00317             -10.00    -4000.00
00318              -2.00    -4000.00
00319               0.00    -3800.00
00320              -2.00    -4000.00
00321               0.00    -3800.00
00322              -2.00    -4000.00
00323              -2.00    -4000.00
00324              -2.00    -4000.00
00325               0.00    -4000.00
00326              -2.00    -4000.00
00327              -8.00    -4000.00
00328              -2.00    -3800.00
00329               6.00    -4000.00
00330               2.00    -4000.00
00331              -2.00    -4200.00
00332              -8.00    -4200.00
00333              -6.00    -4000.00
00334              -2.00    -4000.00
00335               0.00    -4000.00
00336               0.00    -4000.00
00337               0.00    -4000.00
00338              -8.00    -4000.00
00339              -6.00    -4200.00
00340               0.00    -3800.00
00341               6.00    -3800.00
00342               6.00    -4000.00
00343               0.00    -3800.00
00344              -8.00    -4000.00
00345              -8.00    -4000.00
00346               0.00    -3800.00
00347               4.00    -3800.00
00348               0.00    -3800.00
00349               4.00    -3800.00
00350               0.00    -3800.00
00351              -6.00    -3800.00
00352              -6.00    -3800.00
00353               0.00    -3800.00
00354               2.00    -3800.00
00355               6.00    -3800.00
00356              -2.00    -3800.00
00357              -2.00    -3800.00
00358              -8.00    -3600.00
00359              -2.00    -3600.00
00360               2.00    -3600.00
00361               2.00    -3600.00
00362              -2.00    -3600.00
00363              -2.00    -3600.00
00364              -2.00    -3600.00
00365               0.00    -3400.00
00366               0.00    -3400.00
00367               0.00    -3400.00
00368               0.00    -3200.00
00369              -2.00    -3200.00
00370              -2.00    -3200.00
00371              -2.00    -3200.00
00372               0.00    -3200.00
00373              -2.00    -3200.00
00374              -2.00    -3200.00
00375               0.00    -3200.00
00376              -2.00    -3000.00
00377              -2.00    -3000.00
00378              -2.00    -3000.00
00379              -2.00    -2800.00
00380              -2.00    -2800.00
00381               0.00    -2800.00
00382               0.00    -2800.00
00383              -4.00    -2800.00
00384              -2.00    -2800.00
00385              -6.00    -2600.00
00386              -2.00    -2600.00
00387              -6.00    -2400.00
00388              -2.00    -2400.00
00389               0.00    -2400.00
00390              -2.00    -2400.00
00391              -2.00    -2200.00
00392              -2.00    -2200.00
00393              -2.00    -2200.00
00394              -2.00    -2200.00
00395               0.00    -2000.00
00396              -2.00    -2000.00
00397              -2.00    -2000.00
00398              -6.00    -2200.00
00399              -2.00    -2000.00
00400               0.00    -1800.00
00401              -2.00    -1600.00
00402              -2.00    -1600.00
00403               2.00    -1600.00
00404              -2.00    -1600.00
00405              -6.00    -1400.00
00406              -8.00    -1400.00
00407               0.00    -1400.00
00408               6.00    -1200.00
00409               0.00    -1000.00
00410              -8.00    -1000.00
00411             -10.00    -1200.00
00412              -8.00    -1000.00
00413               0.00     -800.00
00414               4.00     -800.00
00415               0.00     -800.00
00416              -6.00     -800.00
00417              -6.00     -800.00
00418              -2.00     -600.00
00419               0.00     -400.00
00420               0.00     -400.00
00421              -2.00     -400.00
00422               0.00     -400.00
00423              -2.00     -400.00
00424              -2.00     -200.00
00425              -2.00     -200.00
00426              -2.00        0.00
00427               0.00        0.00
00428              -2.00      200.00
00429              -2.00      200.00
00430              -2.00      200.00
00431               0.00      200.00
00432               6.00      400.00
00433              12.00      400.00
00434               6.00      400.00
00435             -10.00      600.00
00436             -10.00      600.00
00437               0.00      800.00
00438              22.00      800.00
00439             132.00     1000.00
00440             126.00     1000.00
00441            -254.00      800.00
00442            -254.00      800.00
00443             246.00     1200.00
00444             246.00     1400.00
00445            -162.00     1200.00
00446            -254.00     1000.00
00447             194.00     1600.00
00448             246.00     1600.00
00449            -254.00     1200.00
00450            -254.00     1400.00
00451             246.00     1800.00
00452             222.00     1600.00
00453            -254.00     1600.00
00454              -2.00     2000.00
00455             144.00     1800.00
00456            -122.00     1800.00
00457              68.00     1800.00
00458             100.00     2000.00
00459            -202.00     2000.00
00460              38.00     2400.00
00461             106.00     2200.00
00462            -108.00     2000.00
00463              58.00     2400.00
00464              20.00     2400.00
00465            -160.00     2400.00
00466             142.00     2600.00
00467              72.00     2600.00
00468            -230.00     2600.00
00469              74.00     2800.00
00470             136.00     2600.00
00471            -138.00     2800.00
00472              16.00     3000.00
00473              34.00     2800.00
00474             -78.00     2800.00
00475              62.00     3000.00
00476               6.00     3200.00
00477             -64.00     3200.00
00478              50.00     3400.00
00479             -30.00     3200.00
00480             -24.00     3200.00
00481              66.00     3400.00
00482             -40.00     3200.00
00483             -30.00     3400.00
00484              42.00     3600.00
00485             -34.00     3600.00
00486             -18.00     3600.00
00487              34.00     3600.00
00488              -8.00     3600.00
00489             -18.00     3600.00
00490              -8.00     3600.00
00491               0.00     3600.00
00492              14.00     3800.00
00493              -8.00     3800.00
00494             -18.00     3800.00
00495               6.00     4000.00
00496              -8.00     3800.00
00497             -18.00     3800.00
00498              14.00     4000.00
00499              10.00     4000.00
00500             -18.00     4000.00
00501               0.00     4000.00
00502               4.00     4200.00
00503             -22.00     4000.00
00504              -8.00     4000.00
00505               6.00     4000.00
00506              -2.00     4200.00
00507              -4.00     4200.00
00508             -10.00     4400.00
00509              -6.00     4200.00
00510               0.00     4200.00
00511             -12.00     4200.00
00512              -2.00     4400.00
00513               8.00     4200.00
00514             -16.00     4400.00
00515             -12.00     4200.00
00516               0.00     4200.00
00517              -6.00     4400.00
00518              -8.00     4400.00
00519               0.00     4400.00
00520              -6.00     4400.00
00521              -8.00     4400.00
00522             -10.00     4400.00
00523             -10.00     4200.00
00524              -2.00     4400.00
00525              -4.00     4400.00
00526              -6.00     4200.00
00527              -2.00     4200.00
00528              -6.00     4200.00
00529             -14.00     4400.00
00530              -6.00     4400.00
00531              -6.00     4400.00
00532              -8.00     4200.00
00533               2.00     4400.00
00534              -2.00     4400.00
00535             -12.00     4400.00
00536              -6.00     4200.00
00537               0.00     4200.00
00538              -4.00     4200.00
00539              -6.00     4200.00
00540              -8.00     4200.00
00541              -2.00     4200.00
00542              -8.00     4200.00
00543             -14.00     4200.00
00544              -2.00     4000.00
00545               2.00     4000.00
00546              -6.00     4000.00
00547              -6.00     4200.00
00548              -2.00     4000.00
00549              -8.00     4000.00
00550             -10.00     4000.00
00551              -2.00     4000.00
00552              -2.00     4000.00
00553              -4.00     4000.00
00554              -8.00     4000.00
00555              -6.00     3800.00
00556              -8.00     3600.00
00557              -4.00     3800.00
00558              -2.00     3600.00
00559               0.00     3800.00
00560              -6.00     3600.00
00561              -6.00     3800.00
00562              -8.00     3600.00
00563              -6.00     3600.00
00564              -6.00     3400.00
00565              -2.00     3600.00
00566              -2.00     3400.00
00567              -4.00     3400.00
00568              -8.00     3400.00
00569              -8.00     3200.00
00570              -6.00     3200.00
00571              -2.00     3200.00
00572              -2.00     3200.00
00573              -2.00     3200.00
00574              -6.00     3000.00
00575              -6.00     3200.00
00576              -8.00     2800.00
00577              -2.00     3000.00
00578              -8.00     2800.00
00579              -2.00     2800.00
00580              -6.00     3000.00
00581              -4.00     2600.00
00582             -10.00     2800.00
00583              -4.00     2600.00
00584              -2.00     2600.00
00585              -4.00     2600.00
00586              -4.00     2400.00
00587              -2.00     2400.00
00588              -8.00     2200.00
00589              -8.00     2400.00
00590              -6.00     2000.00
00591              -2.00     2000.00
00592              -4.00     2000.00
00593              -2.00     2000.00
00594              -2.00     2000.00
00595              -6.00     1800.00
00596              -8.00     1800.00
00597              -4.00     1800.00
00598              -2.00     1600.00
00599              -6.00     1600.00
00600              -2.00     1600.00
00601              -6.00     1400.00
00602              -2.00     1400.00
00603              -6.00     1400.00
00604              -6.00     1200.00
00605               0.00     1200.00
00606              -2.00     1200.00
00607              -6.00     1200.00
00608              -6.00     1000.00
00609              -6.00     1000.00
00610              -2.00      800.00
00611              -4.00      800.00
00612               0.00      800.00
00613               0.00      800.00
00614              -2.00      600.00
00615              -6.00      600.00
00616              -2.00      400.00
00617              -2.00      400.00
00618              -2.00      400.00
00619              -6.00      200.00
00620              -4.00      200.00
00621               0.00      200.00
00622               2.00      200.00
00623               0.00        0.00
00624               6.00        0.00
00625               6.00        0.00
00626              -2.00        0.00
00627              -6.00        0.00
00628              -6.00     -400.00
00629               2.00     -200.00
00630              26.00     -400.00
00631             120.00     -400.00
00632             102.00     -600.00
00633            -246.00     -800.00
00634            -254.00     -600.00
00635             202.00     -600.00
00636             246.00     -800.00
00637             -18.00    -1000.00
00638            -254.00     -800.00
00639              48.00    -1200.00
00640             246.00    -1200.00
00641            -144.00    -1000.00
00642            -254.00    -1200.00
00643             150.00    -1400.00
00644             246.00    -1400.00
00645            -110.00    -1000.00
00646             -62.00    -1600.00
00647             -48.00    -1600.00
00648             -80.00    -1400.00
00649             164.00    -1600.00
00650             126.00    -1600.00
00651            -218.00    -1600.00
00652             -78.00    -2000.00
00653             154.00    -2000.00
00654              18.00    -2000.00
00655             -34.00    -2000.00
00656             -56.00    -2200.00
00657             -34.00    -2000.00
00658              94.00    -2200.00
00659              46.00    -2400.00
00660            -144.00    -2400.00
00661              -4.00    -2400.00
00662             106.00    -2600.00
00663             -18.00    -2400.00
00664             -50.00    -2400.00
00665              -6.00    -2600.00
00666               8.00    -2800.00
00667              22.00    -2800.00
00668               4.00    -2800.00
00669             -42.00    -2800.00
00670              -2.00    -2800.00
00671              24.00    -3000.00
00672               2.00    -3000.00
00673             -18.00    -3000.00
00674             -14.00    -3000.00
00675               0.00    -3000.00
00676              16.00    -3000.00
00677              -2.00    -3200.00
00678             -24.00    -3000.00
00679               8.00    -3200.00
00680              18.00    -3200.00
00681             -12.00    -3200.00
00682             -22.00    -3200.00
00683               8.00    -3400.00
00684              14.00    -3200.00
00685               0.00    -3600.00
00686              -8.00    -3600.00
00687              -8.00    -3600.00
00688              -2.00    -3600.00
00689               2.00    -3600.00
00690               6.00    -3800.00
00691               0.00    -3600.00
00692              -6.00    -3600.00
00693              -2.00    -3600.00
00694               6.00    -3600.00
00695              -6.00    -3800.00
00696              -6.00    -3600.00
00697               6.00    -3800.00
00698               6.00    -3800.00
00699              -6.00    -4000.00
00700              -8.00    -3800.00
00701              -2.00    -4000.00
00702               0.00    -3800.00
00703              -2.00    -3800.00
00704              -2.00    -4000.00
00705               4.00    -4000.00
00706              -2.00    -4000.00
00707              -6.00    -4000.00
00708              -6.00    -4200.00
00709               0.00    -4000.00
00710               0.00    -3800.00
00711               0.00    -4000.00
00712               0.00    -4000.00
00713              -6.00    -4000.00
00714              -6.00    -4000.00
00715              -2.00    -4000.00
00716               2.00    -4000.00
00717               0.00    -3800.00
00718              -2.00    -4000.00
00719              -2.00    -4200.00
00720               0.00    -3800.00
00721              -8.00    -4000.00
00722              -2.00    -4000.00
00723               0.00    -4000.00
00724              -2.00    -4000.00
00725               0.00    -4000.00
00726              -2.00    -4000.00
00727              -4.00    -4000.00
00728              -6.00    -4000.00
00729               0.00    -4000.00
00730               2.00    -3800.00
00731               0.00    -3800.00
00732              -2.00    -3800.00
00733              -2.00    -3800.00
00734              -2.00    -4000.00
00735              -2.00    -3800.00
00736              -2.00    -3800.00
00737               2.00    -3800.00
00738               0.00    -3800.00
00739               0.00    -3800.00
00740              -2.00    -3800.00
00741              -6.00    -3800.00
00742              -4.00    -3600.00
00743               0.00    -3600.00
00744               2.00    -3600.00
00745               0.00    -3600.00
00746               0.00    -3600.00
00747               0.00    -3600.00
00748              -2.00    -3400.00
00749              -2.00    -3400.00
00750               0.00    -3400.00
00751               2.00    -3200.00
00752               0.00    -3200.00
00753              -2.00    -3200.00
00754               0.00    -3200.00
00755              -2.00    -3200.00
00756               0.00    -3200.00
00757               0.00    -3200.00
00758               0.00    -3000.00
00759              -2.00    -3000.00
00760              -2.00    -3000.00
00761              -2.00    -3000.00
00762               0.00    -2800.00
00763               0.00    -2800.00
00764               0.00    -2800.00
00765               0.00    -2800.00
00766              -2.00    -2800.00
00767              -6.00    -2800.00
00768              -2.00    -2800.00
00769              -2.00    -2600.00
00770              -2.00    -2400.00
00771               0.00    -2600.00
00772              -2.00    -2400.00
00773              -6.00    -2400.00
00774              -2.00    -2200.00
00775              -2.00    -2200.00
00776              -2.00    -2200.00
00777              -2.00    -2200.00
00778              -4.00    -2000.00
00779              -2.00    -2000.00
00780              -2.00    -2000.00
00781               0.00    -1800.00
00782               0.00    -2000.00
00783              -2.00    -2000.00
00784              -4.00    -2000.00
00785              -6.00    -1600.00
00786              -2.00    -1600.00
00787              -2.00    -1600.00
00788               0.00    -1400.00
00789              -2.00    -1400.00
00790              -8.00    -1400.00
00791              -8.00    -1000.00
00792              -2.00    -1200.00
00793               6.00    -1000.00
00794               2.00    -1000.00
00795              -6.00     -800.00
00796             -16.00    -1000.00
00797              -8.00     -800.00
00798              10.00     -800.00
00799               8.00     -800.00
00800             -10.00     -600.00
00801             -22.00     -600.00
00802               0.00     -600.00
00803              14.00     -600.00
00804               4.00     -400.00
00805             -10.00     -400.00
00806             -12.00     -400.00
00807               0.00     -200.00
00808               8.00     -200.00
00809               2.00        0.00
00810              -6.00        0.00
00811             -16.00        0.00
00812              -6.00      200.00
00813               8.00      200.00
00814              10.00      400.00
00815               8.00      400.00
00816               6.00      400.00
00817               0.00      400.00
00818              -8.00      400.00
00819             -14.00      600.00
00820              -6.00      600.00
00821              24.00      800.00
00822             134.00     1000.00
00823             144.00     1000.00
00824            -254.00      800.00
00825            -254.00      800.00
00826             232.00     1200.00
00827             246.00     1200.00
00828             -66.00     1200.00
00829            -254.00     1000.00
00830             118.00     1600.00
00831             246.00     1600.00
00832            -254.00     1200.00
00833            -254.00     1400.00
00834             246.00     1800.00
00835             246.00     1400.00
00836            -254.00     1400.00
00837             -40.00     1800.00
00838             162.00     2000.00
00839            -120.00     1800.00
00840              48.00     2000.00
00841             120.00     2000.00
00842            -194.00     2000.00
00843              18.00     2000.00
00844             114.00     2200.00
00845            -110.00     2200.00
00846              34.00     2400.00
00847              34.00     2400.00
00848            -160.00     2200.00
00849             126.00     2600.00
00850              96.00     2600.00
00851            -228.00     2600.00
00852              48.00     2800.00
00853             152.00     2800.00
00854            -134.00     2600.00
00855              -2.00     2800.00
00856              46.00     2800.00
00857             -78.00     3000.00
00858              50.00     3000.00
00859              14.00     3200.00
00860             -70.00     2800.00
00861              48.00     3200.00
00862             -20.00     3200.00
00863             -34.00     3200.00
00864              62.00     3400.00
00865             -40.00     3400.00
00866             -38.00     3400.00
00867              48.00     3600.00
00868             -24.00     3400.00
00869             -24.00     3400.00
00870              30.00     3600.00
00871             -10.00     3600.00
00872             -18.00     3600.00
00873              -2.00     3800.00
00874               0.00     3600.00
00875              12.00     3600.00
00876             -10.00     3800.00
00877             -24.00     3800.00
00878               2.00     3800.00
00879              -2.00     4000.00
00880             -16.00     3800.00
00881               8.00     4000.00
00882               4.00     4000.00
00883             -24.00     4200.00
00884               0.00     4000.00
00885               8.00     4200.00
00886             -16.00     4000.00
00887              -8.00     4200.00
00888               6.00     4200.00
00889              -6.00     4200.00
00890              -2.00     4200.00
00891             -10.00     4200.00
00892              -2.00     4200.00
00893               2.00     4200.00
00894             -14.00     4000.00
00895              -6.00     4400.00
00896               8.00     4200.00
00897             -14.00     4400.00
00898             -14.00     4200.00
00899              -2.00     4400.00
00900              -8.00     4400.00
00901             -10.00     4400.00
00902               0.00     4200.00
00903              -2.00     4200.00
00904              -8.00     4200.00
00905             -10.00     4400.00
00906             -10.00     4200.00
00907              -2.00     4200.00
00908               0.00     4400.00
00909              -6.00     4200.00
00910              -2.00     4200.00
00911              -8.00     4400.00
00912             -14.00     4400.00
00913              -6.00     4400.00
00914              -4.00     4400.00
00915              -8.00     4200.00
00916               0.00     4400.00
00917              -2.00     4400.00
00918             -14.00     4200.00
00919             -10.00     4200.00
00920              -2.00     4200.00
00921              -2.00     4200.00
00922              -6.00     4200.00
00923              -6.00     4200.00
00924              -2.00     4000.00
00925              -6.00     4200.00
00926             -10.00     4000.00
00927              -6.00     4200.00
00928               2.00     4000.00
00929              -6.00     4000.00
00930              -8.00     4200.00
00931              -2.00     4000.00
00932              -8.00     4000.00
00933              -8.00     4000.00
00934              -2.00     4000.00
00935              -2.00     4000.00
00936              -2.00     4000.00
00937              -2.00     4000.00
00938              -6.00     4000.00
00939              -6.00     3800.00
00940              -8.00     3800.00
00941              -2.00     3600.00
00942              -2.00     3800.00
00943              -4.00     3600.00
00944              -8.00     3600.00
00945              -6.00     3600.00
00946              -2.00     3600.00
00947              -6.00     3600.00
00948               0.00     3400.00
00949               0.00     3600.00
00950              -4.00     3400.00
00951             -10.00     3400.00
00952              -6.00     3400.00
00953              -6.00     3200.00
00954              -2.00     3200.00
00955              -2.00     3200.00
00956               0.00     3200.00
00957              -4.00     3200.00
00958              -6.00     3200.00
00959              -6.00     3000.00
00960              -2.00     2800.00
00961              -6.00     2800.00
00962              -6.00     2800.00
00963              -2.00     2800.00
00964              -6.00     2600.00
00965              -8.00     2800.00
00966              -2.00     2600.00
00967              -2.00     2600.00
00968              -4.00     2400.00
00969              -4.00     2400.00
00970              -6.00     2200.00
00971              -8.00     2200.00
00972              -8.00     2400.00
00973              -6.00     2000.00
00974              -6.00     2000.00
00975              -4.00     2000.00
00976              -6.00     2000.00
00977              -6.00     2000.00
00978              -6.00     1800.00
00979              -8.00     1800.00
00980              -2.00     1800.00
00981               0.00     1600.00
00982              -6.00     1600.00
00983              -8.00     1600.00
00984              -8.00     1400.00
00985              -6.00     1400.00
00986              -2.00     1200.00
00987              -2.00     1200.00
00988              -2.00     1200.00
00989              -4.00     1200.00
00990              -8.00     1200.00
00991              -8.00     1000.00
00992              -2.00     1000.00
00993              -2.00     1000.00
00994              -6.00      800.00
00995              -2.00      800.00
00996               0.00      800.00
00997              -4.00      800.00
00998              -6.00      600.00
00999              -6.00      400.00
01000              -4.00      400.00
01001              -2.00      400.00
01002              -4.00      400.00
01003              -2.00      200.00
01004               0.00      200.00
01005               0.00      200.00
01006               0.00        0.00
01007               4.00        0.00
01008               8.00        0.00
01009               0.00        0.00
01010             -10.00     -200.00
01011              -8.00     -400.00
01012               0.00     -400.00
01013              22.00     -400.00
01014             114.00     -400.00
01015             114.00     -600.00
01016            -216.00     -800.00
01017            -254.00     -600.00
01018             150.00     -600.00
01019             246.00     -800.00
01020              64.00    -1000.00
01021            -254.00     -800.00
01022             -20.00    -1000.00
01023             246.00    -1200.00
01024             -80.00    -1000.00
01025            -254.00    -1000.00
01026             112.00    -1200.00
01027             246.00    -1400.00
01028             -96.00    -1400.00
01029             -70.00    -1400.00
01030             -42.00    -1600.00
01031             -90.00    -1400.00
01032             146.00    -2000.00
01033             150.00    -1600.00
01034            -208.00    -2000.00
01035             -96.00    -2000.00
01036             150.00    -2000.00
01037              26.00    -2000.00
01038             -38.00    -2000.00
01039             -50.00    -2200.00
01040             -34.00    -2200.00
01041              88.00    -2000.00
01042              58.00    -2400.00
01043            -144.00    -2400.00
01044             -22.00    -2400.00
01045             112.00    -2400.00
01046              -2.00    -2400.00
01047             -50.00    -2400.00
01048             -10.00    -2800.00
01049               0.00    -2600.00
01050              16.00    -2600.00
01051              10.00    -2800.00
01052             -38.00    -2800.00
01053               0.00    -2800.00
01054              26.00    -2800.00
01055               6.00    -3000.00
01056             -20.00    -3000.00
01057             -14.00    -3000.00
01058               0.00    -3000.00
01059              16.00    -3200.00
01060               0.00    -3200.00
01061             -24.00    -3200.00
01062               6.00    -3200.00
01063              18.00    -3200.00
01064             -10.00    -3400.00
01065             -24.00    -3200.00
01066               6.00    -3400.00
01067              14.00    -3200.00
01068               0.00    -3400.00
01069              -2.00    -3600.00
01070              -6.00    -3600.00
01071              -4.00    -3600.00
01072               0.00    -3600.00
01073               2.00    -3600.00
01074               0.00    -3600.00
01075              -2.00    -3800.00
01076              -2.00    -3800.00
01077               2.00    -3800.00
01078              -8.00    -3600.00
01079              -8.00    -3800.00
01080               8.00    -3600.00
01081               8.00    -3800.00
01082              -6.00    -4000.00
01083              -8.00    -3800.00
01084               0.00    -3800.00
01085               2.00    -3800.00
01086               0.00    -3800.00
01087               0.00    -4000.00
01088               0.00    -4000.00
01089               0.00    -4000.00
01090              -2.00    -4000.00
01091              -2.00    -4000.00
01092               0.00    -4000.00
01093               0.00    -4000.00
01094               0.00    -4000.00
01095               2.00    -4000.00
01096              -4.00    -4000.00
01097              -8.00    -4000.00
01098              -2.00    -4000.00
01099               0.00    -4000.00
01100               4.00    -4000.00
01101               2.00    -4000.00
01102              -2.00    -4000.00
01103             -10.00    -4000.00
01104              -8.00    -4000.00
01105               0.00    -4000.00
01106               2.00    -4000.00
01107              -6.00    -4000.00
01108              -2.00    -4000.00
01109               0.00    -4000.00
01110              -2.00    -4000.00
01111              -4.00    -4000.00
01112              -2.00    -3800.00
01113              -6.00    -4000.00
01114              -2.00    -3800.00
01115               8.00    -3600.00
01116               6.00    -3800.00
01117              -6.00    -3800.00
01118             -16.00    -3800.00
01119             -10.00    -3800.00
01120               6.00    -3800.00
01121              10.00    -3800.00
01122               6.00    -3600.00
01123              -8.00    -3600.00
01124              -8.00    -3800.00
01125             -10.00    -3600.00
01126               2.00    -3600.00
01127               8.00    -3600.00
01128               8.00    -3600.00
01129              -6.00    -3400.00
01130             -14.00    -3600.00
01131             -10.00    -3600.00
01132               8.00    -3400.00
01133              18.00    -3200.00
01134              12.00    -3200.00
01135             -14.00    -3400.00
01136             -18.00    -3200.00
01137              -8.00    -3200.00
01138               8.00    -3200.00
01139              10.00    -3200.00
01140               0.00    -3200.00
01141              -6.00    -3000.00
01142              -6.00    -3000.00
01143              -2.00    -3000.00
01144               0.00    -3000.00
01145               0.00    -2800.00
01146               2.00    -3000.00
01147               6.00    -2800.00
01148              -2.00    -2800.00
01149              -6.00    -2800.00
01150              -8.00    -2800.00
01151               0.00    -2600.00
01152               2.00    -2800.00
01153               0.00    -2400.00
01154               0.00    -2400.00
01155               0.00    -2400.00
01156              -2.00    -2200.00
01157              -2.00    -2400.00
01158              -6.00    -2200.00
01159              -2.00    -2200.00
01160               0.00    -2000.00
01161              -2.00    -2000.00
01162              -2.00    -2000.00
01163              -6.00    -2000.00
01164              -6.00    -2000.00
01165              -2.00    -1800.00
01166               2.00    -1800.00
01167               0.00    -1600.00
01168              -2.00    -1600.00
01169               0.00    -1600.00
01170              -6.00    -1600.00
01171             -10.00    -1400.00
01172             -10.00    -1400.00
01173              -6.00    -1400.00
01174               0.00    -1000.00
01175               6.00    -1000.00
01176               2.00    -1200.00
01177              -6.00    -1000.00
01178             -10.00    -1000.00
01179             -14.00    -1000.00
01180              -6.00     -800.00
01181               6.00     -800.00
01182               4.00     -800.00
01183              -2.00     -800.00
01184              -8.00     -600.00
01185              -8.00     -600.00
01186              -6.00     -600.00
01187               0.00     -400.00
01188               0.00     -400.00
01189              -2.00     -200.00
01190              -8.00        0.00
01191              -6.00     -200.00
01192               0.00        0.00
01193               2.00        0.00
01194              -6.00      200.00
01195              -6.00        0.00
01196              -2.00      200.00
01197               0.00      200.00
01198               6.00      400.00
01199              10.00      400.00
01200               6.00      400.00
01201              -8.00      400.00
01202             -10.00      600.00
01203              -2.00      600.00
01204              16.00      800.00
01205             118.00     1000.00
01206             158.00     1000.00
01207            -228.00      800.00
01208            -254.00      800.00
01209             176.00     1200.00
01210             246.00     1400.00
01211              30.00     1200.00
01212            -254.00      800.00
01213              40.00     1600.00
01214             246.00     1600.00
01215            -206.00     1200.00
01216            -254.00     1600.00
01217             246.00     1800.00
01218             246.00     1600.00
01219            -254.00     1600.00
01220             -70.00     2000.00
01221             176.00     1800.00
01222            -118.00     1600.00
01223              26.00     1800.00
01224             136.00     2000.00
01225            -184.00     1800.00
01226               0.00     2000.00
01227             124.00     2400.00
01228            -104.00     2000.00
01229              24.00     2200.00
01230              54.00     2400.00
01231            -164.00     2200.00
01232             102.00     2600.00
01233             118.00     2400.00
01234            -224.00     2600.00
01235              24.00     2800.00
01236             166.00     2800.00
01237            -124.00     2600.00
01238             -18.00     3000.00
01239              56.00     3000.00
01240             -74.00     2800.00
01241              42.00     3000.00
01242              20.00     3200.00
01243             -78.00     3000.00
01244              44.00     3200.00
01245             -10.00     3200.00
01246             -40.00     3200.00
01247              62.00     3400.00
01248             -32.00     3400.00
01249             -44.00     3400.00
01250              46.00     3600.00
01251             -20.00     3400.00
01252             -30.00     3600.00
01253              32.00     3600.00
01254              -6.00     3600.00
01255             -22.00     3600.00
01256              -6.00     3800.00
01257              -4.00     3600.00
01258              14.00     3800.00
01259              -6.00     3600.00
01260             -18.00     3800.00
01261               2.00     4000.00
01262              -2.00     3800.00
01263             -18.00     4000.00
01264               6.00     4000.00
01265               8.00     4000.00
01266             -18.00     4000.00
01267              -2.00     4000.00
01268               8.00     4200.00
01269             -16.00     4000.00
01270              -8.00     4000.00
01271               2.00     4200.00
01272              -2.00     4200.00
01273              -2.00     4200.00
01274             -10.00     4200.00
01275              -6.00     4200.00
01276               2.00     4200.00
01277             -12.00     4200.00
01278              -6.00     4200.00
01279              10.00     4400.00
01280              -8.00     4400.00
01281             -10.00     4200.00
01282               0.00     4400.00
01283              -8.00     4200.00
01284              -8.00     4400.00
01285               2.00     4400.00
01286               0.00     4400.00
01287              -8.00     4400.00
01288              -8.00     4200.00
01289             -10.00     4200.00
01290              -2.00     4400.00
01291              -4.00     4400.00
01292              -4.00     4400.00
01293              -2.00     4200.00
01294              -8.00     4400.00
01295             -10.00     4200.00
01296              -8.00     4400.00
01297              -2.00     4400.00
01298              -8.00     4400.00
01299              -2.00     4400.00
01300              -2.00     4400.00
01301             -12.00     4200.00
01302             -10.00     4400.00
01303              -2.00     4200.00
01304              -6.00     4400.00
01305              -8.00     4200.00
01306              -6.00     4200.00
01307              -2.00     4200.00
01308              -8.00     4200.00
01309             -14.00     4200.00
01310              -6.00     4000.00
01311               8.00     4200.00
01312              -2.00     4000.00
01313             -10.00     4200.00
01314             -10.00     4000.00
01315              -8.00     4200.00
01316              -4.00     4000.00
01317               2.00     4000.00
01318               0.00     4000.00
01319             -10.00     3800.00
01320             -12.00     4000.00
01321              -8.00     4000.00
01322               2.00     4000.00
01323               0.00     3600.00
01324              -6.00     3800.00
01325              -8.00     3600.00
01326             -10.00     3800.00
01327              -6.00     3600.00
01328               2.00     3600.00
01329               0.00     3600.00
01330              -6.00     3600.00
01331              -4.00     3400.00
01332              -2.00     3400.00
01333              -2.00     3400.00
01334              -6.00     3400.00
01335              -6.00     3200.00
01336              -8.00     3200.00
01337              -4.00     3200.00
01338               0.00     3200.00
01339               0.00     3200.00
01340              -8.00     3200.00
01341             -10.00     3200.00
01342              -6.00     3000.00
01343               2.00     3200.00
01344               0.00     2800.00
01345              -2.00     2800.00
01346             -10.00     2800.00
01347             -10.00     2800.00
01348             -10.00     2800.00
01349               2.00     2600.00
01350               2.00     2600.00
01351               0.00     2600.00
01352              -8.00     2400.00
01353              -6.00     2200.00
01354             -10.00     2400.00
01355              -6.00     2200.00
01356              -8.00     2200.00
01357              -2.00     2000.00
01358              -2.00     2000.00
01359              -8.00     2000.00
01360              -6.00     2000.00
01361              -6.00     1800.00
01362              -6.00     1800.00
01363               0.00     1800.00
01364               0.00     1600.00
01365              -6.00     1600.00
01366             -10.00     1600.00
01367             -10.00     1600.00
01368              -2.00     1600.00
01369               0.00     1400.00
01370              -2.00     1200.00
01371              -6.00     1400.00
01372              -8.00     1000.00
01373             -10.00     1000.00
01374              -6.00     1000.00
01375              -2.00     1000.00
01376              -6.00     1000.00
01377              -6.00      800.00
01378              -6.00      800.00
01379               0.00      800.00
01380               0.00      600.00
01381              -8.00      400.00
01382              -6.00      600.00
01383              -2.00      400.00
01384               0.00      400.00
01385              -2.00      400.00
01386             -10.00      400.00
01387              -4.00      200.00
01388              -2.00      200.00
01389              -2.00      200.00
01390               6.00        0.00
01391               8.00        0.00
01392              -2.00        0.00
01393             -12.00        0.00
01394              -8.00     -400.00
01395               6.00     -400.00
01396              26.00     -400.00
01397             112.00     -400.00
01398             120.00     -600.00
01399            -192.00     -800.00
01400            -254.00     -600.00
01401              98.00     -400.00
01402             246.00     -800.00
01403             144.00    -1000.00
01404            -254.00     -800.00
01405             -90.00     -800.00
01406             246.00    -1200.00
01407             -10.00    -1000.00
01408            -254.00    -1000.00
01409              66.00    -1200.00
01410             246.00    -1200.00
01411             -82.00    -1400.00
01412             -78.00    -1400.00
01413             -34.00    -1600.00
01414             -92.00    -1400.00
01415             130.00    -1600.00
01416             172.00    -1800.00
01417            -198.00    -1600.00
01418            -118.00    -2000.00
01419             142.00    -2000.00
01420              44.00    -1600.00
01421             -34.00    -2000.00
01422             -50.00    -2200.00
01423             -46.00    -2000.00
01424              76.00    -2200.00
01425              72.00    -2400.00
01426            -136.00    -2200.00
01427             -32.00    -2200.00
01428             106.00    -2400.00
01429               6.00    -2400.00
01430             -56.00    -2400.00
01431             -12.00    -2400.00
01432               2.00    -2600.00
01433              18.00    -2600.00
01434              10.00    -2800.00
01435             -40.00    -2800.00
01436             -10.00    -2800.00
01437              24.00    -3000.00
01438               8.00    -2800.00
01439             -18.00    -3000.00
01440             -10.00    -3000.00
01441              -2.00    -3000.00
01442              16.00    -3000.00
01443               0.00    -3200.00
01444             -22.00    -3200.00
01445               0.00    -3200.00
01446              18.00    -3200.00
01447             -10.00    -3400.00
01448             -26.00    -3200.00
01449               8.00    -3400.00
01450              16.00    -3200.00
01451               0.00    -3600.00
01452              -8.00    -3400.00
01453              -8.00    -3600.00
01454              -6.00    -3600.00
01455               2.00    -3400.00
01456               6.00    -3800.00
01457               0.00    -3800.00
01458              -6.00    -3600.00
01459              -2.00    -3600.00
01460               2.00    -3800.00
01461              -2.00    -3600.00
01462              -8.00    -3800.00
01463               4.00    -3800.00
01464               6.00    -3800.00
01465              -2.00    -3800.00
01466              -6.00    -3800.00
01467               0.00    -3800.00
01468               0.00    -3800.00
01469               0.00    -4000.00
01470               0.00    -3800.00
01471               2.00    -3800.00
01472               0.00    -3800.00
01473              -2.00    -3800.00
01474              -2.00    -3800.00
01475               0.00    -3800.00
01476              -2.00    -4000.00
01477               0.00    -4000.00
01478               6.00    -3800.00
01479              -2.00    -4000.00
01480              -6.00    -4000.00
01481              -2.00    -4000.00
01482               0.00    -4000.00
01483               2.00    -4000.00
01484               2.00    -4000.00
01485               0.00    -4200.00
01486              -2.00    -4000.00
01487              -8.00    -4000.00
01488              -2.00    -4000.00
01489               2.00    -4000.00
01490               0.00    -3800.00
01491              -2.00    -3800.00
01492               0.00    -4000.00
01493              -2.00    -3800.00
01494              -8.00    -4000.00
01495              -4.00    -3800.00
01496               0.00    -3800.00
01497               2.00    -3800.00
01498               0.00    -3800.00
01499              -2.00    -4000.00
01500              -6.00    -3800.00
01501              -4.00    -3800.00
01502              -2.00    -3800.00
01503               0.00    -3800.00
01504              -2.00    -3800.00
01505              -2.00    -3800.00
01506              -6.00    -3800.00
01507              -2.00    -3800.00
01508              -2.00    -3600.00
01509               0.00    -3600.00
01510               0.00    -3600.00
01511               0.00    -3400.00
01512               0.00    -3600.00
01513              -2.00    -3600.00
01514              -4.00    -3600.00
01515              -2.00    -3400.00
01516               2.00    -3200.00
01517               2.00    -3400.00
01518               0.00    -3200.00
01519              -6.00    -3400.00
01520              -4.00    -3200.00
01521              -6.00    -3200.00
01522              -2.00    -3000.00
01523               2.00    -3200.00
01524               0.00    -3200.00
01525              -2.00    -3000.00
01526              -2.00    -3000.00
01527              -6.00    -3000.00
01528               0.00    -3000.00
01529              -2.00    -2800.00
01530               0.00    -2800.00
01531               0.00    -2800.00
01532               0.00    -2800.00
01533              -2.00    -2800.00
01534              -2.00    -2800.00
01535              -2.00    -2400.00
01536              -2.00    -2400.00
01537               2.00    -2400.00
01538               0.00    -2400.00
01539              -6.00    -2200.00
01540              -8.00    -2400.00
01541              -2.00    -2200.00
01542               2.00    -2200.00
01543             -14.00    -2200.00
01544               4.00    -2000.00
01545              10.00    -2000.00
01546              10.00    -2200.00
01547              -2.00    -1600.00
01548             -14.00    -2000.00
01549              -8.00    -1600.00
01550             -10.00    -2000.00
01551             -10.00    -1600.00
01552              -2.00    -1600.00
01553              14.00    -1400.00
01554               6.00    -1400.00
01555               0.00    -1400.00
01556             -10.00    -1400.00
01557              -8.00    -1200.00
01558              -6.00    -1200.00
01559              -8.00    -1000.00
01560               2.00    -1000.00
01561               2.00    -1000.00
01562              -6.00    -1000.00
01563              -8.00     -800.00
01564              -2.00     -800.00
01565               0.00     -800.00
01566               2.00     -800.00
01567              -6.00     -400.00
01568              -6.00     -600.00
01569              -8.00     -600.00
01570             -10.00     -400.00
01571              -4.00     -400.00
01572               2.00     -200.00
01573              -6.00     -400.00
01574              -8.00     -200.00
01575              -6.00        0.00
01576               0.00        0.00
01577               0.00      200.00
01578              -2.00      200.00
01579              -6.00      200.00
01580               0.00      200.00
01581              -2.00      400.00
01582               0.00      400.00
01583               8.00      400.00
01584               0.00      400.00
01585              -2.00      600.00
01586               0.00      800.00
01587               6.00      800.00
01588              98.00      800.00
01589             160.00     1000.00
01590            -190.00      800.00
01591            -254.00      800.00
01592             120.00     1200.00
01593             246.00     1600.00
01594             116.00     1200.00
01595            -254.00      800.00
01596             -40.00     1200.00
01597             246.00     1600.00
01598            -122.00     1200.00
01599            -254.00     1400.00
01600             246.00     1800.00
01601             246.00     1600.00
01602            -254.00     1400.00
01603            -106.00     1800.00
01604             184.00     2000.00
01605            -106.00     1800.00
01606              14.00     2000.00
01607             154.00     2200.00
01608            -176.00     2000.00
01609             -24.00     2000.00
01610             130.00     2400.00
01611             -90.00     2200.00
01612              16.00     2400.00
01613              70.00     2600.00
01614            -162.00     2400.00
01615              78.00     2600.00
01616             142.00     2400.00
01617            -214.00     2600.00
01618               0.00     2800.00
01619             178.00     2800.00
01620            -112.00     2600.00
01621             -32.00     2800.00
01622              64.00     2800.00
01623             -72.00     2800.00
01624              32.00     3000.00
01625              32.00     3200.00
01626             -80.00     3200.00
01627              40.00     3200.00
01628               0.00     3200.00
01629             -42.00     3200.00
01630              60.00     3400.00
01631             -26.00     3200.00
01632             -58.00     3400.00
01633              46.00     3400.00
01634              -6.00     3400.00
01635             -26.00     3400.00
01636              30.00     3600.00
01637             -10.00     3600.00
01638             -26.00     3600.00
01639              -8.00     3800.00
01640               0.00     3600.00
01641              12.00     3600.00
01642               2.00     3800.00
01643             -22.00     3800.00
01644               2.00     3800.00
01645              -2.00     3800.00
01646             -24.00     4000.00
01647               0.00     4000.00
01648              16.00     4000.00
01649             -14.00     4000.00
01650               0.00     4000.00
01651               8.00     4200.00
01652             -20.00     4000.00
01653             -10.00     4200.00
01654               8.00     4200.00
01655               0.00     4200.00
01656              -6.00     4200.00
01657             -10.00     4200.00
01658              -6.00     4200.00
01659               2.00     4200.00
01660             -10.00     4400.00
01661              -8.00     4400.00
01662               8.00     4200.00
01663              -6.00     4400.00
01664             -10.00     4200.00
01665               0.00     4200.00
01666              -8.00     4400.00
01667             -10.00     4200.00
01668              -2.00     4400.00
01669               0.00     4200.00
01670              -2.00     4400.00
01671              -6.00     4400.00
01672              -8.00     4400.00
01673              -2.00     4200.00
01674              -2.00     4400.00
01675             -10.00     4400.00
01676              -2.00     4200.00
01677               2.00     4400.00
01678              -6.00     4400.00
01679             -10.00     4400.00
01680             -10.00     4400.00
01681              -8.00     4200.00
01682               8.00     4400.00
01683               2.00     4400.00
01684             -18.00     4200.00
01685             -16.00     4200.00
01686               2.00     4200.00
01687               6.00     4200.00
01688              -8.00     4200.00
01689             -16.00     4400.00
01690             -14.00     4200.00
01691              -8.00     4200.00
01692              -4.00     4200.00
01693               8.00     4200.00
01694              14.00     4200.00
01695              -8.00     4000.00
01696             -24.00     4000.00
01697             -22.00     4000.00
01698             -14.00     4000.00
01699               0.00     4000.00
01700              16.00     4000.00
01701              10.00     4000.00
01702             -10.00     4000.00
01703             -26.00     3800.00
01704             -26.00     3800.00
01705              -6.00     3800.00
01706               8.00     4000.00
01707              10.00     3600.00
01708               2.00     3800.00
01709              -8.00     3600.00
01710             -16.00     3600.00
01711             -18.00     3600.00
01712             -12.00     3600.00
01713              -2.00     3600.00
01714              10.00     3600.00
01715               8.00     3600.00
01716              -2.00     3400.00
01717             -16.00     3400.00
01718             -18.00     3200.00
01719             -10.00     3400.00
01720              -2.00     3200.00
01721               8.00     3200.00
01722               6.00     3200.00
01723              -6.00     3200.00
01724             -14.00     3200.00
01725             -14.00     3000.00
01726              -6.00     3200.00
01727              -4.00     2800.00
01728               0.00     2800.00
01729               2.00     2800.00
01730               0.00     2800.00
01731             -10.00     2600.00
01732              -8.00     2600.00
01733              -8.00     2600.00
01734              -8.00     2600.00
01735              -2.00     2400.00
01736               0.00     2400.00
01737               2.00     2400.00
01738              -2.00     2400.00
01739             -12.00     2200.00
01740             -10.00     2000.00
01741              -6.00     2000.00
01742              -2.00     2000.00
01743               2.00     2000.00
01744               0.00     2000.00
01745              -8.00     1800.00
01746             -10.00     1800.00
01747             -10.00     1600.00
01748              -6.00     1600.00
01749              -2.00     1600.00
01750              -2.00     1600.00
01751              -4.00     1600.00
01752              -2.00     1400.00
01753             -10.00     1200.00
01754              -8.00     1200.00
01755              -8.00     1200.00
01756              -2.00     1200.00
01757               0.00     1200.00
01758               2.00     1000.00
01759             -10.00     1000.00
01760             -14.00      800.00
01761              -8.00      800.00
01762               0.00      800.00
01763               0.00      600.00
01764              -2.00      600.00
01765              -2.00      400.00
01766               0.00      400.00
01767              -8.00      400.00
01768             -14.00      400.00
01769             -10.00      400.00
01770               0.00        0.00
01771               6.00      200.00
01772               2.00      200.00
01773               6.00        0.00
01774               6.00        0.00
01775              -6.00        0.00
01776              -8.00        0.00
01777              -6.00     -200.00
01778               6.00     -400.00
01779              22.00     -200.00
01780              96.00     -400.00
01781             134.00     -600.00
01782            -158.00     -800.00
01783            -254.00     -600.00
01784              42.00     -400.00
01785             246.00     -800.00
01786             222.00     -800.00
01787            -254.00     -800.00
01788            -158.00     -800.00
01789             246.00    -1200.00
01790              58.00     -800.00
01791            -254.00    -1200.00
01792              20.00    -1200.00
01793             246.00    -1200.00
01794             -64.00    -1400.00
01795             -82.00    -1400.00
01796             -26.00    -1600.00
01797             -98.00    -1400.00
01798             110.00    -1600.00
01799             190.00    -1800.00
01800            -186.00    -1600.00
01801            -130.00    -2000.00
01802             138.00    -2000.00
01803              64.00    -2000.00
01804             -34.00    -2000.00
01805             -48.00    -2200.00
01806             -54.00    -2000.00
01807              72.00    -2200.00
01808              90.00    -2400.00
01809            -128.00    -2200.00
01810             -42.00    -2400.00
01811             106.00    -2600.00
01812               8.00    -2400.00
01813             -62.00    -2400.00
01814              -8.00    -2800.00
01815               8.00    -2600.00
01816              22.00    -2800.00
01817               8.00    -2800.00
01818             -42.00    -2800.00
01819              -6.00    -2800.00
01820              24.00    -2800.00
01821               6.00    -3000.00
01822             -22.00    -3000.00
01823             -10.00    -3000.00
01824               0.00    -3000.00
01825              18.00    -3200.00
01826               0.00    -3000.00
01827             -22.00    -3200.00
01828              -2.00    -3200.00
01829              16.00    -3400.00
01830             -10.00    -3200.00
01831             -26.00    -3200.00
01832               2.00    -3400.00
01833              18.00    -3400.00
01834               8.00    -3600.00
01835              -6.00    -3600.00
01836             -18.00    -3600.00
01837             -10.00    -3400.00
01838               2.00    -3600.00
01839              14.00    -3400.00
01840               6.00    -3600.00
01841              -8.00    -3600.00
01842              -6.00    -3800.00
01843               0.00    -3800.00
01844              -8.00    -3800.00
01845              -8.00    -3800.00
01846               8.00    -3800.00
01847              10.00    -3800.00
01848               0.00    -3800.00
01849              -8.00    -3800.00
01850              -6.00    -4000.00
01851              -2.00    -4000.00
01852              -2.00    -3800.00
01853               2.00    -3800.00
01854               6.00    -4000.00
01855               0.00    -4000.00
01856              -8.00    -4000.00
01857              -2.00    -4000.00
01858               0.00    -4000.00
01859               2.00    -4000.00
01860               0.00    -4000.00
01861               0.00    -4000.00
01862              -2.00    -3800.00
01863              -2.00    -3800.00
01864               0.00    -4000.00
01865               6.00    -4000.00
01866               0.00    -4000.00
01867              -2.00    -4000.00
01868              -2.00    -3800.00
01869               0.00    -3800.00
01870              -2.00    -4000.00
01871              -2.00    -3800.00
01872               6.00    -3800.00
01873               2.00    -4000.00
01874              -6.00    -3800.00
01875              -8.00    -4000.00
01876              -6.00    -3800.00
01877              -2.00    -4000.00
01878               2.00    -4000.00
01879               4.00    -3800.00
01880               2.00    -3800.00
01881               0.00    -4000.00
01882             -10.00    -3800.00
01883             -14.00    -3800.00
01884             -12.00    -3600.00
01885               6.00    -3800.00
01886              22.00    -3800.00
01887              10.00    -3800.00
01888             -16.00    -3600.00
01889             -24.00    -3800.00
01890              -2.00    -3600.00
01891              14.00    -3600.00
01892              14.00    -3600.00
01893              -8.00    -3600.00
01894             -14.00    -3600.00
01895              -8.00    -3600.00
01896               0.00    -3600.00
01897              -4.00    -3200.00
01898               2.00    -3200.00
01899               6.00    -3200.00
01900               0.00    -3200.00
01901              -2.00    -3200.00
01902              -6.00    -3200.00
01903              -6.00    -3200.00
01904              -4.00    -3200.00
01905              -2.00    -3200.00
01906               0.00    -3000.00
01907               0.00    -3000.00
01908               0.00    -3000.00
01909               0.00    -3000.00
01910              -2.00    -2800.00
01911             -10.00    -2800.00
01912             -14.00    -2800.00
01913               0.00    -2800.00
01914               6.00    -2800.00
01915               8.00    -2800.00
01916               2.00    -2600.00
01917              -2.00    -2600.00
01918              -6.00    -2800.00
01919              -6.00    -2600.00
01920              -6.00    -2400.00
01921              -2.00    -2200.00
01922               0.00    -2400.00
01923               2.00    -2400.00
01924               6.00    -2200.00
01925              -2.00    -2200.00
01926              -6.00    -2200.00
01927              -6.00    -2000.00
01928              -2.00    -2000.00
01929               2.00    -2000.00
01930               6.00    -2000.00
01931               0.00    -2000.00
01932              -6.00    -1800.00
01933             -10.00    -1600.00
01934             -10.00    -1600.00
01935              -2.00    -1600.00
01936               6.00    -1600.00
01937               6.00    -1400.00
01938               0.00    -1400.00
01939              -2.00    -1400.00
01940             -10.00    -1000.00
01941             -10.00    -1200.00
01942              -2.00    -1000.00
01943               4.00    -1200.00
01944               6.00     -800.00
01945              -4.00     -800.00
01946              -8.00     -800.00
01947              -6.00     -800.00
01948              -8.00     -800.00
01949              -2.00     -600.00
01950               0.00     -600.00
01951              -2.00     -600.00
01952              -6.00     -400.00
01953              -4.00     -600.00
01954              -2.00     -400.00
01955              -2.00     -400.00
01956              -6.00     -400.00
01957              -6.00     -400.00
01958              -6.00        0.00
01959              -2.00        0.00
01960              -2.00        0.00
01961               2.00      200.00
01962               4.00      200.00
01963              -2.00      200.00
01964              -6.00      400.00
01965               2.00      400.00
01966               6.00      400.00
01967               2.00      400.00
01968              -2.00      400.00
01969              -4.00      800.00
01970               2.00      800.00
01971              88.00      800.00
01972             170.00     1000.00
01973            -146.00      800.00
01974            -254.00      800.00
01975              56.00     1000.00
01976             246.00     1200.00
01977             206.00     1200.00
01978            -254.00      800.00
01979            -110.00     1200.00
01980             246.00     1600.00
01981             -42.00     1200.00
01982            -254.00     1400.00
01983             208.00     1800.00
01984             246.00     1600.00
01985            -254.00     1200.00
01986            -144.00     1800.00
01987             192.00     2000.00
01988             -96.00     1800.00
01989              -6.00     1800.00
01990             160.00     2000.00
01991            -162.00     2000.00
01992             -48.00     2000.00
01993             138.00     2400.00
01994             -80.00     2000.00
01995              -6.00     2400.00
01996              82.00     2400.00
01997            -154.00     2400.00
01998              56.00     2600.00
01999             160.00     2600.00
02000            -204.00     2600.00
02001             -32.00     2800.00
02002             186.00     2800.00
02003             -96.00     2600.00
02004             -46.00     2800.00
02005              72.00     3000.00
02006             -72.00     2800.00
02007              22.00     3200.00
02008              46.00     3200.00
02009             -74.00     3200.00
02010              34.00     3200.00
02011               6.00     3200.00
02012             -54.00     3200.00
02013              54.00     3200.00
02014             -10.00     3400.00
02015             -56.00     3400.00
02016              42.00     3600.00
02017              -8.00     3400.00
02018             -36.00     3600.00
02019              32.00     3600.00
02020               0.00     3600.00
02021             -26.00     3600.00
02022             -12.00     3800.00
02023              -6.00     3600.00
02024              14.00     3600.00
02025               2.00     3600.00
02026             -18.00     3600.00
02027              -2.00     3800.00
02028              -2.00     4000.00
02029             -22.00     3800.00
02030               2.00     4000.00
02031              16.00     3800.00
02032             -18.00     4000.00
02033             -10.00     4000.00
02034               8.00     4000.00
02035             -16.00     4000.00
02036             -10.00     4000.00
02037               6.00     4200.00
02038               0.00     4000.00
02039              -2.00     4000.00
02040             -10.00     4200.00
02041              -8.00     4000.00
02042               2.00     4200.00
02043             -10.00     4200.00
02044             -10.00     4400.00
02045              10.00     4200.00
02046              -6.00     4200.00
02047             -14.00     4200.00
02048              -2.00     4400.00
02049              -6.00     4200.00
02050             -10.00     4400.00
02051               0.00     4400.00
02052               0.00     4400.00
02053              -4.00     4400.00
02054              -8.00     4400.00
02055             -10.00     4400.00
02056              -6.00     4400.00
02057              -2.00     4400.00
02058              -6.00     4400.00
02059              -2.00     4200.00
02060               0.00     4400.00
02061             -10.00     4400.00
02062              -8.00     4400.00
02063              -2.00     4400.00
02064             -10.00     4400.00
02065               0.00     4200.00
02066               6.00     4400.00
02067             -10.00     4400.00
02068             -10.00     4400.00
02069              -6.00     4200.00
02070              -2.00     4400.00
02071              -6.00     4200.00
02072              -8.00     4200.00
02073              -4.00     4200.00
02074              -8.00     4000.00
02075             -14.00     4000.00
02076              -8.00     4200.00
02077               2.00     4000.00
02078              -4.00     4200.00
02079              -6.00     4000.00
02080              -6.00     4200.00
02081              -8.00     4000.00
02082              -8.00     4000.00
02083              -6.00     4000.00
02084              -2.00     4000.00
02085              -2.00     3800.00
02086              -8.00     4000.00
02087             -10.00     3800.00
02088              -6.00     4000.00
02089              -8.00     3800.00
02090              -6.00     3800.00
02091              -2.00     3600.00
02092              -6.00     3600.00
02093              -8.00     3600.00
02094              -8.00     3600.00
02095              -6.00     3600.00
02096              -8.00     3400.00
02097              -2.00     3400.00
02098              -2.00     3600.00
02099              -2.00     3400.00
02100              -8.00     3400.00
02101              -6.00     3400.00
02102              -6.00     3200.00
02103              -6.00     3200.00
02104              -6.00     3200.00
02105              -2.00     3200.00
02106              -6.00     3200.00
02107              -6.00     3200.00
02108              -8.00     3000.00
02109              -6.00     2800.00
02110              -6.00     2800.00
02111              -2.00     3000.00
02112              -2.00     2800.00
02113              -2.00     2600.00
02114              -8.00     2600.00
02115              -8.00     2600.00
02116              -2.00     2600.00
02117              -2.00     2600.00
02118              -6.00     2400.00
02119              -2.00     2400.00
02120              -6.00     2400.00
02121              -8.00     2200.00
02122              -6.00     2400.00
02123              -2.00     2200.00
02124              -2.00     2000.00
02125              -2.00     2000.00
02126              -2.00     1800.00
02127              -2.00     2000.00
02128              -6.00     1800.00
02129              -2.00     1800.00
02130              -2.00     1600.00
02131              -2.00     1600.00
02132              -6.00     1400.00
02133              -6.00     1600.00
02134              -2.00     1400.00
02135              -6.00     1400.00
02136              -2.00     1200.00
02137              -2.00     1200.00
02138              -2.00     1200.00
02139              -2.00     1200.00
02140              -6.00     1000.00
02141              -6.00     1000.00
02142              -2.00     1000.00
02143              -6.00      800.00
02144              -2.00      800.00
02145               0.00      800.00
02146              -2.00      400.00
02147              -6.00      600.00
02148              -6.00      400.00
02149              -2.00      600.00
02150              -2.00      400.00
02151              -4.00      400.00
02152              -6.00      200.00
02153              -2.00        0.00
02154               0.00      200.00
02155               0.00      200.00
02156               2.00        0.00
02157               6.00        0.00
02158               0.00        0.00
02159              -8.00        0.00
02160              -8.00     -200.00
02161              -2.00     -400.00
02162              16.00     -400.00
02163              88.00     -400.00
02164             136.00     -600.00
02165            -130.00     -800.00
02166            -254.00     -600.00
02167              -8.00     -400.00
02168             246.00     -600.00
02169             246.00    -1000.00
02170            -254.00    -1000.00
02171            -220.00     -800.00
02172             246.00    -1200.00
02173             126.00    -1200.00
02174            -254.00    -1000.00
02175             -24.00    -1200.00
02176             246.00    -1200.00
02177             -44.00    -1200.00
02178             -96.00    -1400.00
02179             -24.00    -1600.00
02180            -102.00    -1400.00
02181              94.00    -1800.00
02182             204.00    -1800.00
02183            -162.00    -1600.00
02184            -150.00    -1800.00
02185             122.00    -2000.00
02186              74.00    -2000.00
02187             -34.00    -2000.00
02188             -46.00    -2200.00
02189             -50.00    -2000.00
02190              62.00    -2000.00
02191              96.00    -2400.00
02192            -118.00    -2200.00
02193             -58.00    -2400.00
02194             102.00    -2400.00
02195              30.00    -2400.00
02196             -60.00    -2400.00
02197             -10.00    -2600.00
02198               2.00    -2800.00
02199              18.00    -2800.00
02200              18.00    -2800.00
02201             -38.00    -2800.00
02202             -16.00    -2800.00
02203              24.00    -2800.00
02204              16.00    -3000.00
02205             -16.00    -3000.00
02206             -18.00    -3000.00
02207              -6.00    -3000.00
02208              16.00    -3200.00
02209               8.00    -3200.00
02210             -18.00    -3200.00
02211             -10.00    -3200.00
02212              22.00    -3200.00
02213              -2.00    -3200.00
02214             -26.00    -3200.00
02215               0.00    -3200.00
02216              16.00    -3400.00
02217               0.00    -3600.00
02218              -4.00    -3600.00
02219              -8.00    -3600.00
02220              -6.00    -3600.00
02221              -2.00    -3600.00
02222              -2.00    -3600.00
02223               2.00    -3600.00
02224               0.00    -3600.00
02225              -2.00    -3800.00
02226              -2.00    -3600.00
02227             -10.00    -3800.00
02228              -8.00    -3800.00
02229              10.00    -3800.00
02230              16.00    -3800.00
02231              -2.00    -3800.00
02232             -10.00    -3800.00
02233             -10.00    -3800.00
02234              -2.00    -3800.00
02235               2.00    -3800.00
02236               2.00    -3800.00
02237               2.00    -4000.00
02238              -2.00    -4000.00
02239              -8.00    -3800.00
02240              -2.00    -4000.00
02241               2.00    -3800.00
02242               0.00    -4000.00
02243               0.00    -3800.00
02244               0.00    -4000.00
02245              -2.00    -4000.00
02246              -4.00    -4000.00
02247               0.00    -3800.00
02248               0.00    -4000.00
02249               2.00    -4000.00
02250               0.00    -4000.00
02251              -2.00    -4000.00
02252              -2.00    -4000.00
02253              -6.00    -4000.00
02254               0.00    -4000.00
02255               6.00    -4000.00
02256               0.00    -4000.00
02257              -2.00    -3800.00
02258              -2.00    -3800.00
02259               0.00    -3800.00
02260              -6.00    -3800.00
02261              -2.00    -3800.00
02262               0.00    -3800.00
02263               2.00    -3800.00
02264               2.00    -3800.00
02265              -2.00    -4000.00
02266               0.00    -3800.00
02267              -2.00    -3800.00
02268              -6.00    -3600.00
02269              -2.00    -3800.00
02270               0.00    -3800.00
02271               6.00    -3600.00
02272               2.00    -3800.00
02273              -8.00    -3600.00
02274             -14.00    -3600.00
02275              -2.00    -3600.00
02276               2.00    -3600.00
02277               8.00    -3600.00
02278               0.00    -3400.00
02279              -8.00    -3400.00
02280              -8.00    -3400.00
02281              -4.00    -3400.00
02282               2.00    -3200.00
02283               6.00    -3200.00
02284               0.00    -3200.00
02285              -6.00    -3200.00
02286              -6.00    -3200.00
02287              -6.00    -3200.00
02288              -2.00    -3200.00
02289               0.00    -3000.00
02290               2.00    -3000.00
02291               0.00    -3000.00
02292              -8.00    -3000.00
02293             -10.00    -3000.00
02294              -8.00    -2800.00
02295               0.00    -2800.00
02296               6.00    -2800.00
02297               2.00    -2800.00
02298              -4.00    -2600.00
02299              -8.00    -2800.00
02300              -6.00    -2600.00
02301               2.00    -2400.00
02302               0.00    -2600.00
02303               0.00    -2400.00
02304              -2.00    -2400.00
02305              -2.00    -2400.00
02306               0.00    -2400.00
02307               0.00    -2200.00
02308               0.00    -2200.00
02309              -4.00    -2200.00
02310              -6.00    -2000.00
02311               0.00    -2000.00
02312               4.00    -2000.00
02313               0.00    -2000.00
02314              -2.00    -2000.00
02315              -2.00    -1600.00
02316              -2.00    -1600.00
02317               0.00    -1600.00
02318               0.00    -1600.00
02319               0.00    -1400.00
02320              -2.00    -1600.00
02321              -6.00    -1400.00
02322              -2.00    -1400.00
02323              -2.00    -1000.00
02324               0.00    -1200.00
02325               0.00    -1000.00
02326               0.00    -1200.00
02327              -2.00     -800.00
02328              -4.00    -1000.00
02329              -6.00    -1000.00
02330              -2.00     -800.00
02331              -2.00     -600.00
02332              -2.00     -600.00
02333              -2.00     -600.00
02334              -4.00     -600.00
02335              -8.00     -600.00
02336              -6.00     -400.00
02337              -2.00     -400.00
02338               0.00     -400.00
02339              -2.00     -200.00
02340              -2.00        0.00
02341              -6.00        0.00
02342               0.00        0.00
02343              -6.00        0.00
02344              -4.00      200.00
02345               0.00      200.00
02346               2.00      200.00
02347               0.00      200.00
02348               6.00      400.00
02349               2.00      400.00
02350              -6.00      600.00
02351              -6.00      400.00
02352              -2.00      600.00
02353               6.00      800.00
02354              82.00      800.00
02355             170.00     1000.00
02356            -118.00      800.00
02357            -254.00      800.00
02358               2.00     1000.00
02359             246.00     1200.00
02360             246.00     1200.00
02361            -254.00     1000.00
02362            -186.00     1400.00
02363             246.00     1600.00
02364              42.00     1200.00
02365            -254.00     1400.00
02366             150.00     1800.00
02367             246.00     1600.00
02368            -252.00     1400.00
02369            -178.00     1800.00
02370             194.00     2000.00
02371             -86.00     1800.00
02372             -24.00     2000.00
02373             168.00     2200.00
02374            -138.00     2000.00
02375             -66.00     2000.00
02376             142.00     2400.00
02377             -70.00     2000.00
02378             -22.00     2200.00
02379              92.00     2400.00
02380            -144.00     2200.00
02381              32.00     2600.00
02382             174.00     2800.00
02383            -190.00     2400.00
02384             -54.00     2800.00
02385             194.00     2800.00
02386             -78.00     2600.00
02387             -64.00     2800.00
02388              74.00     3000.00
02389             -62.00     2800.00
02390              10.00     3200.00
02391              54.00     3200.00
02392             -78.00     2800.00
02393              30.00     3200.00
02394              16.00     3200.00
02395             -56.00     3200.00
02396              54.00     3400.00
02397              -2.00     3400.00
02398             -58.00     3200.00
02399              40.00     3400.00
02400              -2.00     3400.00
02401             -42.00     3400.00
02402              26.00     3600.00
02403               0.00     3600.00
02404             -24.00     3600.00
02405             -10.00     3800.00
02406              -2.00     3600.00
02407               8.00     3600.00
02408               0.00     3600.00
02409             -22.00     4000.00
02410              -2.00     3800.00
02411               0.00     3800.00
02412             -18.00     4000.00
02413               0.00     4000.00
02414              10.00     4000.00
02415             -18.00     4000.00
02416             -10.00     4000.00
02417              10.00     4000.00
02418             -14.00     4000.00
02419             -16.00     4000.00
02420               6.00     4200.00
02421              -2.00     4200.00
02422              -4.00     4000.00
02423             -10.00     4200.00
02424             -10.00     4200.00
02425               2.00     4200.00
02426             -10.00     4200.00
02427              -8.00     4200.00
02428               8.00     4400.00
02429              -6.00     4400.00
02430             -16.00     4200.00
02431              -2.00     4400.00
02432              -2.00     4200.00
02433              -8.00     4200.00
02434               0.00     4400.00
02435              -2.00     4200.00
02436              -6.00     4200.00
02437              -8.00     4800.00
02438             -10.00     4200.00
02439              -6.00     4200.00
02440               0.00     4400.00
02441              -6.00     4400.00
02442              -2.00     4400.00
02443              -2.00     4400.00
02444             -10.00     4400.00
02445              -6.00     4200.00
02446              -2.00     4400.00
02447              -8.00     4200.00
02448               0.00     4400.00
02449               0.00     4200.00
02450             -10.00     4200.00
02451             -10.00     4200.00
02452              -2.00     4200.00
02453              -2.00     4200.00
02454              -2.00     4400.00
02455              -6.00     4200.00
02456              -2.00     4200.00
02457              -6.00     4200.00
02458             -10.00     4200.00
02459              -8.00     4200.00
02460               0.00     4200.00
02461              -2.00     4000.00
02462              -8.00     4000.00
02463              -2.00     4200.00
02464              -6.00     4000.00
02465              -8.00     4000.00
02466              -6.00     4000.00
02467              -2.00     4000.00
02468              -2.00     3800.00
02469              -8.00     3800.00
02470              -8.00     3800.00
02471              -8.00     3800.00
02472              -8.00     4000.00
02473              -8.00     3600.00
02474               0.00     3600.00
02475              -4.00     3600.00
02476             -10.00     3600.00
02477              -6.00     3600.00
02478              -8.00     3600.00
02479              -8.00     3400.00
02480              -6.00     3400.00
02481              -2.00     3400.00
02482              -6.00     3400.00
02483              -8.00     3400.00
02484              -8.00     3400.00
02485              -6.00     3200.00
02486              -6.00     3200.00
02487              -6.00     3200.00
02488               0.00     3200.00
02489              -6.00     3200.00
02490              -6.00     3200.00
02491              -6.00     3000.00
02492              -6.00     2800.00
02493              -6.00     2800.00
02494              -6.00     2800.00
02495              -2.00     2800.00
02496              -2.00     2800.00
02497              -8.00     2800.00
02498              -6.00     2600.00
02499              -4.00     2600.00
02500              -4.00     2400.00
02501              -2.00     2600.00
02502              -2.00     2400.00
02503              -2.00     2200.00
02504              -6.00     2200.00
02505              -6.00     2400.00
02506              -2.00     2000.00
02507              -2.00     2200.00
02508              -2.00     2000.00
02509              -2.00     2000.00
02510              -2.00     1800.00
02511              -6.00     2000.00
02512              -6.00     1800.00
02513               0.00     1800.00
02514              -2.00     1800.00
02515              -2.00     1600.00
02516              -6.00     1600.00
02517              -4.00     1400.00
02518              -4.00     1200.00
02519              -6.00     1400.00
02520               0.00     1200.00
02521               0.00     1200.00
02522              -2.00     1000.00
02523              -4.00     1200.00
02524              -2.00     1000.00
02525              -2.00     1000.00
02526              -6.00      800.00
02527              -2.00      800.00
02528              -2.00      800.00
02529               0.00      800.00
02530              -6.00      600.00
02531              -8.00      600.00
02532              -6.00      400.00
02533              -2.00      400.00
02534              -2.00      400.00
02535             -10.00      200.00
02536              -2.00      200.00
02537               0.00        0.00
02538               0.00        0.00
02539               4.00        0.00
02540               8.00        0.00
02541               0.00        0.00
02542             -10.00        0.00
02543              -8.00     -200.00
02544              -2.00     -400.00
02545              16.00     -400.00
02546              82.00     -400.00
02547             142.00     -400.00
02548            -104.00     -800.00
02549            -254.00     -600.00
02550             -58.00     -400.00
02551             246.00     -800.00
02552             246.00     -800.00
02553            -254.00    -1000.00
02554            -254.00     -800.00
02555             246.00    -1200.00
02556             190.00    -1000.00
02557            -254.00    -1200.00
02558             -66.00    -1400.00
02559             246.00    -1400.00
02560             -22.00    -1200.00
02561            -102.00    -1400.00
02562             -24.00    -1600.00
02563            -106.00    -1200.00
02564              66.00    -1600.00
02565             208.00    -2000.00
02566            -146.00    -1800.00
02567            -160.00    -1800.00
02568             114.00    -2000.00
02569              96.00    -1800.00
02570             -30.00    -2000.00
02571             -46.00    -2200.00
02572             -58.00    -2000.00
02573              46.00    -2200.00
02574              98.00    -2400.00
02575            -110.00    -2200.00
02576             -72.00    -2200.00
02577             102.00    -2400.00
02578              44.00    -2400.00
02579             -58.00    -2400.00
02580              -8.00    -2600.00
02581               0.00    -2600.00
02582              10.00    -2800.00
02583              16.00    -2800.00
02584             -34.00    -2800.00
02585             -20.00    -2800.00
02586              26.00    -3000.00
02587              22.00    -3000.00
02588             -16.00    -3000.00
02589             -14.00    -2800.00
02590              -8.00    -3200.00
02591              14.00    -3000.00
02592               6.00    -3200.00
02593             -18.00    -3000.00
02594              -8.00    -3200.00
02595              22.00    -3200.00
02596              -4.00    -3200.00
02597             -32.00    -3400.00
02598              -2.00    -3400.00
02599              14.00    -3400.00
02600               8.00    -3600.00
02601              -2.00    -3600.00
02602              -6.00    -3600.00
02603              -8.00    -3600.00
02604              -6.00    -3600.00
02605               0.00    -3600.00
02606               2.00    -3800.00
02607              -2.00    -3800.00
02608              -6.00    -3800.00
02609               6.00    -3800.00
02610              -2.00    -3800.00
02611              -8.00    -3600.00
02612               0.00    -3800.00
02613               8.00    -3600.00
02614              -6.00    -3800.00
02615             -10.00    -3800.00
02616              -2.00    -4000.00
02617               2.00    -4000.00
02618               0.00    -3800.00
02619               0.00    -4000.00
02620               0.00    -4000.00
02621              -4.00    -4000.00
02622              -8.00    -3800.00
02623              -6.00    -4000.00
02624               2.00    -3800.00
02625               2.00    -4000.00
02626               0.00    -4000.00
02627               0.00    -4000.00
02628              -8.00    -4200.00
02629             -10.00    -4000.00
02630              -2.00    -4000.00
02631               2.00    -3800.00
02632               6.00    -4000.00
02633               0.00    -4000.00
02634               0.00    -4000.00
02635              -2.00    -4000.00
02636              -6.00    -4000.00
02637              -2.00    -3800.00
02638               0.00    -4000.00
02639               0.00    -4000.00
02640               0.00    -4000.00
02641               2.00    -3800.00
02642               0.00    -3800.00
02643              -2.00    -4000.00
02644              -2.00    -3800.00
02645               0.00    -4000.00
02646               0.00    -3800.00
02647               0.00    -3800.00
02648               0.00    -3800.00
02649              -2.00    -3800.00
02650              -2.00    -3800.00
02651              -2.00    -3800.00
02652               2.00    -3800.00
02653               0.00    -3800.00
02654               0.00    -3800.00
02655               0.00    -3600.00
02656              -2.00    -3600.00
02657              -4.00    -3800.00
02658               0.00    -3600.00
02659               0.00    -3600.00
02660               2.00    -3600.00
02661               0.00    -3400.00
02662              -2.00    -3600.00
02663              -2.00    -3600.00
02664              -6.00    -3400.00
02665              -2.00    -3400.00
02666               2.00    -3400.00
02667               2.00    -3200.00
02668              -2.00    -3200.00
02669              -6.00    -3200.00
02670              -6.00    -3200.00
02671              -4.00    -3200.00
02672               0.00    -3000.00
02673               0.00    -3200.00
02674               0.00    -3000.00
02675              -2.00    -3200.00
02676              -2.00    -3000.00
02677              -2.00    -3000.00
02678              -6.00    -2800.00
02679              -8.00    -2800.00
02680               0.00    -2800.00
02681               4.00    -2800.00
02682               0.00    -2800.00
02683             -10.00    -2800.00
02684             -10.00    -2600.00
02685              -2.00    -2600.00
02686              10.00    -2400.00
02687               2.00    -2400.00
02688             -14.00    -2400.00
02689             -10.00    -2200.00
02690               8.00    -2200.00
02691              14.00    -2200.00
02692              -2.00    -2200.00
02693             -16.00    -2200.00
02694             -10.00    -2000.00
02695               6.00    -2000.00
02696               8.00    -2000.00
02697               0.00    -2000.00
02698              -8.00    -1800.00
02699             -10.00    -1600.00
02700              -6.00    -1600.00
02701               6.00    -1400.00
02702               8.00    -1400.00
02703               0.00    -1400.00
02704              -6.00    -1400.00
02705              -4.00    -1400.00
02706              -6.00    -1200.00
02707              -6.00    -1200.00
02708               0.00    -1000.00
02709               8.00    -1200.00
02710               6.00    -1000.00
02711              -6.00     -800.00
02712              -8.00     -800.00
02713              -4.00     -800.00
02714               2.00     -800.00
02715               0.00     -800.00
02716              -6.00     -600.00
02717              -6.00     -600.00
02718              -2.00     -400.00
02719               0.00     -400.00
02720               2.00     -400.00
02721               2.00     -400.00
02722              -6.00     -400.00
02723             -10.00        0.00
02724              -8.00        0.00
02725               2.00        0.00
02726               0.00        0.00
02727              -2.00      200.00
02728               0.00      200.00
02729              -2.00      200.00
02730              -2.00      200.00
02731               8.00      400.00
02732              10.00      400.00
02733              -2.00      400.00
02734             -10.00      400.00
02735              -6.00      600.00
02736               6.00      800.00
02737              74.00      800.00
02738             174.00     1000.00
02739             -88.00     1000.00
02740            -254.00      800.00
02741             -48.00     1200.00
02742             246.00     1200.00
02743             246.00     1400.00
02744            -254.00      800.00
02745            -254.00     1400.00
02746             246.00     1600.00
02747             130.00     1200.00
02748            -254.00     1200.00
02749              82.00     1800.00
02750             246.00     1800.00
02751            -222.00     1200.00
02752            -206.00     1800.00
02753             194.00     2000.00
02754             -66.00     1800.00
02755             -46.00     2000.00
02756             168.00     2000.00
02757            -122.00     2000.00
02758             -90.00     2000.00
02759             138.00     2000.00
02760             -52.00     2400.00
02761             -38.00     2400.00
02762              98.00     2400.00
02763            -136.00     2400.00
02764               8.00     2600.00
02765             182.00     2600.00
02766            -170.00     2400.00
02767             -86.00     2800.00
02768             194.00     3000.00
02769             -62.00     2600.00
02770             -80.00     2800.00
02771              82.00     2800.00
02772             -54.00     3000.00
02773              -2.00     3000.00
02774              56.00     3200.00
02775             -78.00     3000.00
02776              18.00     3200.00
02777              24.00     3200.00
02778             -56.00     3200.00
02779              46.00     3400.00
02780               6.00     3400.00
02781             -64.00     3400.00
02782              40.00     3600.00
02783               8.00     3400.00
02784             -42.00     3400.00
02785              24.00     3600.00
02786               8.00     3600.00
02787             -24.00     3600.00
02788             -10.00     3800.00
02789              -2.00     3600.00
02790              10.00     3600.00
02791               4.00     3800.00
02792             -22.00     3800.00
02793              -8.00     3600.00
02794               0.00     4000.00
02795             -18.00     4000.00
02796              -2.00     3800.00
02797              16.00     4000.00
02798             -16.00     4000.00
02799             -18.00     4000.00
02800              10.00     4200.00
02801             -10.00     4200.00
02802             -10.00     4000.00
02803               6.00     4000.00
02804              -2.00     4200.00
02805              -8.00     4200.00
02806             -10.00     4200.00
02807             -10.00     4200.00
02808               6.00     4000.00
02809              -8.00     4200.00
02810             -14.00     4200.00
02811               4.00     4200.00
02812              -6.00     4400.00
02813             -14.00     4200.00
02814              -2.00     4400.00
02815              -6.00     4200.00
02816             -10.00     4200.00
02817              -2.00     4400.00
02818              -2.00     4200.00
02819              -6.00     4200.00
02820              -6.00     4400.00
02821             -10.00     4200.00
02822              -6.00     4200.00
02823              -2.00     4200.00
02824              -2.00     4400.00
02825              -6.00     4200.00
02826              -2.00     4200.00
02827             -14.00     4400.00
02828              -6.00     4200.00
02829              -2.00     4400.00
02830              -6.00     4200.00
02831               0.00     4200.00
02832               0.00     4400.00
02833             -14.00     4400.00
02834             -10.00     4200.00
02835              -2.00     4200.00
02836               2.00     4200.00
02837              -2.00     4400.00
02838              -6.00     4400.00
02839              -2.00     4200.00
02840              -8.00     4200.00
02841             -14.00     4000.00
02842              -8.00     4200.00
02843               2.00     4200.00
02844              -2.00     4200.00
02845              -6.00     4000.00
02846              -8.00     4000.00
02847              -6.00     4000.00
02848              -8.00     4000.00
02849              -2.00     4000.00
02850               0.00     4000.00
02851              -2.00     4000.00
02852              -8.00     4000.00
02853              -8.00     3800.00
02854              -8.00     3800.00
02855              -6.00     3800.00
02856              -6.00     3800.00
02857              -2.00     3800.00
02858              -2.00     3600.00
02859              -8.00     3600.00
02860              -6.00     3800.00
02861              -6.00     3600.00
02862              -8.00     3400.00
02863              -6.00     3400.00
02864              -2.00     3400.00
02865              -2.00     3400.00
02866              -8.00     3400.00
02867              -8.00     3200.00
02868              -4.00     3400.00
02869              -6.00     3200.00
02870              -2.00     3200.00
02871              -2.00     3200.00
02872              -8.00     3200.00
02873              -8.00     3200.00
02874              -8.00     3000.00
02875              -4.00     3000.00
02876              -6.00     2800.00
02877              -8.00     2800.00
02878              -2.00     2800.00
02879              -4.00     2800.00
02880              -8.00     2600.00
02881              -6.00     2600.00
02882              -2.00     2600.00
02883              -2.00     2600.00
02884              -6.00     2400.00
02885              -4.00     2400.00
02886              -6.00     2400.00
02887              -6.00     2200.00
02888              -8.00     2200.00
02889              -4.00     2200.00
02890              -4.00     2000.00
02891              -6.00     2000.00
02892              -4.00     2000.00
02893              -2.00     2000.00
02894              -2.00     1800.00
02895              -4.00     1800.00
02896              -2.00     1800.00
02897              -2.00     1600.00
02898              -4.00     1600.00
02899              -6.00     1600.00
02900              -2.00     1600.00
02901              -2.00     1400.00
02902              -6.00     1400.00
02903               0.00     1200.00
02904              -2.00     1200.00
02905              -6.00     1200.00
02906              -6.00     1200.00
02907              -2.00     1000.00
02908              -2.00     1000.00
02909              -2.00     1000.00
02910              -6.00      800.00
02911               0.00      800.00
02912              -4.00      800.00
02913              -2.00      600.00
02914              -6.00      600.00
02915              -4.00      400.00
02916              -2.00      400.00
02917              -2.00      400.00
02918              -2.00      200.00
02919              -2.00      200.00
02920              -2.00      200.00
02921               0.00      200.00
02922               2.00        0.00
02923               2.00        0.00
02924              -4.00        0.00
02925              -2.00     -200.00
02926              -8.00     -400.00
02927              -8.00     -200.00
02928              10.00     -400.00
02929              74.00     -400.00
02930             144.00     -600.00
02931             -78.00     -800.00
02932            -254.00     -800.00
02933            -112.00     -600.00
02934             246.00     -800.00
02935             246.00     -800.00
02936            -254.00    -1000.00
02937            -254.00     -800.00
02938             246.00    -1200.00
02939             242.00    -1000.00
02940            -254.00    -1200.00
02941            -104.00    -1200.00
02942             246.00    -1200.00
02943              -6.00    -1400.00
02944            -118.00    -1400.00
02945             -24.00    -1600.00
02946            -104.00    -1400.00
02947              62.00    -1600.00
02948             226.00    -1800.00
02949            -126.00    -2000.00
02950            -190.00    -1800.00
02951              84.00    -2000.00
02952             104.00    -2000.00
02953             -16.00    -2000.00
02954             -28.00    -2200.00
02955             -66.00    -2000.00
02956              22.00    -2200.00
02957             102.00    -2400.00
02958             -88.00    -2400.00
02959             -70.00    -2200.00
02960              88.00    -2400.00
02961              42.00    -2400.00
02962             -66.00    -2400.00
02963             -14.00    -2600.00
02964               2.00    -2800.00
02965              16.00    -2600.00
02966              22.00    -2800.00
02967             -26.00    -2800.00
02968             -24.00    -2800.00
02969              16.00    -3000.00
02970              16.00    -2800.00
02971             -10.00    -3000.00
02972             -10.00    -3000.00
02973              -2.00    -3000.00
02974              10.00    -3200.00
02975               6.00    -3200.00
02976             -16.00    -3000.00
02977              -8.00    -3200.00
02978              24.00    -3200.00
02979               2.00    -3200.00
02980             -30.00    -3200.00
02981              -6.00    -3400.00
02982              14.00    -3400.00
02983               8.00    -3600.00
02984               0.00    -3600.00
02985              -8.00    -3600.00
02986             -14.00    -3600.00
02987              -6.00    -3600.00
02988               4.00    -3600.00
02989               6.00    -3600.00
02990               0.00    -3600.00
02991              -8.00    -3800.00
02992               0.00    -3800.00
02993              -6.00    -3800.00
02994             -10.00    -3600.00
02995               0.00    -3600.00
02996               8.00    -3800.00
02997              -2.00    -3600.00
02998              -8.00    -3800.00
02999              -4.00    -4000.00
03000              -2.00    -3800.00
03001              -4.00    -3800.00
03002              -2.00    -3800.00
03003               6.00    -4000.00
03004               4.00    -4000.00
03005              -6.00    -3800.00
03006             -10.00    -4000.00
03007              -6.00    -4000.00
03008              -2.00    -4000.00
03009               0.00    -4000.00
03010               2.00    -4000.00
03011              -2.00    -4000.00
03012              -2.00    -4000.00
03013              -4.00    -4000.00
03014               0.00    -4000.00
03015              -2.00    -4000.00
03016              -2.00    -4000.00
03017               0.00    -4000.00
03018               0.00    -4000.00
03019              -2.00    -4000.00
03020              -6.00    -4000.00
03021              -2.00    -3800.00
03022               0.00    -3800.00
03023               0.00    -3800.00
03024               0.00    -3800.00
03025              -2.00    -4000.00
03026              -6.00    -3800.00
03027               0.00    -3800.00
03028               6.00    -3800.00
03029               0.00    -3800.00
03030               0.00    -3800.00
03031              -6.00    -3800.00
03032              -2.00    -3600.00
03033               0.00    -3800.00
03034               0.00    -3800.00
03035               2.00    -3600.00
03036               0.00    -3800.00
03037               0.00    -3800.00
03038              -2.00    -3600.00
03039              -2.00    -3600.00
03040              -4.00    -3600.00
03041               0.00    -3600.00
03042               0.00    -3600.00
03043               0.00    -3600.00
03044              -2.00    -3600.00
03045               0.00    -3400.00
03046              -2.00    -3600.00
03047              -2.00    -3400.00
03048               0.00    -3400.00
03049               6.00    -3400.00
03050               2.00    -3200.00
03051              -2.00    -3200.00
03052              -4.00    -3200.00
03053              -6.00    -3200.00
03054              -6.00    -3200.00
03055               2.00    -3200.00
03056               2.00    -3000.00
03057               0.00    -3000.00
03058              -2.00    -3000.00
03059              -2.00    -3000.00
03060              -2.00    -3000.00
03061              -2.00    -2800.00
03062              -2.00    -2800.00
03063               0.00    -2800.00
03064               0.00    -2800.00
03065              -2.00    -2800.00
03066              -4.00    -2800.00
03067              -2.00    -2600.00
03068               0.00    -2400.00
03069               0.00    -2400.00
03070              -2.00    -2400.00
03071              -2.00    -2400.00
03072              -6.00    -2400.00
03073              -6.00    -2200.00
03074              -2.00    -2400.00
03075              -2.00    -2200.00
03076               0.00    -2000.00
03077              -2.00    -2000.00
03078              -2.00    -2200.00
03079              -6.00    -2000.00
03080              -6.00    -1800.00
03081               0.00    -1800.00
03082               0.00    -1600.00
03083               0.00    -1600.00
03084              -2.00    -1600.00
03085              -8.00    -1600.00
03086              -6.00    -1600.00
03087              -2.00    -1400.00
03088               2.00    -1400.00
03089               4.00    -1000.00
03090               0.00    -1000.00
03091              -8.00    -1200.00
03092              -8.00    -1000.00
03093              -2.00    -1000.00
03094               2.00     -800.00
03095               2.00     -800.00
03096               0.00     -800.00
03097              -6.00     -800.00
03098              -6.00     -800.00
03099              -4.00     -600.00
03100              -6.00     -600.00
03101              -6.00     -600.00
03102               0.00     -400.00
03103               2.00     -400.00
03104               6.00     -200.00
03105              -2.00        0.00
03106              -8.00     -400.00
03107              -8.00        0.00
03108              -2.00        0.00
03109               0.00        0.00
03110               0.00      200.00
03111               2.00      200.00
03112               2.00      200.00
03113              -2.00      400.00
03114               2.00      400.00
03115               6.00      400.00
03116               0.00      400.00
03117             -10.00      400.00
03118             -10.00      600.00
03119               2.00      600.00
03120              66.00      800.00
03121             180.00     1000.00
03122             -56.00     1000.00
03123            -254.00      800.00
03124            -106.00     1000.00
03125             246.00     1200.00
03126             246.00     1400.00
03127            -254.00      800.00
03128            -254.00     1400.00
03129             246.00     1600.00
03130             208.00     1400.00
03131            -254.00     1200.00
03132              22.00     1600.00
03133             246.00     1600.00
03134            -184.00     1400.00
03135            -234.00     1800.00
03136             184.00     2000.00
03137             -54.00     1800.00
03138             -62.00     2000.00
03139             168.00     2000.00
03140             -94.00     1800.00
03141            -106.00     2000.00
03142             134.00     2400.00
03143             -42.00     2000.00
03144             -56.00     2200.00
03145             106.00     2400.00
03146            -118.00     2400.00
03147             -16.00     2400.00
03148             186.00     2600.00
03149            -154.00     2600.00
03150            -110.00     2600.00
03151             196.00     2800.00
03152             -38.00     2600.00
03153             -90.00     2800.00
03154              78.00     3000.00
03155             -48.00     2800.00
03156             -14.00     3000.00
03157              66.00     3200.00
03158             -74.00     3200.00
03159               6.00     3200.00
03160              26.00     3200.00
03161             -56.00     3400.00
03162              40.00     3400.00
03163              16.00     3400.00
03164             -72.00     3400.00
03165              26.00     3400.00
03166              14.00     3400.00
03167             -42.00     3400.00
03168              24.00     3600.00
03169               8.00     3600.00
03170             -28.00     3400.00
03171             -16.00     3600.00
03172              -4.00     3800.00
03173              14.00     3600.00
03174              10.00     3600.00
03175             -22.00     4000.00
03176             -10.00     3800.00
03177              -2.00     4000.00
03178             -18.00     3800.00
03179              -2.00     4000.00
03180              18.00     4000.00
03181              -8.00     4000.00
03182             -14.00     4000.00
03183               6.00     4000.00
03184             -16.00     4000.00
03185             -18.00     4000.00
03186               6.00     4000.00
03187               2.00     4000.00
03188              -2.00     4200.00
03189             -10.00     4200.00
03190             -14.00     4200.00
03191               0.00     4200.00
03192             -10.00     4200.00
03193             -10.00     4200.00
03194               8.00     4200.00
03195               0.00     4200.00
03196             -16.00     4200.00
03197              -4.00     4400.00
03198              -8.00     4400.00
03199             -14.00     4200.00
03200               0.00     4400.00
03201               2.00     4400.00
03202              -4.00     4200.00
03203              -8.00     4200.00
03204             -10.00     4200.00
03205              -8.00     4200.00
03206               0.00     4400.00
03207              -8.00     4200.00
03208              -6.00     4400.00
03209              -2.00     4400.00
03210             -10.00     4400.00
03211              -8.00     4400.00
03212               0.00     4400.00
03213              -6.00     4200.00
03214              -2.00     4400.00
03215               0.00     4200.00
03216             -10.00     4200.00
03217             -10.00     4200.00
03218              -2.00     4400.00
03219               0.00     4000.00
03220              -2.00     4200.00
03221              -6.00     4200.00
03222              -8.00     4000.00
03223              -6.00     4200.00
03224              -8.00     4200.00
03225               0.00     4000.00
03226               6.00     4200.00
03227              -2.00     4200.00
03228             -10.00     4000.00
03229              -6.00     4200.00
03230              -6.00     3800.00
03231              -6.00     4000.00
03232              -2.00     4000.00
03233               0.00     4000.00
03234              -2.00     4000.00
03235             -10.00     3800.00
03236              -8.00     3800.00
03237              -6.00     3800.00
03238               0.00     3800.00
03239               0.00     3800.00
03240               0.00     3800.00
03241              -8.00     3600.00
03242             -14.00     3600.00
03243              -8.00     3600.00
03244              -2.00     3600.00
03245              -2.00     3600.00
03246              -2.00     3400.00
03247              -2.00     3400.00
03248              -8.00     3400.00
03249             -10.00     3400.00
03250             -10.00     3200.00
03251              -6.00     3400.00
03252              -2.00     3200.00
03253              -2.00     3200.00
03254               0.00     3200.00
03255              -4.00     3200.00
03256              -8.00     3000.00
03257              -8.00     3000.00
03258              -6.00     2800.00
03259              -6.00     2800.00
03260              -2.00     2800.00
03261               0.00     2800.00
03262              -4.00     2800.00
03263             -10.00     2600.00
03264             -10.00     2600.00
03265              -6.00     2400.00
03266              -2.00     2600.00
03267              -2.00     2400.00
03268              -2.00     2400.00
03269              -8.00     2200.00
03270             -10.00     2200.00
03271             -10.00     2200.00
03272              -6.00     2000.00
03273              -2.00     2000.00
03274              -2.00     2000.00
03275              -2.00     2000.00
03276              -2.00     1800.00
03277              -6.00     1800.00
03278              -8.00     1800.00
03279              -6.00     1600.00
03280              -2.00     1600.00
03281              -4.00     1600.00
03282              -2.00     1600.00
03283              -6.00     1400.00
03284              -8.00     1400.00
03285              -8.00     1200.00
03286              -2.00     1200.00
03287               2.00     1200.00
03288               0.00     1200.00
03289              -6.00     1200.00
03290              -6.00     1000.00
03291              -6.00     1000.00
03292              -8.00     1000.00
03293              -2.00      800.00
03294               0.00      800.00
03295              -2.00      800.00
03296              -2.00      600.00
03297              -6.00      400.00
03298              -2.00      400.00
03299              -2.00      400.00
03300              -6.00      400.00
03301              -6.00      400.00
03302              -2.00        0.00
03303               0.00      200.00
03304               0.00      200.00
03305              -2.00        0.00
03306               6.00        0.00
03307               0.00        0.00
03308              -2.00        0.00
03309              -2.00     -200.00
03310               2.00     -400.00
03311              14.00     -400.00
03312              70.00     -400.00
03313             144.00     -600.00
03314             -58.00     -800.00
03315            -254.00     -800.00
03316            -154.00     -600.00
03317             246.00     -800.00
03318             246.00     -800.00
03319            -254.00    -1200.00
03320            -254.00     -800.00
03321             246.00    -1200.00
03322             246.00    -1000.00
03323            -254.00    -1200.00
03324            -154.00    -1200.00
03325             246.00    -1400.00
03326              22.00    -1200.00
03327            -120.00    -1400.00
03328             -20.00    -1600.00
03329            -100.00    -1400.00
03330              38.00    -1600.00
03331             226.00    -1800.00
03332             -98.00    -1600.00
03333            -190.00    -1800.00
03334              80.00    -2000.00
03335             106.00    -2000.00
03336             -40.00    -2000.00
03337             -42.00    -2200.00
03338             -56.00    -2200.00
03339              32.00    -2200.00
03340             114.00    -2400.00
03341             -88.00    -2400.00
03342             -98.00    -2200.00
03343              82.00    -2400.00
03344              62.00    -2400.00
03345             -58.00    -2400.00
03346             -16.00    -2400.00
03347               0.00    -2600.00
03348              14.00    -2800.00
03349              18.00    -2600.00
03350             -26.00    -2800.00
03351             -30.00    -2800.00
03352              22.00    -2800.00
03353              22.00    -3000.00
03354             -14.00    -3000.00
03355             -14.00    -3000.00
03356              -8.00    -3000.00
03357              10.00    -3000.00
03358               8.00    -3000.00
03359             -16.00    -3000.00
03360             -10.00    -3200.00
03361              22.00    -3200.00
03362               2.00    -3200.00
03363             -24.00    -3200.00
03364              -2.00    -3400.00
03365              16.00    -3400.00
03366               6.00    -3600.00
03367              -4.00    -3200.00
03368              -8.00    -3600.00
03369              -8.00    -3600.00
03370               0.00    -3600.00
03371               2.00    -3600.00
03372               2.00    -3600.00
03373              -2.00    -3600.00
03374              -6.00    -3600.00
03375               0.00    -3600.00
03376               0.00    -3800.00
03377              -8.00    -3800.00
03378               0.00    -3800.00
03379               8.00    -3800.00
03380              -2.00    -3800.00
03381             -10.00    -3800.00
03382              -2.00    -3800.00
03383              -2.00    -3800.00
03384               0.00    -3800.00
03385               0.00    -3800.00
03386               2.00    -3800.00
03387               0.00    -4000.00
03388              -6.00    -3800.00
03389              -6.00    -4000.00
03390               0.00    -4000.00
03391               2.00    -4000.00
03392               0.00    -4000.00
03393               4.00    -4000.00
03394              -2.00    -4200.00
03395              -8.00    -3800.00
03396              -2.00    -4000.00
03397               0.00    -4000.00
03398               2.00    -4000.00
03399               0.00    -4000.00
03400               0.00    -4000.00
03401              -2.00    -4000.00
03402              -2.00    -4000.00
03403              -6.00    -4000.00
03404               0.00    -4000.00
03405               0.00    -3800.00
03406              -2.00    -3800.00
03407               2.00    -4000.00
03408               0.00    -4000.00
03409              -2.00    -4000.00
03410               0.00    -3800.00
03411               0.00    -4000.00
03412               0.00    -3800.00
03413               0.00    -3800.00
03414              -2.00    -3800.00
03415              -6.00    -4000.00
03416              -2.00    -3600.00
03417               0.00    -3800.00
03418               2.00    -3600.00
03419               6.00    -3800.00
03420               0.00    -3800.00
03421              -2.00    -3600.00
03422              -2.00    -3800.00
03423              -6.00    -3600.00
03424               0.00    -3600.00
03425               0.00    -3600.00
03426               2.00    -3600.00
03427               0.00    -3400.00
03428              -2.00    -3600.00
03429               0.00    -3600.00
03430               0.00    -3600.00
03431               0.00    -3400.00
03432               2.00    -3400.00
03433              -2.00    -3200.00
03434               0.00    -3200.00
03435              -2.00    -3200.00
03436               0.00    -3200.00
03437              -2.00    -3200.00
03438               0.00    -3200.00
03439               0.00    -3000.00
03440               0.00    -3000.00
03441               2.00    -3000.00
03442              -4.00    -2800.00
03443              -4.00    -3000.00
03444              -2.00    -2800.00
03445               0.00    -2800.00
03446               2.00    -2800.00
03447               0.00    -2800.00
03448              -6.00    -2800.00
03449              -8.00    -2800.00
03450              -2.00    -2400.00
03451               0.00    -2400.00
03452              -2.00    -2600.00
03453              -2.00    -2400.00
03454               0.00    -2400.00
03455              -8.00    -2200.00
03456              -2.00    -2200.00
03457              -4.00    -2200.00
03458              -2.00    -2200.00
03459              -2.00    -2200.00
03460              -2.00    -2000.00
03461               0.00    -2000.00
03462               0.00    -2000.00
03463              -8.00    -2000.00
03464              -8.00    -1800.00
03465              -2.00    -1800.00
03466              -2.00    -1600.00
03467               0.00    -1600.00
03468              -2.00    -1600.00
03469              -6.00    -1600.00
03470              -8.00    -1400.00
03471              -6.00    -1400.00
03472               0.00    -1400.00
03473               6.00    -1000.00
03474               0.00    -1200.00
03475              -6.00    -1000.00
03476             -14.00    -1200.00
03477              -8.00    -1000.00
03478               4.00     -800.00
03479               6.00     -800.00
03480               0.00     -800.00
03481              -6.00     -600.00
03482              -6.00     -600.00
03483              -2.00     -600.00
03484              -2.00     -600.00
03485               0.00     -600.00
03486               0.00     -400.00
03487              -2.00     -200.00
03488              -8.00     -200.00
03489              -6.00        0.00
03490               0.00        0.00
03491               0.00        0.00
03492              -4.00        0.00
03493              -4.00      200.00
03494              -2.00      200.00
03495               0.00      400.00
03496               0.00      400.00
03497               6.00      400.00
03498               8.00      400.00
03499              -2.00      400.00
03500              -8.00      600.00
03501              -6.00      600.00
03502               6.00      800.00
03503              62.00      800.00
03504             176.00     1000.00
03505             -30.00     1000.00
03506            -254.00      800.00
03507            -158.00     1000.00
03508             246.00     1200.00
03509             246.00     1200.00
03510            -254.00      800.00
03511            -254.00     1200.00
03512             246.00     1600.00
03513             246.00     1400.00
03514            -254.00     1200.00
03515             -40.00     1600.00
03516             246.00     1600.00
03517            -144.00     1400.00
03518            -254.00     1600.00
03519             178.00     2000.00
03520             -26.00     1600.00
03521             -78.00     1800.00
03522             158.00     2000.00
03523             -74.00     2000.00
03524            -122.00     2000.00
03525             136.00     2200.00
03526             -24.00     2200.00
03527             -70.00     2400.00
03528             102.00     2400.00
03529            -110.00     2400.00
03530             -38.00     2400.00
03531             198.00     2600.00
03532            -128.00     2600.00
03533            -136.00     2800.00
03534             186.00     2800.00
03535             -18.00     2600.00
03536            -102.00     2800.00
03537              78.00     2800.00
03538             -42.00     2800.00
03539             -24.00     3200.00
03540              72.00     3200.00
03541             -66.00     3000.00
03542              -2.00     3200.00
03543              32.00     3200.00
03544             -58.00     3400.00
03545              34.00     3400.00
03546              32.00     3400.00
03547             -66.00     3200.00
03548              18.00     3400.00
03549               8.00     3600.00
03550             -42.00     3600.00
03551              26.00     3600.00
03552              22.00     3600.00
03553             -24.00     3600.00
03554             -18.00     3600.00
03555             -10.00     3600.00
03556               8.00     3600.00
03557              10.00     3800.00
03558             -14.00     4000.00
03559              -2.00     3800.00
03560               8.00     4000.00
03561             -22.00     4000.00
03562             -16.00     4000.00
03563              14.00     4000.00
03564              -6.00     4000.00
03565             -10.00     4000.00
03566              12.00     4200.00
03567              -6.00     4200.00
03568             -16.00     4000.00
03569               0.00     4200.00
03570              -4.00     4000.00
03571              -2.00     4000.00
03572              -2.00     4200.00
03573              -8.00     4000.00
03574               0.00     4200.00
03575             -10.00     4200.00
03576             -24.00     4200.00
03577               2.00     4200.00
03578              10.00     4200.00
03579              -2.00     4200.00
03580              -2.00     4400.00
03581             -18.00     4200.00
03582             -22.00     4400.00
03583               2.00     4200.00
03584              10.00     4400.00
03585              -2.00     4400.00
03586             -10.00     4400.00
03587             -14.00     4400.00
03588              -8.00     4200.00
03589              -2.00     4400.00
03590              -8.00     4400.00
03591              -2.00     4400.00
03592              -2.00     4400.00
03593             -10.00     4400.00
03594              -8.00     4400.00
03595               0.00     4200.00
03596             -10.00     4200.00
03597             -10.00     4200.00
03598              -6.00     4200.00
03599              -6.00     4400.00
03600               0.00     4200.00
03601               0.00     4400.00
03602              -8.00     4200.00
03603             -14.00     4200.00
03604             -10.00     4200.00
03605              -2.00     4200.00
03606               0.00     4200.00
03607              -2.00     4000.00
03608              -8.00     4000.00
03609              -6.00     4000.00
03610              -8.00     4000.00
03611              -6.00     4200.00
03612               0.00     4000.00
03613              -2.00     4000.00
03614             -10.00     4000.00
03615              -8.00     4000.00
03616              -2.00     4000.00
03617              -2.00     4000.00
03618              -8.00     4000.00
03619              -8.00     4000.00
03620              -2.00     3800.00
03621              -6.00     4000.00
03622              -4.00     3800.00
03623              -2.00     3800.00
03624               0.00     3600.00
03625              -8.00     3600.00
03626             -10.00     3600.00
03627             -10.00     3600.00
03628              -8.00     3600.00
03629               0.00     3600.00
03630               6.00     3400.00
03631              -2.00     3400.00
03632             -14.00     3400.00
03633             -10.00     3400.00
03634               0.00     3200.00
03635               4.00     3200.00
03636              -6.00     3200.00
03637             -16.00     3200.00
03638             -18.00     3200.00
03639              -6.00     3200.00
03640              10.00     3200.00
03641              10.00     2800.00
03642              -6.00     2800.00
03643             -16.00     2800.00
03644             -18.00     2800.00
03645              -8.00     2800.00
03646               0.00     2600.00
03647               8.00     2800.00
03648               2.00     2600.00
03649              -8.00     2400.00
03650             -16.00     2400.00
03651             -12.00     2400.00
03652              -6.00     2400.00
03653              -2.00     2200.00
03654              -2.00     2200.00
03655               0.00     2000.00
03656              -2.00     2000.00
03657              -8.00     2000.00
03658             -10.00     1800.00
03659             -10.00     1800.00
03660              -8.00     1800.00
03661               0.00     1800.00
03662               8.00     1800.00
03663               0.00     1600.00
03664              -8.00     1600.00
03665             -16.00     1600.00
03666             -10.00     1400.00
03667               0.00     1400.00
03668               4.00     1200.00
03669               0.00     1200.00
03670              -2.00     1200.00
03671             -14.00     1200.00
03672             -10.00     1000.00
03673              -6.00     1200.00
03674              -2.00     1000.00
03675              -2.00     1000.00
03676              -2.00      800.00
03677               0.00      800.00
03678              -2.00      800.00
03679              -8.00      800.00
03680              -6.00      600.00
03681              -4.00      400.00
03682              -2.00      400.00
03683              -6.00      400.00
03684              -6.00      400.00
03685              -2.00      200.00
03686              -2.00        0.00
03687               0.00        0.00
03688               0.00      200.00
03689               8.00        0.00
03690               0.00        0.00
03691              -8.00        0.00
03692             -10.00        0.00
03693               0.00     -200.00
03694              14.00     -400.00
03695              64.00     -400.00
03696             146.00     -600.00
03697             -32.00     -800.00
03698            -254.00     -800.00
03699            -200.00     -400.00
03700             246.00     -800.00
03701             246.00     -800.00
03702            -254.00     -800.00
03703            -254.00     -600.00
03704             246.00    -1200.00
03705             246.00    -1000.00
03706            -254.00    -1000.00
03707            -194.00    -1200.00
03708             246.00    -1200.00
03709              54.00    -1400.00
03710            -122.00    -1400.00
03711             -24.00    -1600.00
03712            -102.00    -1400.00
03713              22.00    -1600.00
03714             230.00    -1800.00
03715             -74.00    -1800.00
03716            -198.00    -1800.00
03717              62.00    -2200.00
03718             120.00    -2000.00
03719             -34.00    -2000.00
03720             -42.00    -2200.00
03721             -58.00    -2200.00
03722              26.00    -2000.00
03723             120.00    -2400.00
03724             -74.00    -2400.00
03725            -106.00    -2200.00
03726              74.00    -2400.00
03727              64.00    -2600.00
03728             -60.00    -2400.00
03729             -18.00    -2600.00
03730               2.00    -2800.00
03731              14.00    -2600.00
03732              22.00    -2800.00
03733             -22.00    -2800.00
03734             -28.00    -2800.00
03735              14.00    -2800.00
03736              16.00    -2800.00
03737             -12.00    -3000.00
03738             -10.00    -3000.00
03739              -6.00    -3200.00
03740              14.00    -3000.00
03741               8.00    -3200.00
03742             -14.00    -3000.00
03743             -10.00    -3200.00
03744              18.00    -3200.00
03745               6.00    -3200.00
03746             -26.00    -3200.00
03747              -6.00    -3400.00
03748              16.00    -3600.00
03749               8.00    -3400.00
03750              -2.00    -3400.00
03751              -6.00    -3600.00
03752              -8.00    -3600.00
03753              -2.00    -3600.00
03754               6.00    -3600.00
03755               6.00    -3800.00
03756               0.00    -3600.00
03757              -2.00    -3600.00
03758              -2.00    -3800.00
03759              -2.00    -3600.00
03760              -8.00    -3800.00
03761               2.00    -3600.00
03762              10.00    -3800.00
03763               0.00    -3600.00
03764             -10.00    -3800.00
03765               0.00    -3800.00
03766               2.00    -4000.00
03767              -2.00    -4000.00
03768              -6.00    -4000.00
03769               0.00    -3800.00
03770               0.00    -4000.00
03771               0.00    -4000.00
03772              -4.00    -4000.00
03773              -4.00    -4000.00
03774              -2.00    -4000.00
03775              -2.00    -4000.00
03776               2.00    -4000.00
03777              10.00    -4000.00
03778              -2.00    -4000.00
03779             -16.00    -4000.00
03780              -4.00    -4000.00
03781               6.00    -4000.00
03782               6.00    -3800.00
03783              -2.00    -4000.00
03784             -10.00    -4000.00
03785              -6.00    -4000.00
03786               2.00    -4000.00
03787              -2.00    -4000.00
03788              -2.00    -4000.00
03789               4.00    -4000.00
03790               4.00    -4000.00
03791              -6.00    -3800.00
03792             -16.00    -4000.00
03793             -14.00    -4000.00
03794              10.00    -4000.00
03795              18.00    -3800.00
03796               2.00    -3800.00
03797             -20.00    -3800.00
03798             -18.00    -3800.00
03799               2.00    -3800.00
03800              24.00    -3800.00
03801              12.00    -3800.00
03802             -18.00    -3800.00
03803             -18.00    -3800.00
03804              -6.00    -3600.00
03805               6.00    -3600.00
03806               4.00    -3600.00
03807               6.00    -3600.00
03808               0.00    -3600.00
03809               0.00    -3600.00
03810              -6.00    -3400.00
03811              -4.00    -3400.00
03812               0.00    -3400.00
03813               0.00    -3600.00
03814              -2.00    -3600.00
03815              -2.00    -3400.00
03816              -4.00    -3200.00
03817              -2.00    -3400.00
03818               6.00    -3200.00
03819               0.00    -3200.00
03820              -6.00    -3000.00
03821              -6.00    -3200.00
03822              -6.00    -3000.00
03823               6.00    -3000.00
03824               6.00    -3000.00
03825               2.00    -3000.00
03826               0.00    -3000.00
03827              -2.00    -3000.00
03828             -10.00    -2800.00
03829              -4.00    -2800.00
03830               2.00    -2600.00
03831               6.00    -2800.00
03832               6.00    -2600.00
03833              -2.00    -2600.00
03834             -10.00    -2600.00
03835             -10.00    -2400.00
03836              -2.00    -2400.00
03837               6.00    -2400.00
03838               6.00    -2400.00
03839               0.00    -2200.00
03840              -6.00    -2200.00
03841              -8.00    -2000.00
03842              -8.00    -2200.00
03843              -6.00    -2000.00
03844               0.00    -2000.00
03845               2.00    -2000.00
03846               2.00    -2000.00
03847               0.00    -2000.00
03848              -6.00    -1600.00
03849             -10.00    -1800.00
03850              -6.00    -1600.00
03851               2.00    -1600.00
03852               2.00    -1600.00
03853               0.00    -1400.00
03854              -6.00    -1400.00
03855              -8.00    -1400.00
03856              -8.00    -1200.00
03857              -6.00    -1000.00
03858               0.00    -1000.00
03859               0.00    -1000.00
03860              -2.00    -1000.00
03861               0.00     -800.00
03862              -4.00    -1000.00
03863             -10.00     -600.00
03864             -10.00     -800.00
03865              -2.00     -600.00
03866               8.00     -400.00
03867               0.00     -400.00
03868              -8.00     -400.00
03869              -6.00     -400.00
03870              -6.00     -400.00
03871               0.00     -200.00
03872              -2.00        0.00
03873              -6.00        0.00
03874              -6.00        0.00
03875              -6.00        0.00
03876               0.00        0.00
03877               6.00      200.00
03878               0.00      200.00
03879              -6.00      400.00
03880              -2.00      400.00
03881               6.00      400.00
03882               2.00      400.00
03883               2.00      400.00
03884               2.00      600.00
03885               0.00      800.00
03886              40.00      800.00
03887             168.00     1000.00
03888               0.00     1200.00
03889            -254.00     1000.00
03890            -196.00     1000.00
03891             246.00     1200.00
03892             246.00     1200.00
03893            -254.00     1000.00
03894            -254.00     1200.00
03895             246.00     1600.00
03896             246.00     1600.00
03897            -254.00     1200.00
03898             -98.00     1600.00
03899             246.00     1800.00
03900            -102.00     1400.00
03901            -254.00     1600.00
03902             166.00     2000.00
03903             -10.00     1600.00
03904             -90.00     1800.00
03905             156.00     2000.00
03906             -46.00     1800.00
03907            -138.00     2000.00
03908             124.00     2200.00
03909              -8.00     2400.00
03910             -80.00     2200.00
03911             106.00     2400.00
03912             -94.00     2400.00
03913             -62.00     2400.00
03914             198.00     2600.00
03915            -106.00     2400.00
03916            -154.00     2600.00
03917             182.00     2800.00
03918               0.00     2800.00
03919            -112.00     2800.00
03920              78.00     3000.00
03921             -30.00     2800.00
03922             -36.00     2800.00
03923              70.00     3200.00
03924             -62.00     3000.00
03925             -10.00     3000.00
03926              40.00     3200.00
03927             -54.00     3200.00
03928              26.00     3400.00
03929              32.00     3400.00
03930             -72.00     3400.00
03931              18.00     3400.00
03932              22.00     3400.00
03933             -46.00     3400.00
03934              10.00     3600.00
03935              20.00     3600.00
03936             -18.00     3600.00
03937             -10.00     3600.00
03938              -8.00     3800.00
03939               2.00     3600.00
03940               8.00     3800.00
03941             -18.00     3800.00
03942              -6.00     3800.00
03943               8.00     4000.00
03944             -16.00     4000.00
03945             -10.00     3800.00
03946              14.00     4000.00
03947              -8.00     4000.00
03948             -14.00     4000.00
03949              14.00     4200.00
03950              -2.00     4000.00
03951             -18.00     4000.00
03952               4.00     4200.00
03953               0.00     4200.00
03954              -2.00     4200.00
03955              -8.00     4200.00
03956             -10.00     4200.00
03957               0.00     4200.00
03958              -2.00     4200.00
03959             -10.00     4400.00
03960               6.00     4200.00
03961               0.00     4200.00
03962             -16.00     4400.00
03963              -2.00     4200.00
03964               0.00     4200.00
03965              -8.00     4200.00
03966              -6.00     4400.00
03967              -2.00     4400.00
03968              -6.00     4200.00
03969              -8.00     4400.00
03970              -8.00     4400.00
03971              -6.00     4200.00
03972              -2.00     4400.00
03973             -10.00     4400.00
03974              -6.00     4400.00
03975              -2.00     4400.00
03976              -8.00     4400.00
03977             -10.00     4400.00
03978              -6.00     4400.00
03979              -6.00     4200.00
03980              -2.00     4200.00
03981               0.00     4400.00
03982             -10.00     4200.00
03983             -12.00     4400.00
03984              -2.00     4200.00
03985              -6.00     4200.00
03986              -6.00     4200.00
03987              -8.00     4400.00
03988              -6.00     4200.00
03989              -6.00     4200.00
03990             -10.00     4000.00
03991             -10.00     4000.00
03992               0.00     4200.00
03993              -2.00     4200.00
03994              -8.00     4200.00
03995              -6.00     4000.00
03996              -6.00     4000.00
03997              -8.00     4000.00
03998              -6.00     4000.00
03999              -2.00     4000.00
04000              -2.00     4000.00
04001              -6.00     4000.00
04002              -8.00     4000.00
04003              -6.00     3800.00
04004              -6.00     3800.00
04005              -4.00     4000.00
04006               0.00     3800.00
04007              -2.00     3600.00
04008              -4.00     3600.00
04009              -8.00     3600.00
04010              -6.00     3600.00
04011              -6.00     3400.00
04012              -6.00     3600.00
04013              -2.00     3400.00
04014              -2.00     3400.00
04015              -8.00     3400.00
04016              -6.00     3400.00
04017              -4.00     3200.00
04018              -6.00     3400.00
04019              -4.00     3200.00
04020              -2.00     3200.00
04021              -2.00     3200.00
04022              -6.00     3000.00
04023              -6.00     3000.00
04024              -4.00     2800.00
04025              -6.00     3000.00
04026              -6.00     2800.00
04027               0.00     2800.00
04028              -2.00     2800.00
04029              -8.00     2600.00
04030              -6.00     2600.00
04031              -6.00     2400.00
04032              -2.00     2600.00
04033              -6.00     2400.00
04034              -4.00     2400.00
04035              -2.00     2400.00
04036              -6.00     2200.00
04037              -8.00     2200.00
04038              -6.00     2000.00
04039              -4.00     2000.00
04040              -4.00     2000.00
04041              -4.00     2000.00
04042              -6.00     1800.00
04043              -6.00     1800.00
04044              -6.00     1800.00
04045              -4.00     1800.00
04046              -6.00     1600.00
04047              -2.00     1600.00
04048              -8.00     1600.00
04049              -6.00     1400.00
04050              -6.00     1200.00
04051              -6.00     1200.00
04052              -2.00     1200.00
04053              -2.00     1200.00
04054              -6.00     1200.00
04055              -6.00     1200.00
04056              -6.00     1000.00
04057              -6.00     1000.00
04058              -2.00     1000.00
04059              -2.00      800.00
04060               0.00      800.00
04061              -2.00      800.00
04062              -2.00      600.00
04063              -8.00      600.00
04064              -6.00      600.00
04065              -2.00      400.00
04066              -2.00      400.00
04067              -6.00      400.00
04068               0.00      200.00
04069               0.00      200.00
04070               0.00      200.00
04071               0.00        0.00
04072               8.00        0.00
04073               6.00        0.00
04074              -6.00        0.00
04075              -8.00        0.00
04076              -2.00     -400.00
04077              10.00     -400.00
04078              56.00     -400.00
04079             148.00     -400.00
04080             -10.00     -800.00
04081            -254.00     -800.00
04082            -242.00     -400.00
04083             246.00     -600.00
04084             246.00     -800.00
04085            -254.00    -1200.00
04086            -254.00     -800.00
04087             246.00    -1200.00
04088             246.00    -1000.00
04089            -254.00    -1000.00
04090            -240.00    -1200.00
04091             246.00    -1400.00
04092              80.00    -1000.00
04093            -126.00    -1400.00
04094             -22.00    -1600.00
04095             -90.00    -1400.00
04096               0.00    -1400.00
04097             226.00    -2000.00
04098             -48.00    -1800.00
04099            -206.00    -1800.00
04100              46.00    -2000.00
04101             128.00    -2000.00
04102             -32.00    -2000.00
04103             -36.00    -2200.00
04104             -58.00    -2000.00
04105              16.00    -2200.00
04106             120.00    -2400.00
04107             -58.00    -2200.00
04108            -114.00    -2200.00
04109              64.00    -2400.00
04110              72.00    -2400.00
04111             -56.00    -2400.00
04112             -22.00    -2600.00
04113               0.00    -2600.00
04114              10.00    -2800.00
04115              22.00    -2800.00
04116             -22.00    -2800.00
04117             -32.00    -2800.00
04118              18.00    -2800.00
04119              24.00    -2800.00
04120             -10.00    -3000.00
04121             -16.00    -2800.00
04122             -10.00    -3200.00
04123              10.00    -3200.00
04124              14.00    -3200.00
04125             -10.00    -3200.00
04126             -16.00    -3200.00
04127              16.00    -3200.00
04128               6.00    -3200.00
04129             -24.00    -3200.00
04130              -6.00    -3200.00
04131              14.00    -3600.00
04132               6.00    -3400.00
04133              -6.00    -3400.00
04134              -8.00    -3600.00
04135              -6.00    -3600.00
04136               0.00    -3400.00
04137               6.00    -3600.00
04138               6.00    -3600.00
04139               0.00    -3600.00
04140              -6.00    -3800.00
04141               0.00    -3800.00
04142               0.00    -3600.00
04143              -6.00    -3800.00
04144               0.00    -3800.00
04145               8.00    -3600.00
04146               0.00    -3800.00
04147              -8.00    -4000.00
04148              -2.00    -3600.00
04149               2.00    -3800.00
04150               2.00    -3800.00
04151              -2.00    -3800.00
04152              -2.00    -4000.00
04153               2.00    -4000.00
04154               2.00    -3800.00
04155              -6.00    -3800.00
04156              -6.00    -4000.00
04157              -4.00    -4000.00
04158               2.00    -3800.00
04159              10.00    -4000.00
04160               2.00    -3800.00
04161             -10.00    -4000.00
04162             -10.00    -4000.00
04163              -2.00    -3800.00
04164               2.00    -4000.00
04165               4.00    -4000.00
04166               0.00    -4000.00
04167              -4.00    -4000.00
04168              -6.00    -4000.00
04169              -2.00    -4000.00
04170               2.00    -4000.00
04171               0.00    -4000.00
04172              -2.00    -3800.00
04173              -2.00    -3800.00
04174               0.00    -4000.00
04175              -6.00    -3800.00
04176              -6.00    -3800.00
04177               2.00    -3800.00
04178               0.00    -4000.00
04179               0.00    -3800.00
04180              -2.00    -3800.00
04181              -6.00    -3800.00
04182              -8.00    -3800.00
04183               0.00    -3600.00
04184               8.00    -3800.00
04185               2.00    -3600.00
04186              -2.00    -3600.00
04187              -8.00    -3800.00
04188              -2.00    -3600.00
04189              -2.00    -3600.00
04190               0.00    -3600.00
04191              -2.00    -3600.00
04192               0.00    -3800.00
04193               0.00    -3600.00
04194               0.00    -3600.00
04195              -2.00    -3600.00
04196              -2.00    -3400.00
04197              -6.00    -3400.00
04198              -2.00    -3200.00
04199               0.00    -3400.00
04200               6.00    -3200.00
04201               0.00    -3200.00
04202              -2.00    -3200.00
04203              -8.00    -3000.00
04204              -2.00    -3200.00
04205               0.00    -3000.00
04206               4.00    -3000.00
04207              -2.00    -3000.00
04208              -2.00    -3000.00
04209              -6.00    -3000.00
04210              -2.00    -2800.00
04211              -2.00    -2800.00
04212               2.00    -2800.00
04213               2.00    -2800.00
04214               0.00    -2800.00
04215              -6.00    -2600.00
04216              -4.00    -2400.00
04217              -6.00    -2400.00
04218               0.00    -2400.00
04219               2.00    -2400.00
04220               2.00    -2400.00
04221              -2.00    -2400.00
04222              -6.00    -2200.00
04223              -6.00    -2200.00
04224               0.00    -2000.00
04225               0.00    -2200.00
04226               0.00    -2000.00
04227              -2.00    -2000.00
04228              -2.00    -2000.00
04229              -8.00    -2000.00
04230              -2.00    -1800.00
04231               0.00    -1600.00
04232              -2.00    -1600.00
04233              -2.00    -1600.00
04234              -6.00    -1600.00
04235              -8.00    -1400.00
04236              -6.00    -1400.00
04237              -2.00    -1400.00
04238              -2.00    -1200.00
04239              -2.00    -1000.00
04240              -6.00    -1200.00
04241              -2.00    -1000.00
04242              -2.00    -1200.00
04243              -2.00     -800.00
04244              -2.00     -800.00
04245              -2.00     -800.00
04246              -2.00     -800.00
04247              -6.00     -600.00
04248              -4.00     -800.00
04249              -2.00     -600.00
04250              -2.00     -600.00
04251              -2.00     -400.00
04252              -2.00     -600.00
04253              -2.00     -400.00
04254              -2.00     -200.00
04255              -2.00     -200.00
04256              -4.00        0.00
04257              -2.00        0.00
04258              -2.00        0.00
04259              -2.00        0.00
04260               2.00      200.00
04261               2.00      400.00
04262               0.00      400.00
04263               2.00      400.00
04264               6.00      400.00
04265              -2.00      400.00
04266              -4.00      600.00
04267              -2.00      600.00
04268               6.00      600.00
04269              46.00      800.00
04270             170.00     1000.00
04271              22.00     1000.00
04272            -254.00     1000.00
04273            -254.00      800.00
04274             246.00     1400.00
04275             246.00     1200.00
04276            -254.00     1000.00
04277            -254.00     1200.00
04278             246.00     1600.00
04279             246.00     1400.00
04280            -254.00     1200.00
04281            -154.00     1600.00
04282             246.00     1800.00
04283             -54.00     1600.00
04284            -254.00     1600.00
04285             148.00     2000.00
04286              22.00     2000.00
04287             -94.00     1800.00
04288             144.00     2000.00
04289             -26.00     2000.00
04290            -160.00     2000.00
04291             122.00     2200.00
04292              16.00     2200.00
04293             -90.00     2400.00
04294              98.00     2400.00
04295             -80.00     2400.00
04296             -78.00     2400.00
04297             206.00     2600.00
04298             -74.00     2400.00
04299            -178.00     2600.00
04300             162.00     2800.00
04301              22.00     2800.00
04302            -122.00     2800.00
04303              74.00     3000.00
04304             -16.00     2800.00
04305             -46.00     3000.00
04306              70.00     3200.00
04307             -58.00     3000.00
04308             -22.00     3200.00
04309              48.00     3200.00
04310             -54.00     3200.00
04311              16.00     3200.00
04312              34.00     3400.00
04313             -70.00     3400.00
04314              16.00     3400.00
04315              32.00     3400.00
04316             -48.00     3400.00
04317               6.00     3600.00
04318              18.00     3600.00
04319             -24.00     3600.00
04320             -14.00     3800.00
04321              -2.00     3600.00
04322               6.00     3600.00
04323              10.00     3600.00
04324             -22.00     3800.00
04325             -10.00     3800.00
04326               6.00     4000.00
04327             -16.00     4000.00
04328             -10.00     4000.00
04329              16.00     4000.00
04330              -8.00     4000.00
04331             -18.00     4000.00
04332              10.00     4000.00
04333              -4.00     4000.00
04334             -18.00     4000.00
04335               2.00     4200.00
04336              -2.00     4000.00
04337              -4.00     4200.00
04338              -8.00     4200.00
04339             -10.00     4200.00
04340               0.00     4200.00
04341              -2.00     4200.00
04342             -14.00     4400.00
04343               6.00     4400.00
04344               2.00     4200.00
04345             -14.00     4200.00
04346              -6.00     4400.00
04347              -2.00     4200.00
04348              -8.00     4400.00
04349              -2.00     4200.00
04350               2.00     4400.00
04351              -4.00     4400.00
04352              -8.00     4400.00
04353             -10.00     4400.00
04354              -8.00     4200.00
04355               0.00     4400.00
04356              -6.00     4400.00
04357              -6.00     4200.00
04358              -2.00     4400.00
04359             -10.00     4200.00
04360             -10.00     4200.00
04361              -4.00     4400.00
04362              -6.00     4200.00
04363              -6.00     4200.00
04364               0.00     4400.00
04365             -10.00     4400.00
04366             -10.00     4400.00
04367              -6.00     4400.00
04368              -6.00     4200.00
04369              -8.00     4000.00
04370              -4.00     4200.00
04371              -6.00     4000.00
04372              -8.00     4200.00
04373             -10.00     4200.00
04374             -10.00     4000.00
04375               0.00     4000.00
04376               0.00     4200.00
04377             -10.00     4000.00
04378              -6.00     4000.00
04379              -6.00     4000.00
04380             -10.00     4000.00
04381              -8.00     4000.00
04382               0.00     4000.00
04383              -2.00     4000.00
04384              -6.00     4000.00
04385              -8.00     3800.00
04386              -6.00     3800.00
04387              -8.00     4000.00
04388              -8.00     3800.00
04389              -2.00     3600.00
04390              -2.00     3600.00
04391              -6.00     3600.00
04392              -6.00     3600.00
04393              -6.00     3600.00
04394              -8.00     3600.00
04395              -6.00     3600.00
04396              -2.00     3400.00
04397              -2.00     3400.00
04398              -6.00     3400.00
04399             -10.00     3400.00
04400              -2.00     3400.00
04401              -6.00     3200.00
04402              -6.00     3200.00
04403               0.00     3200.00
04404              -6.00     3000.00
04405              -6.00     3000.00
04406              -6.00     3000.00
04407              -6.00     3000.00
04408              -2.00     2800.00
04409              -6.00     2800.00
04410              -4.00     2800.00
04411              -2.00     2800.00
04412              -6.00     2600.00
04413              -8.00     2800.00
04414              -2.00     2600.00
04415              -2.00     2600.00
04416              -6.00     2600.00
04417              -2.00     2400.00
04418              -6.00     2400.00
04419              -6.00     2200.00
04420              -8.00     2200.00
04421              -6.00     2200.00
04422              -2.00     2000.00
04423              -6.00     2000.00
04424              -6.00     2000.00
04425              -4.00     2000.00
04426              -6.00     1800.00
04427             -10.00     1800.00
04428              -2.00     1800.00
04429              -2.00     1600.00
04430              -4.00     1600.00
04431              -6.00     1600.00
04432              -8.00     1400.00
04433              -6.00     1400.00
04434              -6.00     1200.00
04435              -6.00     1200.00
04436               0.00     1200.00
04437               0.00     1200.00
04438              -4.00     1000.00
04439              -6.00     1000.00
04440              -8.00     1000.00
04441              -8.00      800.00
04442              -4.00      800.00
04443               2.00      800.00
04444               0.00      600.00
04445              -4.00      600.00
04446             -10.00      400.00
04447              -8.00      400.00
04448               2.00      400.00
04449              -2.00      400.00
04450              -2.00      400.00
04451              -4.00      200.00
04452               0.00      200.00
04453               0.00      200.00
04454               2.00        0.00
04455               8.00        0.00
04456               2.00        0.00
04457              -8.00     -200.00
04458             -10.00     -200.00
04459              -4.00     -400.00
04460              14.00     -400.00
04461              54.00     -400.00
04462             146.00     -400.00
04463              12.00     -800.00
04464            -254.00     -800.00
04465            -254.00     -400.00
04466             246.00     -600.00
04467             246.00     -800.00
04468            -254.00    -1000.00
04469            -254.00     -800.00
04470             246.00    -1000.00
04471             246.00    -1000.00
04472            -254.00    -1000.00
04473            -254.00    -1200.00
04474             246.00    -1400.00
04475             112.00    -1400.00
04476            -130.00    -1600.00
04477             -26.00    -1600.00
04478             -88.00    -1600.00
04479             -10.00    -1400.00
04480             228.00    -1800.00
04481             -22.00    -1800.00
04482            -218.00    -1600.00
04483              24.00    -2000.00
04484             144.00    -2000.00
04485             -24.00    -2000.00
04486             -34.00    -2200.00
04487             -58.00    -2200.00
04488               2.00    -2000.00
04489             116.00    -2400.00
04490             -42.00    -2400.00
04491            -122.00    -2200.00
04492              56.00    -2400.00
04493              82.00    -2400.00
04494             -56.00    -2400.00
04495             -26.00    -2600.00
04496               0.00    -2800.00
04497              12.00    -2600.00
04498              22.00    -2800.00
04499             -16.00    -2800.00
04500             -38.00    -2800.00
04501              10.00    -2800.00
04502              24.00    -2800.00
04503              -8.00    -3000.00
04504             -14.00    -3000.00
04505             -10.00    -3200.00
04506               8.00    -3000.00
04507              10.00    -3200.00
04508             -14.00    -3000.00
04509             -18.00    -3000.00
04510              16.00    -3200.00
04511               8.00    -3200.00
04512             -26.00    -3200.00
04513             -10.00    -3400.00
04514              10.00    -3600.00
04515               6.00    -3400.00
04516              -2.00    -3600.00
04517              -8.00    -3600.00
04518              -8.00    -3600.00
04519              -2.00    -3600.00
04520               4.00    -3600.00
04521               2.00    -3600.00
04522               0.00    -3600.00
04523              -8.00    -3800.00
04524               0.00    -3800.00
04525               0.00    -3800.00
04526              -8.00    -3600.00
04527              -2.00    -3800.00
04528               8.00    -3800.00
04529               2.00    -3800.00
04530             -10.00    -3800.00
04531              -2.00    -4000.00
04532               0.00    -3800.00
04533               0.00    -3800.00
04534               0.00    -3800.00
04535               2.00    -3800.00
04536               2.00    -4000.00
04537              -2.00    -4000.00
04538              -8.00    -4000.00
04539              -2.00    -3800.00
04540               0.00    -3800.00
04541              -2.00    -3800.00
04542               4.00    -4000.00
04543               0.00    -4000.00
04544              -6.00    -4000.00
04545              -2.00    -4000.00
04546               0.00    -4000.00
04547               0.00    -4000.00
04548               2.00    -3800.00
04549               0.00    -4000.00
04550               0.00    -4000.00
04551              -6.00    -4000.00
04552              -6.00    -4000.00
04553               0.00    -4000.00
04554               0.00    -4000.00
04555               0.00    -4000.00
04556               0.00    -3800.00
04557              -2.00    -4000.00
04558              -8.00    -4000.00
04559              -6.00    -4000.00
04560              -2.00    -3800.00
04561               0.00    -3800.00
04562              -2.00    -3800.00
04563              -2.00    -4000.00
04564              -6.00    -3800.00
04565              -2.00    -3800.00
04566               0.00    -3800.00
04567              -2.00    -3800.00
04568               0.00    -3800.00
04569              -2.00    -3600.00
04570              -6.00    -3800.00
04571              -2.00    -3600.00
04572              -6.00    -3800.00
04573              -2.00    -3600.00
04574               0.00    -3600.00
04575               0.00    -3600.00
04576              -2.00    -3600.00
04577              -2.00    -3600.00
04578              -6.00    -3400.00
04579              -2.00    -3400.00
04580              -2.00    -3400.00
04581               2.00    -3200.00
04582               2.00    -3200.00
04583              -2.00    -3200.00
04584              -2.00    -3200.00
04585              -2.00    -3400.00
04586              -2.00    -3200.00
04587              -2.00    -3200.00
04588              -2.00    -3200.00
04589              -2.00    -3000.00
04590              -2.00    -3000.00
04591               0.00    -3000.00
04592              -2.00    -2800.00
04593               0.00    -3000.00
04594              -2.00    -2800.00
04595              -2.00    -2800.00
04596               0.00    -2800.00
04597              -2.00    -2800.00
04598              -2.00    -2600.00
04599              -8.00    -2600.00
04600              -2.00    -2400.00
04601               2.00    -2600.00
04602               6.00    -2400.00
04603              -2.00    -2400.00
04604              -8.00    -2400.00
04605              -6.00    -2400.00
04606               2.00    -2200.00
04607               8.00    -2200.00
04608               0.00    -2200.00
04609              -6.00    -2000.00
04610              -8.00    -2000.00
04611               2.00    -2000.00
04612               6.00    -1800.00
04613              -6.00    -2000.00
04614             -10.00    -1600.00
04615               0.00    -1600.00
04616              16.00    -1600.00
04617               6.00    -1600.00
04618             -14.00    -1400.00
04619             -16.00    -1400.00
04620              -2.00    -1400.00
04621              14.00    -1400.00
04622               8.00    -1400.00
04623              -8.00    -1000.00
04624             -14.00    -1200.00
04625             -14.00    -1000.00
04626               0.00     -800.00
04627               8.00     -800.00
04628               6.00     -800.00
04629              -4.00     -800.00
04630              -8.00     -800.00
04631              -8.00     -600.00
04632             -10.00     -600.00
04633             -10.00     -600.00
04634               0.00     -600.00
04635              10.00     -400.00
04636               2.00     -400.00
04637             -10.00     -200.00
04638             -14.00     -200.00
04639              -2.00        0.00
04640               2.00        0.00
04641              -2.00        0.00
04642              -8.00      200.00
04643              -6.00      200.00
04644               0.00      200.00
04645               2.00      400.00
04646               6.00      400.00
04647               8.00      400.00
04648               0.00      400.00
04649             -10.00      400.00
04650              -6.00      800.00
04651               2.00      600.00
04652              40.00      800.00
04653             166.00     1000.00
04654              40.00     1000.00
04655            -254.00      800.00
04656            -254.00      800.00
04657             246.00     1200.00
04658             246.00     1200.00
04659            -254.00     1000.00
04660            -254.00     1200.00
04661             246.00     1600.00
04662             246.00     1600.00
04663            -254.00     1200.00
04664            -216.00     1600.00
04665             246.00     1800.00
04666             -10.00     1600.00
04667            -254.00     1600.00
04668             126.00     2000.00
04669              46.00     1800.00
04670            -104.00     1800.00
04671             138.00     2000.00
04672               4.00     2000.00
04673            -174.00     2000.00
04674             104.00     2200.00
04675              32.00     2000.00
04676             -98.00     2400.00
04677             102.00     2400.00
04678             -62.00     2400.00
04679             -98.00     2400.00
04680             196.00     2600.00
04681             -46.00     2600.00
04682            -192.00     2600.00
04683             154.00     2800.00
04684              42.00     2800.00
04685            -134.00     2600.00
04686              64.00     3000.00
04687              -8.00     2800.00
04688             -54.00     3000.00
04689              72.00     3200.00
04690             -46.00     3000.00
04691             -26.00     3200.00
04692              52.00     3200.00
04693             -50.00     3200.00
04694               4.00     3400.00
04695              40.00     3400.00
04696             -70.00     3200.00
04697               6.00     3400.00
04698              34.00     3400.00
04699             -42.00     3400.00
04700               2.00     3600.00
04701              22.00     3600.00
04702             -24.00     3600.00
04703             -18.00     3800.00
04704              -6.00     3600.00
04705               2.00     3600.00
04706              14.00     3600.00
04707             -18.00     3800.00
04708             -10.00     4000.00
04709               6.00     3800.00
04710             -12.00     4000.00
04711             -10.00     3800.00
04712              14.00     4000.00
04713              -6.00     4000.00
04714             -24.00     4000.00
04715               6.00     4000.00
04716               0.00     4200.00
04717             -16.00     4000.00
04718               0.00     4000.00
04719               0.00     4200.00
04720              -6.00     4000.00
04721              -8.00     4200.00
04722             -10.00     4000.00
04723               0.00     4400.00
04724              -2.00     4200.00
04725             -14.00     4200.00
04726               4.00     4200.00
04727               2.00     4400.00
04728             -14.00     4200.00
04729              -6.00     4400.00
04730              -2.00     4400.00
04731             -10.00     4200.00
04732              -6.00     4200.00
04733               0.00     4200.00
04734              -6.00     4400.00
04735              -8.00     4400.00
04736              -6.00     4400.00
04737              -6.00     4400.00
04738               0.00     4400.00
04739              -6.00     4400.00
04740              -8.00     4400.00
04741               0.00     4400.00
04742              -8.00     4400.00
04743             -10.00     4200.00
04744              -2.00     4200.00
04745              -6.00     4200.00
04746              -4.00     4200.00
04747               0.00     4400.00
04748              -8.00     4400.00
04749             -10.00     4200.00
04750              -2.00     4200.00
04751              -6.00     4200.00
04752              -6.00     4200.00
04753              -6.00     4200.00
04754              -6.00     4200.00
04755              -6.00     4200.00
04756             -10.00     4200.00
04757              -8.00     4200.00
04758              -2.00     4000.00
04759              -2.00     4000.00
04760             -10.00     4000.00
04761              -2.00     4000.00
04762              -6.00     4000.00
04763             -10.00     4000.00
04764              -6.00     3800.00
04765              -4.00     4000.00
04766             -10.00     3800.00
04767              -4.00     4000.00
04768               0.00     4000.00
04769              -8.00     4000.00
04770             -10.00     3800.00
04771              -6.00     3600.00
04772              -2.00     3600.00
04773              -2.00     3600.00
04774              -8.00     3600.00
04775             -10.00     3600.00
04776             -10.00     3600.00
04777              -6.00     3600.00
04778               2.00     3400.00
04779               6.00     3400.00
04780              -4.00     3400.00
04781             -18.00     3400.00
04782             -12.00     3200.00
04783               2.00     3200.00
04784               6.00     3200.00
04785              -2.00     3200.00
04786              -8.00     3200.00
04787              -8.00     3200.00
04788             -10.00     3200.00
04789               0.00     3000.00
04790               2.00     3000.00
04791               0.00     2800.00
04792             -14.00     2800.00
04793             -16.00     2800.00
04794              -8.00     2800.00
04795              10.00     2600.00
04796              10.00     2800.00
04797              -2.00     2600.00
04798             -18.00     2600.00
04799             -18.00     2600.00
04800               0.00     2600.00
04801              12.00     2200.00
04802               0.00     2400.00
04803             -10.00     2200.00
04804             -14.00     2000.00
04805              -6.00     2200.00
04806              -2.00     1800.00
04807              -2.00     2000.00
04808              -2.00     2000.00
04809               0.00     1800.00
04810              -6.00     1800.00
04811              -6.00     1600.00
04812              -8.00     1600.00
04813              -6.00     1600.00
04814               0.00     1600.00
04815              -2.00     1400.00
04816              -8.00     1400.00
04817             -10.00     1400.00
04818              -6.00     1200.00
04819               0.00     1200.00
04820               0.00     1200.00
04821              -6.00     1200.00
04822              -8.00     1000.00
04823              -8.00     1000.00
04824              -8.00     1000.00
04825              -2.00      800.00
04826               2.00      800.00
04827               0.00      800.00
04828              -8.00      600.00
04829             -10.00      400.00
04830              -6.00      400.00
04831               2.00      400.00
04832               0.00      200.00
04833              -8.00      400.00
04834              -6.00      200.00
04835              -4.00        0.00
04836              -2.00        0.00
04837               0.00        0.00
04838               8.00        0.00
04839               6.00        0.00
04840              -8.00        0.00
04841             -10.00     -200.00
04842              -6.00     -400.00
04843               8.00     -400.00
04844              46.00     -400.00
04845             150.00     -600.00
04846              34.00     -800.00
04847            -254.00     -800.00
04848            -254.00     -600.00
04849             246.00     -600.00
04850             246.00     -800.00
04851            -254.00    -1000.00
04852            -254.00     -600.00
04853             246.00    -1200.00
04854             246.00    -1200.00
04855            -254.00    -1000.00
04856            -254.00    -1200.00
04857             246.00    -1400.00
04858             138.00    -1200.00
04859            -134.00    -1400.00
04860             -28.00    -1600.00
04861             -78.00    -1400.00
04862             -26.00    -1400.00
04863             218.00    -1600.00
04864               6.00    -1600.00
04865            -222.00    -1800.00
04866               8.00    -2000.00
04867             150.00    -2000.00
04868             -18.00    -2000.00
04869             -34.00    -2200.00
04870             -60.00    -2000.00
04871              -6.00    -2200.00
04872             116.00    -2400.00
04873             -26.00    -2400.00
04874            -128.00    -2200.00
04875              48.00    -2400.00
04876              94.00    -2400.00
04877             -50.00    -2400.00
04878             -32.00    -2600.00
04879               0.00    -2800.00
04880              10.00    -2600.00
04881              18.00    -2800.00
04882             -14.00    -2800.00
04883             -40.00    -2800.00
04884              10.00    -2800.00
04885              24.00    -3000.00
04886              -8.00    -2800.00
04887             -16.00    -3000.00
04888             -10.00    -3000.00
04889              10.00    -3000.00
04890              14.00    -3200.00
04891             -12.00    -3200.00
04892             -22.00    -3000.00
04893              16.00    -3400.00
04894              10.00    -3200.00
04895             -26.00    -3200.00
04896             -14.00    -3200.00
04897              14.00    -3400.00
04898              10.00    -3600.00
04899              -6.00    -3400.00
04900             -10.00    -3600.00
04901             -10.00    -3600.00
04902              -2.00    -3600.00
04903               2.00    -3400.00
04904               2.00    -3600.00
04905              -4.00    -3600.00
04906             -10.00    -3800.00
04907               0.00    -3600.00
04908               2.00    -3800.00
04909              -8.00    -3600.00
04910              -2.00    -3800.00
04911              14.00    -3800.00
04912               4.00    -3800.00
04913              -8.00    -3800.00
04914             -10.00    -3800.00
04915              -6.00    -3800.00
04916              -2.00    -4000.00
04917               2.00    -3800.00
04918               6.00    -3800.00
04919               6.00    -4000.00
04920              -8.00    -4000.00
04921             -10.00    -3800.00
04922              -2.00    -4000.00
04923               6.00    -3800.00
04924               6.00    -4000.00
04925               4.00    -4000.00
04926              -2.00    -4000.00
04927             -14.00    -3800.00
04928              -8.00    -4000.00
04929               0.00    -4000.00
04930               6.00    -4000.00
04931               2.00    -4000.00
04932               0.00    -4000.00
04933              -2.00    -4000.00
04934              -2.00    -4000.00
04935              -6.00    -4000.00
04936               0.00    -4000.00
04937               2.00    -4000.00
04938               2.00    -4000.00
04939               0.00    -3800.00
04940              -2.00    -4000.00
04941              -6.00    -4000.00
04942              -2.00    -4000.00
04943               0.00    -4000.00
04944              -2.00    -3800.00
04945               0.00    -4000.00
04946               2.00    -3800.00
04947               0.00    -3800.00
04948              -2.00    -3800.00
04949              -2.00    -3800.00
04950              -2.00    -3800.00
04951               0.00    -3800.00
04952               0.00    -3800.00
04953               0.00    -3800.00
04954              -2.00    -3600.00
04955              -6.00    -3800.00
04956              -2.00    -3600.00
04957               0.00    -3600.00
04958               0.00    -3600.00
04959              -2.00    -3800.00
04960              -2.00    -3400.00
04961              -2.00    -3600.00
04962               0.00    -3200.00
04963              -2.00    -3600.00
04964               0.00    -3400.00
04965               0.00    -3400.00
04966              -2.00    -3200.00
04967              -6.00    -3200.00
04968              -4.00    -3200.00
04969               0.00    -3000.00
04970               0.00    -3200.00
04971              -2.00    -3000.00
04972               0.00    -3000.00
04973              -2.00    -3000.00
04974              -4.00    -3000.00
04975              -4.00    -3000.00
04976               0.00    -3000.00
04977               0.00    -2800.00
04978               2.00    -2800.00
04979               0.00    -2800.00
04980              -6.00    -2800.00
04981              -6.00    -2800.00
04982              -2.00    -2600.00
04983               2.00    -2400.00
04984               0.00    -2400.00
04985               2.00    -2400.00
04986              -2.00    -2400.00
04987              -6.00    -2400.00
04988              -2.00    -2200.00
04989               0.00    -2400.00
04990               6.00    -2000.00
04991               0.00    -2200.00
04992              -6.00    -2200.00
04993              -8.00    -2000.00
04994              -6.00    -1800.00
04995               0.00    -2000.00
04996               6.00    -2000.00
04997               0.00    -1600.00
04998              -6.00    -1800.00
04999              -6.00    -1600.00
05000              -2.00    -1600.00
