Unit:(mV)
                     CH1         CH2
Frequency              ?           ?
00001              -8.00    -2200.00
00002            -106.00    -2200.00
00003              20.00    -2400.00
00004              86.00    -2400.00
00005              -2.00    -2400.00
00006             -32.00    -2600.00
00007             -24.00    -2400.00
00008              32.00    -2400.00
00009              38.00    -2800.00
00010             -18.00    -2800.00
00011             -32.00    -2800.00
00012              18.00    -2800.00
00013              30.00    -2800.00
00014              16.00    -2800.00
00015              -6.00    -3000.00
00016             -18.00    -3000.00
00017               2.00    -3000.00
00018              16.00    -3200.00
00019               6.00    -3000.00
00020              -6.00    -3000.00
00021              16.00    -3400.00
00022              14.00    -3200.00
00023             -18.00    -3400.00
00024             -16.00    -3200.00
00025              22.00    -3400.00
00026              26.00    -3600.00
00027               6.00    -3600.00
00028              -6.00    -3600.00
00029             -16.00    -3600.00
00030              -6.00    -3600.00
00031              22.00    -3600.00
00032              18.00    -3600.00
00033               2.00    -3600.00
00034              -8.00    -3800.00
00035              -2.00    -3600.00
00036               8.00    -3600.00
00037               8.00    -3600.00
00038               0.00    -3600.00
00039              10.00    -3800.00
00040              14.00    -3800.00
00041              -2.00    -3800.00
00042               0.00    -3800.00
00043               8.00    -3800.00
00044               8.00    -4000.00
00045               8.00    -3800.00
00046               8.00    -3800.00
00047               2.00    -4000.00
00048               6.00    -3800.00
00049               6.00    -4000.00
00050              10.00    -4000.00
00051               8.00    -4000.00
00052               4.00    -4000.00
00053               8.00    -4000.00
00054              10.00    -4000.00
00055               2.00    -4000.00
00056               0.00    -4000.00
00057               6.00    -4000.00
00058               8.00    -4000.00
00059              10.00    -4000.00
00060               8.00    -3800.00
00061               8.00    -3800.00
00062              10.00    -3800.00
00063               6.00    -4000.00
00064               6.00    -3800.00
00065               8.00    -4000.00
00066               6.00    -4000.00
00067               6.00    -3800.00
00068               8.00    -3800.00
00069               6.00    -3800.00
00070               8.00    -4000.00
00071              10.00    -3800.00
00072               8.00    -3800.00
00073               2.00    -3800.00
00074               2.00    -3800.00
00075               2.00    -3800.00
00076               6.00    -3800.00
00077               8.00    -3800.00
00078               8.00    -3800.00
00079               8.00    -3800.00
00080               6.00    -3600.00
00081               2.00    -3800.00
00082               2.00    -3600.00
00083               2.00    -3600.00
00084               6.00    -3600.00
00085               6.00    -3600.00
00086               8.00    -3600.00
00087               0.00    -3600.00
00088               2.00    -3400.00
00089               2.00    -3600.00
00090               6.00    -3400.00
00091               8.00    -3400.00
00092               8.00    -3200.00
00093               2.00    -3200.00
00094               0.00    -3200.00
00095               0.00    -3200.00
00096               4.00    -3200.00
00097               6.00    -3200.00
00098               6.00    -3200.00
00099               2.00    -3000.00
00100               2.00    -3000.00
00101               0.00    -3000.00
00102               2.00    -3000.00
00103               2.00    -2800.00
00104               2.00    -2800.00
00105               6.00    -2800.00
00106               4.00    -2800.00
00107               6.00    -2800.00
00108               0.00    -2800.00
00109               0.00    -2600.00
00110               0.00    -2400.00
00111               6.00    -2600.00
00112               6.00    -2400.00
00113               2.00    -2400.00
00114               2.00    -2400.00
00115               0.00    -2200.00
00116               0.00    -2200.00
00117               2.00    -2200.00
00118               6.00    -2200.00
00119               4.00    -2000.00
00120               2.00    -2000.00
00121               2.00    -2000.00
00122               2.00    -1800.00
00123               0.00    -2000.00
00124               2.00    -1800.00
00125               2.00    -1600.00
00126               0.00    -1600.00
00127               0.00    -1600.00
00128               2.00    -1400.00
00129               0.00    -1400.00
00130               0.00    -1400.00
00131               0.00    -1400.00
00132               0.00    -1000.00
00133               0.00    -1200.00
00134               0.00    -1000.00
00135               0.00    -1200.00
00136               2.00    -1000.00
00137               0.00    -1000.00
00138               0.00     -800.00
00139               0.00     -800.00
00140               0.00     -800.00
00141              -2.00     -600.00
00142              -2.00     -600.00
00143              -2.00     -600.00
00144              -2.00     -600.00
00145               0.00     -400.00
00146              -2.00     -400.00
00147               0.00     -400.00
00148              -2.00        0.00
00149              -6.00        0.00
00150              -4.00        0.00
00151               0.00        0.00
00152              -2.00      200.00
00153              -6.00      200.00
00154              -2.00      200.00
00155               2.00      400.00
00156               0.00      200.00
00157               0.00      400.00
00158               6.00      400.00
00159               0.00      400.00
00160              -8.00      600.00
00161              -8.00      600.00
00162              -2.00      600.00
00163              24.00      800.00
00164             152.00     1000.00
00165              96.00     1000.00
00166            -254.00      800.00
00167            -254.00      800.00
00168             246.00     1200.00
00169             246.00     1400.00
00170            -254.00     1000.00
00171            -254.00     1000.00
00172             246.00     1600.00
00173             246.00     1600.00
00174            -254.00     1200.00
00175            -254.00     1600.00
00176             246.00     1800.00
00177             174.00     1400.00
00178            -254.00     1600.00
00179              26.00     2000.00
00180             146.00     1800.00
00181            -128.00     1800.00
00182              48.00     2000.00
00183             102.00     2000.00
00184            -170.00     2000.00
00185               0.00     2200.00
00186              86.00     2400.00
00187             -48.00     2200.00
00188              24.00     2200.00
00189             -50.00     2400.00
00190             -74.00     2400.00
00191             158.00     2600.00
00192             -32.00     2600.00
00193            -182.00     2600.00
00194             120.00     2800.00
00195              48.00     2800.00
00196            -116.00     2800.00
00197              56.00     3000.00
00198             -26.00     3200.00
00199             -64.00     2800.00
00200              88.00     3200.00
00201             -50.00     3200.00
00202             -50.00     3000.00
00203              64.00     3200.00
00204             -58.00     3200.00
00205              -8.00     3200.00
00206              56.00     3400.00
00207             -80.00     3400.00
00208              -8.00     3400.00
00209              38.00     3400.00
00210             -52.00     3400.00
00211              -2.00     3400.00
00212              18.00     3600.00
00213             -30.00     3600.00
00214             -14.00     3600.00
00215             -18.00     3800.00
00216              -6.00     3600.00
00217              16.00     3600.00
00218             -30.00     3800.00
00219             -24.00     3600.00
00220               2.00     3800.00
00221             -26.00     4000.00
00222             -16.00     3800.00
00223              10.00     4000.00
00224             -16.00     4000.00
00225             -26.00     4000.00
00226              -2.00     4000.00
00227              -8.00     4000.00
00228             -24.00     4000.00
00229             -10.00     4000.00
00230              -6.00     4000.00
00231              -6.00     4000.00
00232             -16.00     4200.00
00233             -22.00     4200.00
00234              -6.00     4200.00
00235             -10.00     4200.00
00236             -26.00     4200.00
00237              -2.00     4200.00
00238              -2.00     4400.00
00239             -22.00     4200.00
00240             -14.00     4400.00
00241              -8.00     4400.00
00242             -16.00     4200.00
00243             -10.00     4200.00
00244              -8.00     4200.00
00245             -10.00     4200.00
00246             -16.00     4400.00
00247             -18.00     4200.00
00248             -10.00     4400.00
00249              -8.00     4400.00
00250             -14.00     4200.00
00251             -10.00     4400.00
00252              -6.00     4400.00
00253             -16.00     4400.00
00254             -18.00     4200.00
00255             -10.00     4400.00
00256             -10.00     4200.00
00257             -12.00     4400.00
00258              -8.00     4200.00
00259             -10.00     4200.00
00260             -14.00     4200.00
00261             -14.00     4200.00
00262             -14.00     4200.00
00263              -6.00     4200.00
00264             -10.00     4200.00
00265             -12.00     4200.00
00266             -10.00     4200.00
00267             -16.00     4200.00
00268             -18.00     4200.00
00269             -10.00     4000.00
00270              -6.00     4000.00
00271             -12.00     4200.00
00272             -10.00     4000.00
00273             -14.00     4000.00
00274             -16.00     4000.00
00275             -14.00     4000.00
00276             -10.00     4000.00
00277              -8.00     3800.00
00278             -14.00     4000.00
00279             -16.00     3800.00
00280             -14.00     3800.00
00281             -14.00     3800.00
00282             -16.00     3800.00
00283              -8.00     3800.00
00284              -8.00     3600.00
00285             -14.00     3600.00
00286             -14.00     3600.00
00287             -10.00     3600.00
00288             -14.00     3600.00
00289             -12.00     3400.00
00290             -10.00     3400.00
00291             -10.00     3400.00
00292              -8.00     3200.00
00293             -16.00     3400.00
00294             -10.00     3200.00
00295             -10.00     3200.00
00296             -14.00     3200.00
00297             -10.00     3200.00
00298              -8.00     3200.00
00299             -14.00     3000.00
00300             -16.00     2800.00
00301              -8.00     2800.00
00302             -10.00     2800.00
00303             -10.00     2800.00
00304             -10.00     2800.00
00305             -10.00     2800.00
00306             -10.00     2800.00
00307             -10.00     2600.00
00308              -6.00     2600.00
00309              -2.00     2600.00
00310             -10.00     2600.00
00311             -10.00     2400.00
00312              -8.00     2400.00
00313             -10.00     2400.00
00314             -10.00     2200.00
00315              -8.00     2400.00
00316              -8.00     2000.00
00317              -6.00     2000.00
00318              -8.00     2000.00
00319              -8.00     2000.00
00320              -8.00     2000.00
00321             -10.00     1800.00
00322              -8.00     1600.00
00323              -6.00     1800.00
00324              -4.00     1600.00
00325              -8.00     1600.00
00326              -6.00     1600.00
00327              -8.00     1400.00
00328              -8.00     1200.00
00329              -6.00     1400.00
00330              -2.00     1200.00
00331              -2.00     1200.00
00332              -6.00     1000.00
00333              -8.00     1000.00
00334              -6.00     1000.00
00335              -6.00     1000.00
00336              -6.00      800.00
00337              -2.00      800.00
00338              -2.00      800.00
00339              -8.00      800.00
00340              -8.00      600.00
00341              -6.00      400.00
00342              -6.00      400.00
00343              -2.00      400.00
00344              -6.00      400.00
00345              -8.00      200.00
00346               0.00        0.00
00347               2.00        0.00
00348               0.00        0.00
00349               4.00        0.00
00350               4.00        0.00
00351              -4.00     -200.00
00352              -8.00     -200.00
00353              -4.00     -400.00
00354               6.00     -200.00
00355              34.00     -400.00
00356             136.00     -400.00
00357              78.00     -800.00
00358            -254.00     -800.00
00359            -254.00     -600.00
00360             246.00     -400.00
00361             246.00     -800.00
00362            -168.00    -1200.00
00363            -254.00     -800.00
00364             174.00    -1000.00
00365             246.00    -1000.00
00366            -246.00    -1200.00
00367            -254.00    -1200.00
00368             236.00    -1200.00
00369             246.00    -1200.00
00370            -144.00    -1400.00
00371             -48.00    -1600.00
00372             -36.00    -1600.00
00373             -86.00    -1400.00
00374             190.00    -1800.00
00375             128.00    -1800.00
00376            -236.00    -2000.00
00377             -94.00    -2000.00
00378             198.00    -2000.00
00379              46.00    -2000.00
00380             -74.00    -2200.00
00381             -64.00    -2200.00
00382              22.00    -2000.00
00383              92.00    -2400.00
00384               8.00    -2400.00
00385            -104.00    -2200.00
00386               8.00    -2400.00
00387              82.00    -2600.00
00388               6.00    -2400.00
00389             -30.00    -2400.00
00390             -26.00    -2600.00
00391              26.00    -2400.00
00392              42.00    -2800.00
00393             -10.00    -2800.00
00394             -34.00    -2800.00
00395              16.00    -2800.00
00396              26.00    -2800.00
00397               8.00    -2800.00
00398              -8.00    -2800.00
00399             -10.00    -3000.00
00400              14.00    -3000.00
00401              22.00    -3000.00
00402               0.00    -3200.00
00403             -14.00    -3000.00
00404              14.00    -3200.00
00405              22.00    -3200.00
00406              -8.00    -3200.00
00407             -14.00    -3200.00
00408              16.00    -3400.00
00409              18.00    -3400.00
00410               0.00    -3400.00
00411               0.00    -3200.00
00412              -2.00    -3600.00
00413               0.00    -3600.00
00414              10.00    -3400.00
00415              10.00    -3600.00
00416               4.00    -3600.00
00417               0.00    -3600.00
00418               6.00    -3600.00
00419               8.00    -3800.00
00420               0.00    -3600.00
00421              -2.00    -3800.00
00422              14.00    -3800.00
00423              12.00    -3800.00
00424               0.00    -3800.00
00425               0.00    -3800.00
00426               6.00    -3800.00
00427               2.00    -4000.00
00428               2.00    -4000.00
00429               8.00    -3800.00
00430              10.00    -4000.00
00431               6.00    -4000.00
00432               0.00    -4000.00
00433               2.00    -4000.00
00434               6.00    -4000.00
00435               6.00    -4000.00
00436               8.00    -4000.00
00437               8.00    -3800.00
00438               2.00    -3800.00
00439               0.00    -4000.00
00440               8.00    -4000.00
00441              10.00    -3800.00
00442               6.00    -4000.00
00443               8.00    -3800.00
00444               6.00    -3800.00
00445               6.00    -4000.00
00446               6.00    -3800.00
00447               4.00    -4000.00
00448              10.00    -3800.00
00449               8.00    -4000.00
00450               6.00    -3800.00
00451               8.00    -3800.00
00452               2.00    -3800.00
00453               2.00    -3800.00
00454               6.00    -3800.00
00455               8.00    -3800.00
00456               6.00    -3800.00
00457               8.00    -3800.00
00458               4.00    -3800.00
00459               2.00    -3800.00
00460               2.00    -3600.00
00461               8.00    -3600.00
00462               8.00    -3600.00
00463               6.00    -3800.00
00464               6.00    -3600.00
00465               2.00    -3600.00
00466               6.00    -3600.00
00467               6.00    -3400.00
00468               6.00    -3600.00
00469               8.00    -3600.00
00470               6.00    -3600.00
00471               2.00    -3600.00
00472               2.00    -3400.00
00473               2.00    -3600.00
00474               0.00    -3400.00
00475               6.00    -3200.00
00476               6.00    -3200.00
00477               4.00    -3200.00
00478               2.00    -3200.00
00479               2.00    -3200.00
00480               2.00    -3000.00
00481               4.00    -3200.00
00482               6.00    -3000.00
00483               6.00    -3000.00
00484               0.00    -3000.00
00485               0.00    -3000.00
00486               0.00    -2800.00
00487               2.00    -3000.00
00488               2.00    -2800.00
00489               4.00    -2800.00
00490               6.00    -2800.00
00491               2.00    -2800.00
00492               0.00    -2800.00
00493              -2.00    -2600.00
00494               2.00    -2400.00
00495               4.00    -2400.00
00496               2.00    -2400.00
00497               0.00    -2400.00
00498               0.00    -2400.00
00499               0.00    -2400.00
00500               0.00    -2200.00
00501               6.00    -2000.00
00502               2.00    -2200.00
00503               4.00    -2000.00
00504               0.00    -2000.00
00505               0.00    -2000.00
00506              -2.00    -2000.00
00507               2.00    -1800.00
00508               0.00    -1600.00
00509               2.00    -1800.00
00510               2.00    -1600.00
00511               0.00    -1400.00
00512               0.00    -1400.00
00513              -2.00    -1400.00
00514              -2.00    -1200.00
00515               6.00    -1400.00
00516               4.00    -1000.00
00517              -2.00    -1200.00
00518              -2.00    -1000.00
00519              -2.00    -1000.00
00520               0.00     -800.00
00521               0.00     -800.00
00522               2.00     -800.00
00523               2.00     -800.00
00524              -2.00     -800.00
00525              -2.00     -600.00
00526               0.00     -600.00
00527              -2.00     -400.00
00528               0.00     -400.00
00529              -2.00     -400.00
00530               0.00     -400.00
00531              -2.00     -200.00
00532              -6.00     -200.00
00533              -2.00        0.00
00534               0.00        0.00
00535               0.00        0.00
00536              -4.00      200.00
00537              -2.00      200.00
00538               0.00      200.00
00539               0.00      400.00
00540               0.00      200.00
00541               6.00      400.00
00542               2.00      400.00
00543              -8.00      400.00
00544             -10.00      600.00
00545              -2.00      600.00
00546              22.00      800.00
00547             144.00      800.00
00548             112.00     1000.00
00549            -254.00      800.00
00550            -254.00      800.00
00551             246.00     1200.00
00552             246.00     1400.00
00553            -234.00     1200.00
00554            -254.00     1000.00
00555             246.00     1600.00
00556             246.00     1600.00
00557            -254.00     1200.00
00558            -254.00     1600.00
00559             246.00     1800.00
00560             226.00     1600.00
00561            -254.00     1600.00
00562             -10.00     2000.00
00563             162.00     2000.00
00564            -128.00     1600.00
00565              30.00     2000.00
00566             120.00     2000.00
00567            -166.00     2000.00
00568             -14.00     2200.00
00569              94.00     2200.00
00570             -46.00     2000.00
00571              16.00     2400.00
00572             -46.00     2400.00
00573             -88.00     2400.00
00574             152.00     2600.00
00575              -8.00     2600.00
00576            -190.00     2600.00
00577             106.00     2800.00
00578              64.00     2600.00
00579            -118.00     2600.00
00580              54.00     2800.00
00581             -16.00     3000.00
00582             -72.00     3200.00
00583              86.00     3200.00
00584             -40.00     3200.00
00585             -62.00     3000.00
00586              64.00     3200.00
00587             -50.00     3200.00
00588             -18.00     3200.00
00589              58.00     3400.00
00590             -74.00     3400.00
00591             -16.00     3200.00
00592              42.00     3600.00
00593             -50.00     3400.00
00594             -10.00     3600.00
00595              22.00     3600.00
00596             -28.00     3600.00
00597             -14.00     3600.00
00598             -16.00     3600.00
00599              -6.00     3600.00
00600              18.00     3600.00
00601             -26.00     3600.00
00602             -26.00     3800.00
00603               4.00     3800.00
00604             -26.00     4000.00
00605             -18.00     3600.00
00606              10.00     4000.00
00607             -14.00     4000.00
00608             -30.00     4000.00
00609              -2.00     4000.00
00610              -8.00     4000.00
00611             -22.00     4000.00
00612             -14.00     4200.00
00613             -10.00     4000.00
00614              -8.00     4200.00
00615             -14.00     4200.00
00616             -22.00     4200.00
00617              -6.00     4000.00
00618             -12.00     4000.00
00619             -26.00     4000.00
00620              -2.00     4200.00
00621               0.00     4200.00
00622             -24.00     4400.00
00623             -20.00     4200.00
00624             -10.00     4200.00
00625             -16.00     4200.00
00626             -10.00     4400.00
00627              -6.00     4200.00
00628             -10.00     4400.00
00629             -16.00     4400.00
00630             -22.00     4400.00
00631             -10.00     4400.00
00632              -8.00     4400.00
00633             -16.00     4200.00
00634             -14.00     4400.00
00635              -2.00     4400.00
00636             -14.00     4400.00
00637             -24.00     4200.00
00638             -16.00     4200.00
00639             -10.00     4400.00
00640              -8.00     4200.00
00641              -4.00     4200.00
00642             -10.00     4200.00
00643             -16.00     4200.00
00644             -18.00     4400.00
00645             -18.00     4400.00
00646              -8.00     4200.00
00647              -6.00     4200.00
00648              -8.00     4200.00
00649             -10.00     4200.00
00650             -18.00     4200.00
00651             -20.00     4200.00
00652              -8.00     4000.00
00653              -2.00     4200.00
00654             -14.00     4200.00
00655             -14.00     4000.00
00656             -14.00     4000.00
00657             -12.00     4000.00
00658             -10.00     4000.00
00659              -8.00     4000.00
00660             -10.00     4000.00
00661             -12.00     3800.00
00662             -16.00     4000.00
00663             -14.00     3800.00
00664             -10.00     3800.00
00665             -10.00     3800.00
00666             -10.00     3800.00
00667              -8.00     3600.00
00668             -10.00     3600.00
00669             -14.00     3600.00
00670             -14.00     3600.00
00671             -16.00     3400.00
00672             -14.00     3600.00
00673              -8.00     3400.00
00674              -6.00     3400.00
00675             -12.00     3400.00
00676             -18.00     3400.00
00677             -14.00     3200.00
00678             -10.00     3200.00
00679              -8.00     3200.00
00680             -10.00     3200.00
00681             -10.00     3200.00
00682             -12.00     3200.00
00683             -14.00     2800.00
00684             -14.00     2800.00
00685             -10.00     3000.00
00686             -14.00     2800.00
00687              -8.00     2800.00
00688              -6.00     2800.00
00689             -10.00     2600.00
00690             -16.00     2600.00
00691              -6.00     2600.00
00692              -6.00     2400.00
00693              -6.00     2600.00
00694             -14.00     2400.00
00695             -14.00     2600.00
00696             -10.00     2400.00
00697              -6.00     2400.00
00698              -6.00     2200.00
00699              -8.00     2000.00
00700             -10.00     2200.00
00701              -8.00     2000.00
00702              -6.00     2000.00
00703              -6.00     1800.00
00704              -8.00     1800.00
00705              -6.00     1800.00
00706              -8.00     1600.00
00707              -8.00     1600.00
00708             -10.00     1600.00
00709              -6.00     1600.00
00710              -4.00     1400.00
00711              -6.00     1400.00
00712              -6.00     1200.00
00713              -6.00     1200.00
00714              -8.00     1000.00
00715              -6.00     1200.00
00716              -4.00     1200.00
00717              -2.00     1000.00
00718              -2.00     1000.00
00719              -8.00      800.00
00720              -6.00      800.00
00721              -2.00      800.00
00722              -2.00      800.00
00723              -2.00      800.00
00724              -6.00      400.00
00725              -2.00      600.00
00726              -2.00      400.00
00727              -8.00      400.00
00728              -4.00      400.00
00729               6.00      200.00
00730               2.00      200.00
00731               0.00      200.00
00732               0.00        0.00
00733               4.00        0.00
00734               0.00     -200.00
00735              -8.00     -200.00
00736              -8.00     -200.00
00737               2.00     -400.00
00738              30.00     -400.00
00739             134.00     -600.00
00740              94.00     -600.00
00741            -254.00     -800.00
00742            -254.00     -600.00
00743             246.00     -600.00
00744             246.00     -800.00
00745             -82.00    -1000.00
00746            -254.00     -800.00
00747             102.00     -800.00
00748             246.00    -1200.00
00749            -186.00    -1200.00
00750            -254.00    -1000.00
00751             200.00    -1400.00
00752             246.00    -1200.00
00753            -138.00    -1400.00
00754             -54.00    -1600.00
00755             -26.00    -1600.00
00756             -94.00    -1400.00
00757             166.00    -1600.00
00758             150.00    -1600.00
00759            -224.00    -1800.00
00760            -112.00    -2000.00
00761             188.00    -1800.00
00762              62.00    -2000.00
00763             -74.00    -2200.00
00764             -66.00    -2200.00
00765              14.00    -2000.00
00766              86.00    -2200.00
00767              22.00    -2400.00
00768            -104.00    -2200.00
00769              -8.00    -2400.00
00770              82.00    -2400.00
00771              12.00    -2400.00
00772             -30.00    -2400.00
00773             -32.00    -2600.00
00774              22.00    -2400.00
00775              42.00    -2600.00
00776              -2.00    -2800.00
00777             -40.00    -2800.00
00778              10.00    -2800.00
00779              30.00    -2800.00
00780              10.00    -2800.00
00781              -8.00    -3000.00
00782             -16.00    -3000.00
00783               8.00    -3000.00
00784              22.00    -3000.00
00785               6.00    -3000.00
00786             -14.00    -3000.00
00787              12.00    -3200.00
00788              24.00    -3200.00
00789              -6.00    -3200.00
00790             -16.00    -3200.00
00791              14.00    -3400.00
00792              18.00    -3200.00
00793               2.00    -3200.00
00794               0.00    -3400.00
00795               0.00    -3600.00
00796               2.00    -3600.00
00797              14.00    -3600.00
00798               8.00    -3600.00
00799               2.00    -3600.00
00800               0.00    -3600.00
00801               6.00    -3600.00
00802               8.00    -3600.00
00803               0.00    -3600.00
00804              -2.00    -3800.00
00805              14.00    -3600.00
00806              14.00    -3800.00
00807              -2.00    -3800.00
00808               0.00    -3800.00
00809              10.00    -3800.00
00810               2.00    -3800.00
00811               2.00    -3800.00
00812               8.00    -4000.00
00813              10.00    -3800.00
00814               6.00    -3800.00
00815              -2.00    -3800.00
00816              -2.00    -4000.00
00817               8.00    -3800.00
00818               8.00    -4000.00
00819               8.00    -4000.00
00820               8.00    -3800.00
00821               0.00    -4000.00
00822              -2.00    -4000.00
00823               6.00    -4000.00
00824              10.00    -4000.00
00825               6.00    -4000.00
00826               8.00    -4000.00
00827               8.00    -4000.00
00828               6.00    -3800.00
00829               6.00    -3800.00
00830               2.00    -4000.00
00831              10.00    -4000.00
00832               8.00    -4000.00
00833               6.00    -3800.00
00834               6.00    -3800.00
00835               2.00    -3800.00
00836               0.00    -4000.00
00837               8.00    -3800.00
00838              10.00    -4000.00
00839               8.00    -4000.00
00840               6.00    -3800.00
00841               2.00    -3800.00
00842               6.00    -3800.00
00843               8.00    -3600.00
00844               6.00    -3800.00
00845               6.00    -3800.00
00846               8.00    -3600.00
00847               6.00    -3800.00
00848               6.00    -3600.00
00849               4.00    -3600.00
00850               4.00    -3600.00
00851               6.00    -3400.00
00852               8.00    -3400.00
00853               6.00    -3600.00
00854               8.00    -3400.00
00855               6.00    -3400.00
00856               2.00    -3200.00
00857               0.00    -3200.00
00858               4.00    -3400.00
00859              10.00    -3200.00
00860              10.00    -3200.00
00861              10.00    -3200.00
00862               2.00    -3200.00
00863              -6.00    -3200.00
00864              -8.00    -3200.00
00865               8.00    -3000.00
00866              18.00    -3000.00
00867               8.00    -3000.00
00868              -8.00    -3000.00
00869              -6.00    -2800.00
00870               2.00    -3000.00
00871              10.00    -2800.00
00872              10.00    -2800.00
00873               6.00    -2800.00
00874               0.00    -2800.00
00875               0.00    -2600.00
00876               0.00    -2600.00
00877               0.00    -2400.00
00878              -4.00    -2400.00
00879               6.00    -2400.00
00880              14.00    -2400.00
00881              10.00    -2400.00
00882             -10.00    -2200.00
00883             -16.00    -2200.00
00884               2.00    -2200.00
00885              16.00    -2000.00
00886              10.00    -2200.00
00887              -2.00    -2000.00
00888             -10.00    -2000.00
00889              -2.00    -1800.00
00890              10.00    -2000.00
00891               6.00    -1800.00
00892               0.00    -1600.00
00893              -2.00    -1400.00
00894              -2.00    -1600.00
00895               2.00    -1400.00
00896               6.00    -1400.00
00897              -2.00    -1400.00
00898              -6.00    -1400.00
00899              -2.00    -1200.00
00900               0.00    -1200.00
00901               6.00    -1000.00
00902               0.00    -1000.00
00903              -6.00    -1000.00
00904              -2.00     -800.00
00905               2.00     -800.00
00906               2.00     -800.00
00907              -2.00     -600.00
00908               0.00     -600.00
00909               0.00     -400.00
00910               0.00     -400.00
00911               0.00     -600.00
00912               2.00     -400.00
00913               0.00     -400.00
00914              -6.00     -200.00
00915              -6.00        0.00
00916              -4.00        0.00
00917               0.00        0.00
00918               2.00        0.00
00919              -2.00      200.00
00920              -2.00      200.00
00921               0.00      400.00
00922               2.00      200.00
00923               0.00      400.00
00924               8.00      400.00
00925               2.00      400.00
00926              -8.00      400.00
00927              -6.00      600.00
00928               0.00      800.00
00929              22.00      800.00
00930             134.00     1000.00
00931             128.00     1000.00
00932            -254.00      800.00
00933            -254.00      800.00
00934             246.00     1200.00
00935             246.00     1200.00
00936            -144.00     1200.00
00937            -254.00      800.00
00938             170.00     1600.00
00939             246.00     1600.00
00940            -254.00     1200.00
00941            -254.00     1600.00
00942             246.00     1800.00
00943             246.00     1600.00
00944            -254.00     1600.00
00945             -46.00     2000.00
00946             184.00     1800.00
00947            -118.00     1600.00
00948              10.00     2000.00
00949             130.00     2200.00
00950            -162.00     2000.00
00951             -32.00     2000.00
00952              96.00     2400.00
00953             -44.00     2000.00
00954              14.00     2400.00
00955             -32.00     2400.00
00956             -96.00     2400.00
00957             142.00     2600.00
00958              10.00     2400.00
00959            -200.00     2600.00
00960              92.00     2800.00
00961              80.00     2800.00
00962            -120.00     2800.00
00963              42.00     2800.00
00964              -4.00     2800.00
00965             -80.00     2800.00
00966              82.00     3200.00
00967             -26.00     3000.00
00968             -74.00     3200.00
00969              64.00     3200.00
00970             -44.00     3200.00
00971             -26.00     3200.00
00972              64.00     3400.00
00973             -72.00     3200.00
00974             -28.00     3400.00
00975              50.00     3400.00
00976             -44.00     3400.00
00977             -14.00     3600.00
00978              22.00     3600.00
00979             -30.00     3400.00
00980             -16.00     3600.00
00981             -14.00     3800.00
00982              -6.00     3600.00
00983              18.00     3800.00
00984             -26.00     3800.00
00985             -28.00     3600.00
00986              10.00     4000.00
00987             -16.00     4000.00
00988             -24.00     4000.00
00989               8.00     4000.00
00990             -10.00     4000.00
00991             -26.00     4000.00
00992              -2.00     4200.00
00993              -6.00     4000.00
00994             -24.00     4000.00
00995             -16.00     4200.00
00996             -10.00     4200.00
00997              -6.00     4000.00
00998             -10.00     4200.00
00999             -22.00     4000.00
01000              -8.00     4200.00
01001              -8.00     4200.00
01002             -24.00     4200.00
01003              -6.00     4200.00
01004               0.00     4200.00
01005             -26.00     4200.00
01006             -18.00     4200.00
01007              -8.00     4400.00
01008             -14.00     4200.00
01009             -10.00     4200.00
01010             -10.00     4400.00
01011             -10.00     4200.00
01012             -14.00     4400.00
01013             -18.00     4400.00
01014             -16.00     4200.00
01015              -8.00     4400.00
01016             -10.00     4200.00
01017             -12.00     4200.00
01018             -10.00     4400.00
01019             -18.00     4200.00
01020             -18.00     4400.00
01021             -10.00     4400.00
01022              -8.00     4200.00
01023             -14.00     4400.00
01024             -10.00     4200.00
01025             -10.00     4400.00
01026             -14.00     4200.00
01027             -14.00     4200.00
01028             -12.00     4200.00
01029             -12.00     4200.00
01030             -10.00     4200.00
01031             -14.00     4200.00
01032              -8.00     4200.00
01033             -14.00     4200.00
01034             -16.00     4000.00
01035             -10.00     4200.00
01036             -10.00     4000.00
01037             -14.00     4200.00
01038             -10.00     4000.00
01039              -8.00     4000.00
01040             -14.00     4000.00
01041             -10.00     4000.00
01042             -10.00     4000.00
01043              -8.00     4000.00
01044             -10.00     3800.00
01045             -10.00     4000.00
01046             -10.00     4000.00
01047             -10.00     3600.00
01048             -14.00     3800.00
01049             -10.00     3800.00
01050              -6.00     3600.00
01051             -10.00     3600.00
01052             -10.00     3600.00
01053             -10.00     3600.00
01054             -12.00     3600.00
01055             -14.00     3400.00
01056              -6.00     3400.00
01057              -6.00     3400.00
01058             -10.00     3400.00
01059             -12.00     3400.00
01060             -12.00     3200.00
01061             -10.00     3400.00
01062             -10.00     3200.00
01063              -8.00     3200.00
01064              -6.00     3200.00
01065             -14.00     3200.00
01066             -10.00     3000.00
01067             -10.00     3000.00
01068              -8.00     2800.00
01069             -10.00     2800.00
01070              -8.00     2800.00
01071             -10.00     2800.00
01072             -10.00     2800.00
01073             -14.00     2800.00
01074              -8.00     2600.00
01075             -10.00     2400.00
01076              -6.00     2400.00
01077             -10.00     2400.00
01078             -10.00     2400.00
01079             -10.00     2400.00
01080             -14.00     2200.00
01081             -14.00     2200.00
01082              -6.00     2000.00
01083              -8.00     2000.00
01084              -8.00     2000.00
01085              -6.00     1800.00
01086              -8.00     2000.00
01087             -10.00     1600.00
01088             -10.00     1600.00
01089              -6.00     1600.00
01090              -6.00     1600.00
01091              -8.00     1600.00
01092              -6.00     1600.00
01093              -8.00     1600.00
01094              -8.00     1400.00
01095             -10.00     1200.00
01096              -2.00     1200.00
01097              -2.00     1200.00
01098              -6.00     1200.00
01099              -8.00     1000.00
01100              -6.00     1000.00
01101              -6.00      800.00
01102              -6.00      800.00
01103              -2.00      800.00
01104              -2.00      800.00
01105              -8.00      800.00
01106              -8.00      600.00
01107              -2.00      400.00
01108              -2.00      400.00
01109              -2.00      400.00
01110              -6.00      400.00
01111              -4.00      200.00
01112               0.00      200.00
01113               2.00      400.00
01114               2.00        0.00
01115               6.00      200.00
01116               6.00        0.00
01117              -2.00        0.00
01118              -8.00     -200.00
01119              -2.00     -200.00
01120               4.00     -400.00
01121              30.00     -400.00
01122             126.00     -400.00
01123             104.00     -600.00
01124            -254.00    -1000.00
01125            -254.00     -400.00
01126             210.00     -400.00
01127             246.00     -800.00
01128              -2.00    -1000.00
01129            -254.00     -800.00
01130              34.00    -1200.00
01131             246.00    -1000.00
01132            -128.00    -1200.00
01133            -254.00    -1200.00
01134             160.00    -1400.00
01135             246.00    -1200.00
01136            -122.00    -1400.00
01137             -74.00    -1600.00
01138             -26.00    -1600.00
01139             -98.00    -1400.00
01140             154.00    -1600.00
01141             178.00    -1600.00
01142            -218.00    -1800.00
01143            -138.00    -2000.00
01144             182.00    -2000.00
01145              72.00    -2000.00
01146             -74.00    -2000.00
01147             -66.00    -2200.00
01148              16.00    -2200.00
01149              86.00    -2200.00
01150              24.00    -2400.00
01151            -114.00    -2200.00
01152             -10.00    -2400.00
01153              80.00    -2400.00
01154              14.00    -2400.00
01155             -26.00    -2400.00
01156             -18.00    -2400.00
01157              18.00    -2800.00
01158              36.00    -2600.00
01159             -14.00    -2800.00
01160             -42.00    -2800.00
01161              16.00    -2800.00
01162              32.00    -3000.00
01163              22.00    -2800.00
01164              -2.00    -3000.00
01165             -24.00    -3000.00
01166              -2.00    -3000.00
01167              24.00    -3200.00
01168              10.00    -3000.00
01169             -10.00    -3200.00
01170              12.00    -3200.00
01171              24.00    -3200.00
01172              -8.00    -3200.00
01173             -26.00    -3400.00
01174               8.00    -3600.00
01175              24.00    -3400.00
01176               8.00    -3200.00
01177               0.00    -3600.00
01178               0.00    -3600.00
01179               6.00    -3600.00
01180               8.00    -3600.00
01181               6.00    -3600.00
01182               0.00    -3600.00
01183               6.00    -3600.00
01184              14.00    -3800.00
01185              10.00    -3600.00
01186              -2.00    -3600.00
01187              -6.00    -3800.00
01188              10.00    -3800.00
01189              16.00    -3600.00
01190               0.00    -3800.00
01191               6.00    -3800.00
01192              10.00    -4000.00
01193               8.00    -3800.00
01194               0.00    -3800.00
01195               2.00    -3800.00
01196               2.00    -3800.00
01197               6.00    -3800.00
01198               6.00    -3800.00
01199               6.00    -4000.00
01200               8.00    -4000.00
01201               4.00    -4000.00
01202               4.00    -4000.00
01203               8.00    -4000.00
01204               4.00    -4000.00
01205               0.00    -4000.00
01206               6.00    -4000.00
01207               6.00    -3800.00
01208               6.00    -4000.00
01209               6.00    -4000.00
01210               6.00    -4000.00
01211               8.00    -3800.00
01212               2.00    -4000.00
01213               6.00    -3800.00
01214               8.00    -3800.00
01215               8.00    -4000.00
01216               6.00    -4000.00
01217               6.00    -3800.00
01218               0.00    -3800.00
01219               0.00    -4000.00
01220              10.00    -3800.00
01221              14.00    -3800.00
01222              10.00    -3800.00
01223               6.00    -3800.00
01224               2.00    -3800.00
01225               2.00    -3800.00
01226               4.00    -3800.00
01227               6.00    -3600.00
01228               6.00    -3800.00
01229               8.00    -3600.00
01230               6.00    -3800.00
01231               6.00    -3600.00
01232               6.00    -3600.00
01233               6.00    -3600.00
01234               6.00    -3600.00
01235              10.00    -3600.00
01236               8.00    -3600.00
01237               2.00    -3600.00
01238               6.00    -3600.00
01239               6.00    -3400.00
01240               6.00    -3200.00
01241               8.00    -3400.00
01242               8.00    -3200.00
01243               8.00    -3200.00
01244               6.00    -3200.00
01245               4.00    -3200.00
01246               2.00    -3200.00
01247               6.00    -3200.00
01248               4.00    -3000.00
01249               6.00    -3000.00
01250               0.00    -3000.00
01251               4.00    -3000.00
01252               8.00    -3000.00
01253               4.00    -2800.00
01254               0.00    -2800.00
01255               0.00    -2800.00
01256               4.00    -2800.00
01257               6.00    -2800.00
01258               2.00    -2800.00
01259               0.00    -2600.00
01260               0.00    -2400.00
01261               0.00    -2400.00
01262               6.00    -2400.00
01263               8.00    -2400.00
01264               2.00    -2400.00
01265               0.00    -2400.00
01266              -2.00    -2200.00
01267               6.00    -2200.00
01268               2.00    -2000.00
01269               4.00    -2000.00
01270               0.00    -2000.00
01271               0.00    -1800.00
01272               0.00    -2000.00
01273               0.00    -2000.00
01274               2.00    -1600.00
01275               2.00    -1600.00
01276               0.00    -1600.00
01277               0.00    -1600.00
01278               0.00    -1400.00
01279              -2.00    -1400.00
01280               0.00    -1200.00
01281               2.00    -1400.00
01282               2.00    -1200.00
01283               2.00    -1000.00
01284               0.00    -1200.00
01285               0.00    -1000.00
01286              -2.00     -800.00
01287              -2.00     -800.00
01288              -2.00    -1000.00
01289               0.00     -800.00
01290              -2.00     -600.00
01291              -2.00     -600.00
01292               0.00     -600.00
01293               0.00     -600.00
01294               0.00     -400.00
01295               0.00     -200.00
01296               0.00     -400.00
01297               0.00        0.00
01298              -6.00        0.00
01299              -2.00        0.00
01300              -2.00        0.00
01301               0.00        0.00
01302              -2.00      200.00
01303               0.00      200.00
01304               4.00      200.00
01305               0.00      200.00
01306               0.00      400.00
01307               2.00      400.00
01308               0.00      400.00
01309              -2.00      400.00
01310              -6.00      400.00
01311              -2.00      600.00
01312              16.00      800.00
01313             126.00     1000.00
01314             144.00     1000.00
01315            -254.00      800.00
01316            -254.00      800.00
01317             234.00     1200.00
01318             246.00     1200.00
01319             -48.00     1200.00
01320            -254.00     1000.00
01321              98.00     1400.00
01322             246.00     1600.00
01323            -254.00     1200.00
01324            -254.00     1400.00
01325             246.00     1800.00
01326             246.00     1600.00
01327            -254.00     1400.00
01328             -88.00     1800.00
01329             196.00     2000.00
01330            -112.00     1600.00
01331              -6.00     2000.00
01332             144.00     2000.00
01333            -154.00     2000.00
01334             -48.00     2000.00
01335             102.00     2400.00
01336             -36.00     2200.00
01337               6.00     2400.00
01338             -24.00     2400.00
01339            -106.00     2400.00
01340             132.00     2600.00
01341              34.00     2600.00
01342            -206.00     2600.00
01343              72.00     2800.00
01344              92.00     2800.00
01345            -126.00     2800.00
01346              32.00     2800.00
01347               8.00     3000.00
01348             -86.00     2800.00
01349              78.00     3200.00
01350             -16.00     3200.00
01351             -82.00     3200.00
01352              62.00     3400.00
01353             -34.00     3400.00
01354             -34.00     3200.00
01355              64.00     3400.00
01356             -66.00     3200.00
01357             -40.00     3400.00
01358              54.00     3600.00
01359             -38.00     3400.00
01360             -16.00     3600.00
01361              24.00     3600.00
01362             -32.00     3600.00
01363             -18.00     3600.00
01364             -14.00     3800.00
01365             -10.00     3600.00
01366              18.00     3800.00
01367             -22.00     4000.00
01368             -32.00     3800.00
01369               6.00     4000.00
01370             -18.00     4000.00
01371             -24.00     4000.00
01372              14.00     4000.00
01373              -2.00     3800.00
01374             -30.00     4000.00
01375              -8.00     4200.00
01376               0.00     4000.00
01377             -18.00     4200.00
01378              -8.00     4200.00
01379              -8.00     4200.00
01380             -14.00     4200.00
01381              -8.00     4200.00
01382             -16.00     4200.00
01383              -8.00     4200.00
01384              -8.00     4200.00
01385             -30.00     4200.00
01386              -8.00     4200.00
01387               8.00     4200.00
01388             -18.00     4200.00
01389             -22.00     4200.00
01390             -10.00     4400.00
01391             -22.00     4200.00
01392             -16.00     4200.00
01393              -2.00     4200.00
01394              -6.00     4400.00
01395             -10.00     4200.00
01396             -18.00     4400.00
01397             -18.00     4400.00
01398             -12.00     4400.00
01399             -14.00     4200.00
01400             -16.00     4200.00
01401              -2.00     4400.00
01402             -12.00     4200.00
01403             -22.00     4200.00
01404             -10.00     4400.00
01405             -10.00     4200.00
01406             -14.00     4200.00
01407              -8.00     4400.00
01408             -12.00     4400.00
01409             -18.00     4200.00
01410             -18.00     4200.00
01411             -16.00     4200.00
01412              -4.00     4200.00
01413              -2.00     4200.00
01414             -10.00     4000.00
01415             -10.00     4200.00
01416             -16.00     4000.00
01417             -16.00     4200.00
01418              -8.00     4200.00
01419              -8.00     4000.00
01420             -16.00     4000.00
01421             -16.00     4000.00
01422             -10.00     4000.00
01423             -10.00     4000.00
01424             -10.00     4000.00
01425             -10.00     4000.00
01426             -10.00     4000.00
01427              -8.00     3800.00
01428             -14.00     4000.00
01429             -16.00     3800.00
01430              -8.00     3800.00
01431             -14.00     3800.00
01432             -10.00     3600.00
01433              -8.00     3600.00
01434             -14.00     3600.00
01435             -10.00     3600.00
01436             -10.00     3600.00
01437             -10.00     3600.00
01438             -10.00     3400.00
01439             -14.00     3400.00
01440              -8.00     3400.00
01441              -8.00     3400.00
01442             -10.00     3400.00
01443             -14.00     3200.00
01444             -10.00     3400.00
01445              -8.00     3200.00
01446             -10.00     3200.00
01447              -2.00     3000.00
01448              -6.00     3200.00
01449             -10.00     3000.00
01450             -16.00     3000.00
01451             -16.00     3000.00
01452             -10.00     2800.00
01453              -6.00     2800.00
01454             -10.00     2800.00
01455             -14.00     2600.00
01456             -14.00     2600.00
01457              -2.00     2600.00
01458              -2.00     2600.00
01459             -10.00     2400.00
01460             -14.00     2400.00
01461             -10.00     2400.00
01462             -10.00     2400.00
01463             -10.00     2400.00
01464             -10.00     2200.00
01465              -6.00     2000.00
01466              -2.00     2000.00
01467              -6.00     2000.00
01468             -10.00     1800.00
01469              -8.00     1800.00
01470              -8.00     1800.00
01471              -8.00     1800.00
01472              -6.00     1800.00
01473              -8.00     1600.00
01474             -14.00     1600.00
01475             -10.00     1600.00
01476              -2.00     1600.00
01477              -6.00     1600.00
01478              -6.00     1400.00
01479             -10.00     1200.00
01480             -10.00     1000.00
01481              -2.00     1200.00
01482               0.00     1000.00
01483              -6.00     1000.00
01484             -10.00     1000.00
01485             -10.00      800.00
01486              -4.00      800.00
01487              -2.00      800.00
01488              -6.00      800.00
01489              -6.00      600.00
01490              -6.00      400.00
01491              -2.00      400.00
01492              -2.00      400.00
01493              -6.00      400.00
01494              -4.00      200.00
01495               0.00      200.00
01496              -2.00      200.00
01497              -2.00      200.00
01498               8.00        0.00
01499              14.00        0.00
01500               0.00        0.00
01501             -14.00        0.00
01502              -6.00     -400.00
01503               6.00     -400.00
01504              30.00     -200.00
01505             122.00     -600.00
01506             118.00     -600.00
01507            -230.00     -800.00
01508            -254.00     -600.00
01509             156.00     -600.00
01510             246.00     -800.00
01511              84.00    -1000.00
01512            -254.00     -800.00
01513             -34.00     -800.00
01514             246.00    -1200.00
01515             -58.00    -1000.00
01516            -254.00    -1200.00
01517             112.00    -1200.00
01518             246.00    -1200.00
01519            -110.00    -1400.00
01520             -84.00    -1400.00
01521             -16.00    -1600.00
01522            -100.00    -1400.00
01523             130.00    -1800.00
01524             196.00    -1600.00
01525            -200.00    -1600.00
01526            -154.00    -2000.00
01527             170.00    -1800.00
01528              86.00    -2000.00
01529             -68.00    -2000.00
01530             -74.00    -2200.00
01531               2.00    -2000.00
01532              80.00    -2200.00
01533              42.00    -2400.00
01534            -106.00    -2200.00
01535             -16.00    -2400.00
01536              80.00    -2400.00
01537              22.00    -2400.00
01538             -34.00    -2400.00
01539             -34.00    -2600.00
01540              14.00    -2600.00
01541              46.00    -2800.00
01542               2.00    -2800.00
01543             -38.00    -2800.00
01544               8.00    -2800.00
01545              24.00    -3000.00
01546              14.00    -3000.00
01547              -8.00    -3000.00
01548             -10.00    -2800.00
01549               8.00    -3000.00
01550              24.00    -3000.00
01551               2.00    -3000.00
01552             -16.00    -3000.00
01553               6.00    -3200.00
01554              30.00    -3200.00
01555               0.00    -3200.00
01556             -16.00    -3200.00
01557              10.00    -3400.00
01558              22.00    -3200.00
01559               4.00    -3400.00
01560               0.00    -3200.00
01561               0.00    -3600.00
01562               2.00    -3600.00
01563              10.00    -3600.00
01564              14.00    -3600.00
01565               6.00    -3600.00
01566               2.00    -3600.00
01567               4.00    -3800.00
01568              10.00    -3600.00
01569               6.00    -3600.00
01570               0.00    -3600.00
01571              10.00    -3800.00
01572              14.00    -3800.00
01573               2.00    -3800.00
01574               2.00    -3600.00
01575              10.00    -3800.00
01576               6.00    -3800.00
01577               6.00    -3800.00
01578               8.00    -3800.00
01579              12.00    -3800.00
01580              10.00    -4000.00
01581               2.00    -3800.00
01582              -2.00    -3800.00
01583               6.00    -4000.00
01584               8.00    -3800.00
01585              10.00    -4200.00
01586              12.00    -3800.00
01587               2.00    -4000.00
01588              -2.00    -3800.00
01589               6.00    -4000.00
01590               8.00    -4000.00
01591               8.00    -3800.00
01592              10.00    -4000.00
01593               6.00    -3800.00
01594               0.00    -4000.00
01595               0.00    -3800.00
01596               4.00    -4000.00
01597              12.00    -3800.00
01598               8.00    -3800.00
01599               4.00    -3800.00
01600               8.00    -3800.00
01601               2.00    -4000.00
01602              -4.00    -3800.00
01603               0.00    -4000.00
01604               8.00    -3800.00
01605              14.00    -3800.00
01606              10.00    -3800.00
01607               0.00    -3800.00
01608               0.00    -3600.00
01609               8.00    -3800.00
01610               8.00    -3800.00
01611               8.00    -3800.00
01612               6.00    -3600.00
01613               0.00    -3800.00
01614               4.00    -3600.00
01615               0.00    -3600.00
01616               2.00    -3600.00
01617              10.00    -3600.00
01618              14.00    -3600.00
01619               8.00    -3600.00
01620               2.00    -3600.00
01621               0.00    -3600.00
01622               6.00    -3400.00
01623               4.00    -3400.00
01624              10.00    -3200.00
01625               8.00    -3200.00
01626               2.00    -3200.00
01627               0.00    -3200.00
01628               8.00    -3200.00
01629               4.00    -3200.00
01630               6.00    -3200.00
01631               6.00    -3000.00
01632               6.00    -3000.00
01633               6.00    -3000.00
01634               2.00    -2800.00
01635               4.00    -2800.00
01636              10.00    -3000.00
01637               2.00    -2800.00
01638               0.00    -2800.00
01639               8.00    -2800.00
01640               8.00    -2600.00
01641               6.00    -2800.00
01642               0.00    -2600.00
01643               2.00    -2600.00
01644               2.00    -2400.00
01645               6.00    -2400.00
01646               0.00    -2400.00
01647               2.00    -2400.00
01648               0.00    -2200.00
01649               0.00    -2200.00
01650               6.00    -2200.00
01651               0.00    -2000.00
01652               0.00    -2000.00
01653               2.00    -2000.00
01654               2.00    -2000.00
01655               0.00    -2000.00
01656              -2.00    -1600.00
01657              -6.00    -1600.00
01658               0.00    -1600.00
01659               8.00    -1600.00
01660               2.00    -1600.00
01661              -4.00    -1400.00
01662              -8.00    -1400.00
01663              -2.00    -1400.00
01664               6.00    -1200.00
01665               2.00    -1200.00
01666               0.00    -1200.00
01667               0.00    -1200.00
01668              -2.00    -1000.00
01669              -6.00     -800.00
01670              -2.00     -800.00
01671               2.00     -800.00
01672               0.00     -600.00
01673              -2.00     -800.00
01674               0.00     -600.00
01675              -2.00     -400.00
01676              -6.00     -400.00
01677              -4.00     -400.00
01678               0.00     -400.00
01679               0.00     -400.00
01680              -2.00     -200.00
01681              -2.00        0.00
01682              -6.00        0.00
01683              -2.00        0.00
01684               0.00        0.00
01685              -2.00      200.00
01686              -2.00      200.00
01687               0.00      200.00
01688               2.00      400.00
01689               0.00      400.00
01690               4.00      400.00
01691               0.00      600.00
01692              -2.00      400.00
01693              -6.00      600.00
01694              -2.00      800.00
01695              10.00      800.00
01696             118.00      800.00
01697             158.00     1000.00
01698            -232.00     1000.00
01699            -254.00      800.00
01700             176.00     1200.00
01701             246.00     1200.00
01702              48.00     1200.00
01703            -254.00      800.00
01704              18.00     1400.00
01705             246.00     1600.00
01706            -174.00     1200.00
01707            -254.00     1400.00
01708             246.00     1800.00
01709             246.00     1600.00
01710            -254.00     1400.00
01711            -114.00     2000.00
01712             214.00     2000.00
01713            -106.00     1800.00
01714             -42.00     1800.00
01715             152.00     2000.00
01716            -122.00     1800.00
01717             -54.00     2400.00
01718              88.00     2400.00
01719             -42.00     2200.00
01720               6.00     2400.00
01721               0.00     2400.00
01722            -114.00     2600.00
01723             112.00     2600.00
01724              50.00     2600.00
01725            -208.00     2600.00
01726              56.00     2800.00
01727             118.00     2800.00
01728            -122.00     2600.00
01729              16.00     3000.00
01730              16.00     3000.00
01731             -88.00     2800.00
01732              74.00     3000.00
01733              -6.00     3000.00
01734             -94.00     3200.00
01735              64.00     3200.00
01736             -26.00     3200.00
01737             -52.00     3200.00
01738              64.00     3400.00
01739             -50.00     3200.00
01740             -38.00     3400.00
01741              50.00     3600.00
01742             -42.00     3400.00
01743             -32.00     3400.00
01744              26.00     3600.00
01745             -24.00     3600.00
01746             -10.00     3600.00
01747              -8.00     3800.00
01748             -18.00     3600.00
01749               8.00     3600.00
01750             -22.00     4000.00
01751             -26.00     3800.00
01752              14.00     4000.00
01753             -14.00     3800.00
01754             -30.00     3800.00
01755               0.00     4000.00
01756              -8.00     4000.00
01757             -24.00     4000.00
01758               0.00     4000.00
01759              -6.00     4000.00
01760             -24.00     4000.00
01761             -12.00     4000.00
01762              -2.00     4200.00
01763             -10.00     4000.00
01764              -8.00     4200.00
01765             -18.00     4000.00
01766              -8.00     4200.00
01767              -8.00     4200.00
01768             -26.00     4200.00
01769              -6.00     4200.00
01770               6.00     4200.00
01771             -24.00     4200.00
01772             -20.00     4400.00
01773               0.00     4400.00
01774              -8.00     4200.00
01775             -16.00     4200.00
01776             -14.00     4400.00
01777             -10.00     4200.00
01778              -6.00     4400.00
01779             -16.00     4200.00
01780             -24.00     4200.00
01781              -8.00     4400.00
01782             -10.00     4200.00
01783             -14.00     4400.00
01784              -6.00     4400.00
01785             -10.00     4200.00
01786             -26.00     4400.00
01787             -14.00     4200.00
01788             -10.00     4200.00
01789             -16.00     4400.00
01790             -14.00     4200.00
01791              -2.00     4200.00
01792              -6.00     4200.00
01793             -14.00     4200.00
01794             -26.00     4200.00
01795             -26.00     4400.00
01796             -10.00     4200.00
01797               4.00     4200.00
01798               2.00     4200.00
01799             -22.00     4200.00
01800             -42.00     4000.00
01801             -20.00     4000.00
01802              16.00     4000.00
01803               4.00     4000.00
01804             -26.00     4200.00
01805             -26.00     4000.00
01806             -10.00     4000.00
01807              -6.00     4000.00
01808             -10.00     4000.00
01809             -10.00     3800.00
01810              -8.00     4000.00
01811             -14.00     3800.00
01812             -18.00     3800.00
01813             -14.00     3600.00
01814             -10.00     3800.00
01815             -10.00     3600.00
01816              -6.00     3600.00
01817              -8.00     3600.00
01818             -16.00     3600.00
01819             -16.00     3600.00
01820             -10.00     3600.00
01821              -6.00     3600.00
01822              -6.00     3400.00
01823             -14.00     3400.00
01824             -14.00     3400.00
01825             -10.00     3400.00
01826              -8.00     3200.00
01827             -10.00     3200.00
01828             -10.00     3200.00
01829              -6.00     3200.00
01830               0.00     3200.00
01831             -10.00     3000.00
01832             -18.00     3000.00
01833             -16.00     2800.00
01834              -4.00     3200.00
01835               2.00     2800.00
01836              -8.00     2800.00
01837             -16.00     2800.00
01838             -16.00     2800.00
01839             -10.00     2600.00
01840              -2.00     2800.00
01841              -2.00     2600.00
01842              -8.00     2400.00
01843             -12.00     2400.00
01844             -14.00     2400.00
01845             -10.00     2400.00
01846              -8.00     2200.00
01847             -10.00     2000.00
01848             -10.00     2000.00
01849              -8.00     2000.00
01850              -2.00     2000.00
01851              -6.00     2000.00
01852             -10.00     1800.00
01853             -16.00     1800.00
01854              -8.00     1600.00
01855              -6.00     1600.00
01856              -6.00     1600.00
01857              -8.00     1600.00
01858              -8.00     1400.00
01859             -10.00     1600.00
01860              -8.00     1400.00
01861              -8.00     1200.00
01862              -2.00     1200.00
01863              -4.00     1200.00
01864             -10.00     1200.00
01865             -10.00     1000.00
01866              -8.00     1000.00
01867              -8.00     1000.00
01868              -8.00      800.00
01869              -2.00      800.00
01870               0.00      800.00
01871              -6.00      600.00
01872              -8.00      600.00
01873              -8.00      400.00
01874              -2.00      600.00
01875              -2.00      400.00
01876              -2.00      400.00
01877              -6.00      400.00
01878               0.00      200.00
01879               2.00      200.00
01880               0.00      200.00
01881               2.00        0.00
01882               6.00        0.00
01883               0.00        0.00
01884              -8.00     -400.00
01885              -4.00     -200.00
01886               2.00     -400.00
01887              22.00     -400.00
01888             110.00     -400.00
01889             126.00     -800.00
01890            -196.00     -800.00
01891            -254.00     -800.00
01892             104.00     -400.00
01893             246.00     -800.00
01894             160.00    -1000.00
01895            -254.00     -800.00
01896            -110.00     -800.00
01897             246.00    -1000.00
01898              22.00    -1200.00
01899            -254.00    -1200.00
01900              64.00    -1400.00
01901             246.00    -1200.00
01902             -90.00    -1400.00
01903             -94.00    -1400.00
01904              -8.00    -1600.00
01905            -102.00    -1400.00
01906             112.00    -1600.00
01907             214.00    -1600.00
01908            -182.00    -1800.00
01909            -170.00    -2000.00
01910             158.00    -2000.00
01911             102.00    -1800.00
01912             -64.00    -2000.00
01913             -74.00    -2200.00
01914               0.00    -2000.00
01915              78.00    -2200.00
01916              50.00    -2400.00
01917            -106.00    -2200.00
01918             -26.00    -2400.00
01919              78.00    -2400.00
01920              30.00    -2400.00
01921             -30.00    -2400.00
01922             -34.00    -2600.00
01923              10.00    -2800.00
01924              42.00    -2800.00
01925               6.00    -2800.00
01926             -42.00    -2800.00
01927               2.00    -3000.00
01928              26.00    -2800.00
01929              16.00    -2800.00
01930              -8.00    -3000.00
01931             -16.00    -3000.00
01932               2.00    -3000.00
01933              22.00    -3200.00
01934               4.00    -3200.00
01935             -14.00    -3000.00
01936               6.00    -3200.00
01937              24.00    -3200.00
01938               0.00    -3200.00
01939             -22.00    -3200.00
01940               8.00    -3400.00
01941              22.00    -3200.00
01942               6.00    -3400.00
01943               0.00    -3400.00
01944              -2.00    -3600.00
01945               0.00    -3600.00
01946               6.00    -3400.00
01947              14.00    -3600.00
01948               6.00    -3600.00
01949               6.00    -3600.00
01950               8.00    -3600.00
01951               8.00    -3800.00
01952               2.00    -3600.00
01953              -2.00    -3600.00
01954              10.00    -3600.00
01955              18.00    -3800.00
01956               6.00    -3600.00
01957              -2.00    -3800.00
01958               8.00    -3800.00
01959               6.00    -3800.00
01960               4.00    -3800.00
01961               8.00    -3800.00
01962              10.00    -3800.00
01963               8.00    -4000.00
01964               4.00    -3800.00
01965               0.00    -4000.00
01966               8.00    -4000.00
01967               8.00    -4000.00
01968               8.00    -4000.00
01969              10.00    -3800.00
01970               6.00    -3800.00
01971               2.00    -4000.00
01972               8.00    -4000.00
01973               8.00    -4000.00
01974               8.00    -4000.00
01975               6.00    -4000.00
01976               8.00    -4000.00
01977               8.00    -4000.00
01978               0.00    -3800.00
01979               2.00    -4000.00
01980               6.00    -4000.00
01981               8.00    -4000.00
01982               6.00    -4000.00
01983               6.00    -3800.00
01984               4.00    -4000.00
01985               0.00    -3800.00
01986               6.00    -4000.00
01987              10.00    -3800.00
01988               8.00    -3800.00
01989               6.00    -3800.00
01990               6.00    -3800.00
01991               2.00    -4000.00
01992               2.00    -3600.00
01993               6.00    -3800.00
01994              10.00    -3800.00
01995               6.00    -3800.00
01996               2.00    -3800.00
01997               4.00    -3800.00
01998               2.00    -3800.00
01999               6.00    -3600.00
02000               6.00    -3800.00
02001               6.00    -3600.00
02002               2.00    -3600.00
02003               6.00    -3400.00
02004               6.00    -3600.00
02005               6.00    -3400.00
02006               2.00    -3200.00
02007               6.00    -3400.00
02008               8.00    -3200.00
02009               6.00    -3400.00
02010               6.00    -3200.00
02011               2.00    -3200.00
02012               2.00    -3000.00
02013               6.00    -3200.00
02014               2.00    -3000.00
02015               8.00    -3200.00
02016               6.00    -2800.00
02017               2.00    -3000.00
02018              -2.00    -3000.00
02019               6.00    -2800.00
02020               6.00    -2800.00
02021               6.00    -2800.00
02022               8.00    -2600.00
02023               2.00    -2800.00
02024               2.00    -2600.00
02025               2.00    -2400.00
02026               6.00    -2600.00
02027               2.00    -2400.00
02028               2.00    -2400.00
02029               2.00    -2400.00
02030               2.00    -2400.00
02031               0.00    -2200.00
02032               2.00    -2200.00
02033               2.00    -2200.00
02034               6.00    -2200.00
02035               2.00    -2000.00
02036               2.00    -2000.00
02037               0.00    -2000.00
02038               0.00    -2000.00
02039               0.00    -1800.00
02040               2.00    -1600.00
02041               2.00    -1600.00
02042               0.00    -1600.00
02043               0.00    -1400.00
02044               0.00    -1400.00
02045              -2.00    -1400.00
02046              -2.00    -1400.00
02047               0.00    -1400.00
02048               2.00    -1400.00
02049               0.00    -1200.00
02050              -2.00    -1000.00
02051              -2.00    -1000.00
02052              -2.00    -1000.00
02053              -2.00    -1000.00
02054               0.00     -800.00
02055               0.00     -800.00
02056              -2.00     -600.00
02057              -4.00     -600.00
02058              -2.00     -600.00
02059              -2.00     -600.00
02060              -2.00     -400.00
02061              -2.00     -400.00
02062               0.00     -400.00
02063              -2.00     -200.00
02064              -6.00        0.00
02065              -6.00        0.00
02066              -2.00        0.00
02067              -2.00        0.00
02068              -2.00      200.00
02069              -2.00      200.00
02070               0.00      200.00
02071               0.00      400.00
02072               0.00      400.00
02073               6.00      400.00
02074               6.00      400.00
02075              -6.00      400.00
02076             -10.00      600.00
02077              -4.00      800.00
02078              10.00      800.00
02079             106.00      800.00
02080             166.00     1000.00
02081            -202.00      800.00
02082            -254.00     1000.00
02083             120.00     1200.00
02084             246.00     1200.00
02085             142.00     1200.00
02086            -254.00      800.00
02087             -68.00     1600.00
02088             246.00     1600.00
02089             -82.00     1200.00
02090            -254.00     1400.00
02091             244.00     1800.00
02092             246.00     1600.00
02093            -254.00     1200.00
02094            -160.00     1800.00
02095             214.00     2000.00
02096             -86.00     1600.00
02097             -42.00     2000.00
02098             158.00     2200.00
02099            -126.00     2000.00
02100             -80.00     2000.00
02101             102.00     2400.00
02102             -22.00     2200.00
02103              -6.00     2400.00
02104              -2.00     2400.00
02105            -118.00     2400.00
02106             104.00     2600.00
02107              78.00     2600.00
02108            -204.00     2400.00
02109              30.00     2800.00
02110             126.00     2800.00
02111            -114.00     2600.00
02112              10.00     3000.00
02113              30.00     2800.00
02114             -94.00     2800.00
02115              62.00     3200.00
02116              14.00     3200.00
02117             -96.00     3000.00
02118              54.00     3400.00
02119             -16.00     3200.00
02120             -54.00     3200.00
02121              66.00     3400.00
02122             -46.00     3200.00
02123             -54.00     3400.00
02124              50.00     3400.00
02125             -32.00     3400.00
02126             -32.00     3400.00
02127              30.00     3600.00
02128             -24.00     3600.00
02129             -22.00     3600.00
02130             -16.00     3800.00
02131             -16.00     3600.00
02132              18.00     3600.00
02133             -10.00     3800.00
02134             -34.00     3800.00
02135               4.00     3800.00
02136             -16.00     4000.00
02137             -26.00     3800.00
02138               8.00     3800.00
02139              -2.00     4000.00
02140             -30.00     4000.00
02141              -8.00     4200.00
02142               0.00     4000.00
02143             -20.00     4000.00
02144             -14.00     4000.00
02145              -4.00     4200.00
02146              -6.00     4000.00
02147             -10.00     4200.00
02148             -22.00     4200.00
02149             -10.00     4200.00
02150              -2.00     4200.00
02151             -24.00     4200.00
02152             -10.00     4200.00
02153               2.00     4200.00
02154             -16.00     4400.00
02155             -16.00     4400.00
02156             -10.00     4400.00
02157             -14.00     4400.00
02158             -14.00     4400.00
02159              -8.00     4400.00
02160             -10.00     4200.00
02161             -10.00     4400.00
02162             -18.00     4400.00
02163             -14.00     4200.00
02164              -6.00     4200.00
02165             -12.00     4400.00
02166             -14.00     4200.00
02167              -8.00     4400.00
02168             -10.00     4200.00
02169             -20.00     4200.00
02170             -14.00     4400.00
02171             -10.00     4400.00
02172             -14.00     4400.00
02173             -10.00     4200.00
02174             -10.00     4400.00
02175             -16.00     4400.00
02176             -20.00     4200.00
02177             -16.00     4200.00
02178              -8.00     4200.00
02179             -10.00     4200.00
02180             -14.00     4200.00
02181             -16.00     4200.00
02182             -16.00     4200.00
02183             -18.00     4200.00
02184             -12.00     4000.00
02185              -6.00     4200.00
02186             -14.00     4000.00
02187             -14.00     4200.00
02188             -12.00     4000.00
02189             -14.00     4000.00
02190             -14.00     4000.00
02191             -10.00     4000.00
02192             -10.00     3800.00
02193             -10.00     3800.00
02194             -16.00     4000.00
02195             -14.00     3800.00
02196             -10.00     3600.00
02197             -14.00     3800.00
02198             -14.00     3600.00
02199              -6.00     3600.00
02200             -10.00     3600.00
02201             -14.00     3600.00
02202             -12.00     3600.00
02203             -14.00     3400.00
02204             -10.00     3600.00
02205             -10.00     3400.00
02206              -6.00     3400.00
02207             -10.00     3400.00
02208             -12.00     3400.00
02209             -14.00     3400.00
02210             -10.00     3200.00
02211             -10.00     3200.00
02212              -6.00     3200.00
02213              -4.00     3200.00
02214             -16.00     3200.00
02215             -16.00     3000.00
02216              -6.00     3200.00
02217              -6.00     2800.00
02218             -16.00     2800.00
02219             -10.00     2800.00
02220               0.00     2800.00
02221              -8.00     2800.00
02222             -14.00     2600.00
02223             -10.00     2600.00
02224              -8.00     2600.00
02225              -8.00     2600.00
02226              -2.00     2600.00
02227               0.00     2400.00
02228              -8.00     2200.00
02229             -22.00     2200.00
02230             -22.00     2200.00
02231              -2.00     2000.00
02232               6.00     2000.00
02233               0.00     2000.00
02234             -14.00     2000.00
02235             -14.00     1800.00
02236             -14.00     2000.00
02237              -6.00     1600.00
02238               2.00     1800.00
02239              -6.00     1600.00
02240             -14.00     1600.00
02241             -14.00     1600.00
02242             -12.00     1400.00
02243               0.00     1400.00
02244               2.00     1400.00
02245              -6.00     1200.00
02246             -14.00     1200.00
02247             -16.00     1200.00
02248             -10.00     1000.00
02249               2.00     1200.00
02250               0.00      800.00
02251              -8.00      800.00
02252              -8.00      800.00
02253              -8.00      800.00
02254             -10.00      600.00
02255              -8.00      800.00
02256               0.00      600.00
02257               0.00      400.00
02258              -6.00      400.00
02259             -16.00      200.00
02260             -16.00      200.00
02261               2.00      200.00
02262              10.00      200.00
02263               6.00        0.00
02264               0.00        0.00
02265               4.00        0.00
02266               2.00        0.00
02267              -4.00     -200.00
02268              -6.00        0.00
02269              -2.00     -400.00
02270              18.00     -200.00
02271             102.00     -400.00
02272             136.00     -600.00
02273            -162.00     -800.00
02274            -254.00     -600.00
02275              52.00     -400.00
02276             246.00     -800.00
02277             238.00     -800.00
02278            -254.00     -800.00
02279            -178.00     -800.00
02280             246.00    -1000.00
02281              94.00    -1000.00
02282            -254.00    -1000.00
02283              16.00    -1200.00
02284             246.00    -1400.00
02285             -70.00    -1000.00
02286            -104.00    -1400.00
02287               0.00    -1600.00
02288            -106.00    -1400.00
02289              88.00    -1600.00
02290             232.00    -1600.00
02291            -154.00    -1800.00
02292            -186.00    -2000.00
02293             138.00    -1800.00
02294             120.00    -1800.00
02295             -56.00    -2000.00
02296             -72.00    -2200.00
02297              -6.00    -2000.00
02298              70.00    -2200.00
02299              62.00    -2400.00
02300            -102.00    -2400.00
02301             -38.00    -2400.00
02302              76.00    -2400.00
02303              42.00    -2400.00
02304             -26.00    -2400.00
02305             -34.00    -2600.00
02306              -2.00    -2600.00
02307              42.00    -2800.00
02308              16.00    -2800.00
02309             -40.00    -2800.00
02310               0.00    -2800.00
02311              24.00    -3000.00
02312              18.00    -2800.00
02313              -6.00    -3000.00
02314             -12.00    -3000.00
02315               0.00    -3000.00
02316              24.00    -3200.00
02317               6.00    -3200.00
02318             -16.00    -3200.00
02319               4.00    -3200.00
02320              26.00    -3200.00
02321               2.00    -3200.00
02322             -20.00    -3200.00
02323               2.00    -3400.00
02324              22.00    -3200.00
02325              10.00    -3600.00
02326               0.00    -3400.00
02327               0.00    -3600.00
02328               0.00    -3400.00
02329               8.00    -3600.00
02330              10.00    -3600.00
02331               6.00    -3600.00
02332               0.00    -3600.00
02333               6.00    -3800.00
02334               6.00    -3600.00
02335               2.00    -3600.00
02336               0.00    -3800.00
02337              10.00    -3800.00
02338              16.00    -3800.00
02339               0.00    -3800.00
02340              -2.00    -3800.00
02341              14.00    -3800.00
02342              14.00    -4000.00
02343               4.00    -3800.00
02344               6.00    -3600.00
02345               6.00    -4000.00
02346               8.00    -3800.00
02347               6.00    -4000.00
02348               2.00    -3800.00
02349               8.00    -4000.00
02350               8.00    -3800.00
02351               6.00    -3800.00
02352              10.00    -4000.00
02353               6.00    -4000.00
02354               0.00    -3800.00
02355               6.00    -3800.00
02356               8.00    -3800.00
02357               8.00    -4000.00
02358              10.00    -4000.00
02359              10.00    -4000.00
02360               6.00    -4000.00
02361               0.00    -3800.00
02362               2.00    -3800.00
02363              10.00    -4000.00
02364              10.00    -4000.00
02365               8.00    -4000.00
02366               6.00    -4000.00
02367               2.00    -4000.00
02368              -2.00    -4000.00
02369               6.00    -3800.00
02370              10.00    -3800.00
02371               8.00    -3800.00
02372               2.00    -4000.00
02373               2.00    -3800.00
02374               2.00    -3800.00
02375               6.00    -3800.00
02376               2.00    -3800.00
02377               6.00    -3800.00
02378               8.00    -3800.00
02379               6.00    -3600.00
02380               6.00    -3800.00
02381               0.00    -3600.00
02382               0.00    -3600.00
02383               6.00    -3600.00
02384               8.00    -3600.00
02385               8.00    -3600.00
02386               6.00    -3400.00
02387               4.00    -3600.00
02388               2.00    -3400.00
02389               2.00    -3400.00
02390               2.00    -3400.00
02391               8.00    -3200.00
02392               2.00    -3200.00
02393               0.00    -3200.00
02394               2.00    -3200.00
02395               6.00    -3200.00
02396               6.00    -3000.00
02397               0.00    -3200.00
02398               4.00    -3000.00
02399               8.00    -3000.00
02400               4.00    -3000.00
02401               0.00    -3000.00
02402               0.00    -2800.00
02403               4.00    -2800.00
02404               4.00    -2800.00
02405               6.00    -2800.00
02406               6.00    -2800.00
02407               0.00    -2800.00
02408               4.00    -2600.00
02409               2.00    -2600.00
02410               8.00    -2400.00
02411               6.00    -2400.00
02412               2.00    -2400.00
02413              -8.00    -2400.00
02414               0.00    -2200.00
02415              -2.00    -2200.00
02416             -14.00    -2200.00
02417              22.00    -2000.00
02418              24.00    -2000.00
02419              24.00    -2000.00
02420              -8.00    -2000.00
02421             -22.00    -2000.00
02422             -10.00    -1800.00
02423               8.00    -1600.00
02424              -2.00    -1600.00
02425               6.00    -1600.00
02426               8.00    -1600.00
02427               4.00    -1400.00
02428               8.00    -1400.00
02429              -2.00    -1400.00
02430               2.00    -1200.00
02431              -2.00    -1000.00
02432              -2.00    -1200.00
02433               0.00    -1000.00
02434              -2.00    -1000.00
02435             -18.00    -1000.00
02436              -2.00     -800.00
02437              18.00     -800.00
02438              14.00     -800.00
02439              -6.00     -800.00
02440             -24.00     -800.00
02441              -2.00     -600.00
02442              12.00     -400.00
02443               2.00     -600.00
02444              -8.00     -400.00
02445             -10.00     -400.00
02446             -10.00     -400.00
02447               0.00        0.00
02448               6.00     -200.00
02449               6.00        0.00
02450               2.00        0.00
02451             -10.00        0.00
02452              -8.00      200.00
02453              -2.00      200.00
02454               0.00      400.00
02455               0.00      400.00
02456               8.00      400.00
02457               2.00      400.00
02458              -6.00      400.00
02459              -2.00      400.00
02460               0.00      800.00
02461               8.00      800.00
02462              94.00      800.00
02463             168.00     1000.00
02464            -166.00     1000.00
02465            -254.00      800.00
02466              64.00     1000.00
02467             246.00     1400.00
02468             228.00     1200.00
02469            -254.00     1000.00
02470            -144.00     1400.00
02471             246.00     1600.00
02472               2.00     1200.00
02473            -254.00     1600.00
02474             186.00     1800.00
02475             246.00     1600.00
02476            -254.00     1600.00
02477            -196.00     1800.00
02478             216.00     2000.00
02479             -64.00     1800.00
02480             -56.00     2000.00
02481             160.00     2000.00
02482            -106.00     2000.00
02483             -98.00     2000.00
02484              96.00     2200.00
02485             -10.00     2200.00
02486              -8.00     2400.00
02487               8.00     2400.00
02488            -118.00     2400.00
02489              88.00     2600.00
02490              98.00     2600.00
02491            -198.00     2600.00
02492               8.00     2800.00
02493             138.00     2800.00
02494            -106.00     2600.00
02495              -6.00     2800.00
02496              42.00     3000.00
02497             -94.00     2800.00
02498              48.00     3200.00
02499              26.00     3200.00
02500             -98.00     3000.00
02501              48.00     3200.00
02502              -6.00     3200.00
02503             -58.00     3200.00
02504              62.00     3400.00
02505             -34.00     3200.00
02506             -58.00     3200.00
02507              50.00     3600.00
02508             -24.00     3400.00
02509             -36.00     3400.00
02510              26.00     3600.00
02511             -18.00     3600.00
02512             -22.00     3400.00
02513             -12.00     3800.00
02514             -18.00     3600.00
02515              12.00     3600.00
02516              -8.00     3800.00
02517             -34.00     3600.00
02518               2.00     3800.00
02519             -10.00     4000.00
02520             -30.00     3800.00
02521               2.00     4000.00
02522              -2.00     4000.00
02523             -30.00     4000.00
02524             -10.00     4000.00
02525               0.00     4000.00
02526             -22.00     4000.00
02527             -16.00     4000.00
02528              -6.00     4000.00
02529              -6.00     4000.00
02530              -8.00     4200.00
02531             -24.00     4000.00
02532             -14.00     4200.00
02533               0.00     4200.00
02534             -22.00     4200.00
02535             -16.00     4200.00
02536               2.00     4200.00
02537             -18.00     4200.00
02538             -18.00     4200.00
02539              -8.00     4400.00
02540             -14.00     4200.00
02541             -14.00     4200.00
02542              -8.00     4400.00
02543              -8.00     4400.00
02544             -14.00     4200.00
02545             -16.00     4400.00
02546             -16.00     4400.00
02547              -6.00     4400.00
02548             -10.00     4400.00
02549             -16.00     4400.00
02550              -8.00     4400.00
02551             -10.00     4400.00
02552             -18.00     4400.00
02553             -10.00     4200.00
02554             -10.00     4200.00
02555             -10.00     4400.00
02556             -10.00     4200.00
02557             -10.00     4200.00
02558             -14.00     4200.00
02559             -16.00     4200.00
02560             -16.00     4200.00
02561             -10.00     4200.00
02562             -10.00     4400.00
02563             -14.00     4000.00
02564             -14.00     4200.00
02565             -14.00     4200.00
02566             -16.00     4200.00
02567             -10.00     4000.00
02568              -8.00     4200.00
02569             -14.00     4000.00
02570             -14.00     4000.00
02571             -12.00     4000.00
02572             -12.00     4000.00
02573             -16.00     3800.00
02574             -16.00     4000.00
02575             -10.00     3600.00
02576             -10.00     4000.00
02577             -16.00     3800.00
02578             -16.00     3800.00
02579             -12.00     3800.00
02580             -10.00     3800.00
02581             -10.00     3600.00
02582             -12.00     3600.00
02583             -14.00     3600.00
02584             -14.00     3600.00
02585             -10.00     3800.00
02586             -10.00     3600.00
02587             -10.00     3400.00
02588              -8.00     3600.00
02589             -10.00     3400.00
02590             -16.00     3400.00
02591             -16.00     3400.00
02592              -8.00     3400.00
02593              -6.00     3200.00
02594             -10.00     3200.00
02595             -12.00     3200.00
02596             -10.00     3200.00
02597             -14.00     3200.00
02598             -10.00     3000.00
02599             -10.00     3200.00
02600              -8.00     2800.00
02601             -10.00     2800.00
02602             -10.00     2800.00
02603              -6.00     2800.00
02604              -4.00     2800.00
02605             -10.00     2600.00
02606             -14.00     2600.00
02607             -10.00     2600.00
02608              -6.00     2400.00
02609              -2.00     2400.00
02610              -4.00     2400.00
02611             -10.00     2400.00
02612             -10.00     2200.00
02613             -10.00     2000.00
02614              -6.00     2000.00
02615              -6.00     2200.00
02616              -8.00     2000.00
02617              -6.00     1800.00
02618              -6.00     2000.00
02619              -8.00     1800.00
02620              -8.00     1600.00
02621              -6.00     1600.00
02622              -6.00     1600.00
02623              -8.00     1600.00
02624              -8.00     1600.00
02625              -6.00     1400.00
02626              -6.00     1400.00
02627              -8.00     1200.00
02628              -8.00     1200.00
02629              -8.00     1200.00
02630              -8.00     1200.00
02631              -6.00     1000.00
02632              -6.00     1000.00
02633              -6.00     1000.00
02634              -8.00     1000.00
02635              -6.00      800.00
02636               0.00      800.00
02637              -2.00      800.00
02638              -8.00      800.00
02639              -8.00      600.00
02640              -6.00      600.00
02641              -2.00      400.00
02642              -2.00      400.00
02643              -6.00      200.00
02644              -2.00      200.00
02645               0.00      200.00
02646              -2.00        0.00
02647               0.00        0.00
02648              10.00        0.00
02649               0.00        0.00
02650              -8.00        0.00
02651              -6.00        0.00
02652              -2.00     -200.00
02653              16.00     -400.00
02654              96.00     -400.00
02655             144.00     -600.00
02656            -136.00     -800.00
02657            -254.00     -600.00
02658              -6.00     -400.00
02659             246.00     -800.00
02660             246.00    -1000.00
02661            -254.00     -800.00
02662            -242.00     -800.00
02663             246.00    -1200.00
02664             160.00    -1000.00
02665            -254.00    -1200.00
02666             -38.00    -1200.00
02667             246.00    -1400.00
02668             -42.00    -1400.00
02669            -112.00    -1400.00
02670               0.00    -1600.00
02671            -104.00    -1400.00
02672              66.00    -1600.00
02673             242.00    -1600.00
02674            -138.00    -1800.00
02675            -202.00    -1800.00
02676             126.00    -2000.00
02677             134.00    -1800.00
02678             -54.00    -2000.00
02679             -74.00    -2200.00
02680             -10.00    -2000.00
02681              70.00    -2000.00
02682              70.00    -2400.00
02683             -94.00    -2200.00
02684             -42.00    -2200.00
02685              70.00    -2400.00
02686              46.00    -2400.00
02687             -26.00    -2400.00
02688             -34.00    -2400.00
02689               0.00    -2400.00
02690              46.00    -2600.00
02691              16.00    -2800.00
02692             -40.00    -2600.00
02693              -2.00    -2800.00
02694              24.00    -3000.00
02695              20.00    -2800.00
02696              -6.00    -3000.00
02697             -14.00    -3200.00
02698               0.00    -3200.00
02699              24.00    -3000.00
02700               6.00    -3200.00
02701             -14.00    -3000.00
02702               0.00    -3200.00
02703              22.00    -3200.00
02704               6.00    -3200.00
02705             -22.00    -3200.00
02706               6.00    -3400.00
02707              22.00    -3200.00
02708               6.00    -3600.00
02709              -2.00    -3600.00
02710              -2.00    -3600.00
02711               0.00    -3600.00
02712               8.00    -3600.00
02713              14.00    -3600.00
02714               6.00    -3600.00
02715               2.00    -3600.00
02716               2.00    -3600.00
02717               6.00    -3600.00
02718               6.00    -3600.00
02719               0.00    -3600.00
02720               6.00    -3600.00
02721              16.00    -3800.00
02722               2.00    -3800.00
02723              -2.00    -3800.00
02724               6.00    -3800.00
02725               6.00    -3800.00
02726               6.00    -4000.00
02727               6.00    -3800.00
02728               8.00    -4000.00
02729               8.00    -3800.00
02730               2.00    -3800.00
02731               2.00    -4000.00
02732               8.00    -3800.00
02733               8.00    -3800.00
02734               6.00    -4000.00
02735              10.00    -4000.00
02736               8.00    -4000.00
02737               0.00    -3800.00
02738               6.00    -4000.00
02739              10.00    -4000.00
02740              10.00    -4000.00
02741               6.00    -4000.00
02742               8.00    -3800.00
02743               6.00    -4000.00
02744               6.00    -4000.00
02745               6.00    -3800.00
02746               8.00    -3800.00
02747               8.00    -3800.00
02748               6.00    -3800.00
02749               8.00    -3800.00
02750               6.00    -3800.00
02751               0.00    -3800.00
02752               6.00    -3800.00
02753              14.00    -3800.00
02754              10.00    -3800.00
02755               6.00    -3800.00
02756               2.00    -3800.00
02757               6.00    -3800.00
02758               4.00    -3800.00
02759               6.00    -3800.00
02760               6.00    -3800.00
02761               6.00    -3800.00
02762               2.00    -3800.00
02763               2.00    -3800.00
02764               0.00    -3600.00
02765               0.00    -3600.00
02766               6.00    -3600.00
02767               8.00    -3600.00
02768               8.00    -3600.00
02769               2.00    -3600.00
02770               0.00    -3400.00
02771               2.00    -3600.00
02772               4.00    -3200.00
02773               6.00    -3400.00
02774               6.00    -3200.00
02775               6.00    -3200.00
02776               2.00    -3200.00
02777               0.00    -3200.00
02778               0.00    -3200.00
02779               0.00    -3200.00
02780               6.00    -3200.00
02781               8.00    -3000.00
02782               2.00    -3000.00
02783               0.00    -3000.00
02784               0.00    -3000.00
02785               2.00    -3000.00
02786               6.00    -2800.00
02787               6.00    -2800.00
02788               2.00    -2800.00
02789               2.00    -2600.00
02790               4.00    -2800.00
02791               6.00    -2600.00
02792               2.00    -2600.00
02793               0.00    -2400.00
02794               6.00    -2400.00
02795               6.00    -2400.00
02796               6.00    -2200.00
02797               0.00    -2400.00
02798               0.00    -2200.00
02799               4.00    -2200.00
02800               6.00    -2000.00
02801               4.00    -2000.00
02802               2.00    -2000.00
02803               0.00    -2000.00
02804              -2.00    -2000.00
02805               4.00    -1800.00
02806               8.00    -1800.00
02807               2.00    -1600.00
02808              -6.00    -1600.00
02809              -2.00    -1600.00
02810               4.00    -1400.00
02811               8.00    -1400.00
02812               4.00    -1200.00
02813               0.00    -1400.00
02814              -4.00    -1400.00
02815              -2.00    -1000.00
02816               4.00    -1000.00
02817               8.00    -1000.00
02818               6.00     -800.00
02819              -2.00     -800.00
02820              -6.00     -800.00
02821               0.00     -800.00
02822               0.00     -800.00
02823              -2.00     -600.00
02824              -2.00     -600.00
02825              -2.00     -600.00
02826              -2.00     -600.00
02827              -2.00     -400.00
02828               0.00     -200.00
02829              -2.00     -400.00
02830              -8.00        0.00
02831              -8.00        0.00
02832              -6.00     -200.00
02833               2.00        0.00
02834              -2.00      200.00
02835              -2.00      200.00
02836               0.00      200.00
02837              -2.00      400.00
02838               0.00      200.00
02839               2.00      400.00
02840               4.00      400.00
02841              -2.00      400.00
02842             -10.00      400.00
02843              -6.00      600.00
02844               8.00      800.00
02845              90.00      800.00
02846             176.00     1000.00
02847            -134.00     1000.00
02848            -254.00      800.00
02849              10.00     1000.00
02850             246.00     1400.00
02851             246.00     1200.00
02852            -254.00      800.00
02853            -226.00     1400.00
02854             246.00     1600.00
02855              94.00     1400.00
02856            -254.00     1200.00
02857             122.00     1800.00
02858             246.00     1800.00
02859            -252.00     1400.00
02860            -228.00     2000.00
02861             216.00     2000.00
02862             -46.00     1800.00
02863             -72.00     1800.00
02864             158.00     2000.00
02865             -90.00     2000.00
02866            -110.00     2200.00
02867              96.00     2200.00
02868               0.00     2400.00
02869             -22.00     2400.00
02870              14.00     2400.00
02871            -118.00     2400.00
02872              74.00     2600.00
02873             114.00     2600.00
02874            -192.00     2600.00
02875             -16.00     2800.00
02876             146.00     2800.00
02877             -94.00     2800.00
02878             -14.00     2800.00
02879              48.00     3000.00
02880             -96.00     2800.00
02881              46.00     3200.00
02882              40.00     3200.00
02883            -102.00     3200.00
02884              34.00     3000.00
02885               2.00     3200.00
02886             -58.00     3200.00
02887              64.00     3400.00
02888             -26.00     3200.00
02889             -72.00     3400.00
02890              46.00     3600.00
02891             -18.00     3600.00
02892             -42.00     3400.00
02893              30.00     3600.00
02894             -18.00     3400.00
02895             -30.00     3600.00
02896             -14.00     3600.00
02897             -16.00     3600.00
02898              16.00     3600.00
02899              -2.00     3600.00
02900             -40.00     3600.00
02901              -6.00     3800.00
02902             -10.00     3800.00
02903             -26.00     3800.00
02904               6.00     3800.00
02905               2.00     4000.00
02906             -30.00     4000.00
02907             -14.00     4000.00
02908               0.00     4000.00
02909             -24.00     4000.00
02910             -18.00     4000.00
02911               0.00     4000.00
02912              -2.00     4000.00
02913             -12.00     4000.00
02914             -26.00     4200.00
02915             -16.00     4200.00
02916               0.00     4200.00
02917             -18.00     4200.00
02918             -14.00     4200.00
02919               2.00     4200.00
02920             -16.00     4400.00
02921             -22.00     4200.00
02922              -8.00     4400.00
02923             -16.00     4200.00
02924             -12.00     4400.00
02925              -8.00     4400.00
02926             -10.00     4400.00
02927             -10.00     4200.00
02928             -16.00     4400.00
02929             -16.00     4400.00
02930              -8.00     4200.00
02931             -10.00     4400.00
02932             -16.00     4200.00
02933              -6.00     4200.00
02934             -10.00     4400.00
02935             -18.00     4400.00
02936             -14.00     4200.00
02937             -10.00     4400.00
02938             -12.00     4200.00
02939             -10.00     4200.00
02940             -10.00     4400.00
02941             -14.00     4400.00
02942             -14.00     4400.00
02943             -14.00     4400.00
02944             -10.00     4200.00
02945             -10.00     4200.00
02946             -14.00     4200.00
02947             -10.00     4200.00
02948             -10.00     4200.00
02949             -16.00     4200.00
02950             -14.00     4200.00
02951              -8.00     4200.00
02952             -14.00     4000.00
02953             -14.00     4200.00
02954             -10.00     4200.00
02955             -16.00     4000.00
02956             -14.00     4000.00
02957             -14.00     4000.00
02958             -10.00     4000.00
02959             -10.00     3800.00
02960             -14.00     3800.00
02961             -14.00     4000.00
02962             -10.00     3600.00
02963             -16.00     4000.00
02964             -14.00     3800.00
02965              -6.00     3600.00
02966             -10.00     3800.00
02967             -16.00     3600.00
02968             -12.00     3600.00
02969             -10.00     3600.00
02970             -12.00     3400.00
02971             -10.00     3400.00
02972             -10.00     3400.00
02973             -10.00     3400.00
02974             -16.00     3400.00
02975             -14.00     3200.00
02976             -10.00     3200.00
02977             -10.00     3200.00
02978              -8.00     3200.00
02979              -8.00     3200.00
02980              -8.00     3200.00
02981             -10.00     3200.00
02982             -10.00     3000.00
02983              -8.00     3200.00
02984             -10.00     2800.00
02985              -8.00     2800.00
02986              -8.00     2800.00
02987             -10.00     2800.00
02988             -14.00     2600.00
02989              -8.00     2600.00
02990              -4.00     2600.00
02991              -6.00     2600.00
02992             -10.00     2400.00
02993              -8.00     2400.00
02994              -8.00     2400.00
02995             -10.00     2400.00
02996              -8.00     2400.00
02997              -6.00     2200.00
02998              -6.00     2000.00
02999              -6.00     2000.00
03000              -6.00     2000.00
03001              -6.00     2000.00
03002              -8.00     1800.00
03003              -8.00     1800.00
03004              -4.00     1800.00
03005              -2.00     1600.00
03006              -6.00     1600.00
03007              -6.00     1600.00
03008              -6.00     1600.00
03009              -6.00     1600.00
03010              -8.00     1200.00
03011              -2.00     1200.00
03012              -2.00     1200.00
03013              -2.00     1200.00
03014              -6.00     1200.00
03015              -4.00     1000.00
03016              -8.00     1000.00
03017              -6.00      800.00
03018              -2.00     1000.00
03019               0.00      800.00
03020              -2.00      600.00
03021              -8.00      800.00
03022             -10.00      600.00
03023              -6.00      400.00
03024              -2.00      400.00
03025              -4.00      400.00
03026              -4.00      400.00
03027              -2.00      200.00
03028               0.00      200.00
03029              -2.00        0.00
03030               0.00        0.00
03031               6.00        0.00
03032               0.00        0.00
03033              -8.00        0.00
03034              -2.00     -200.00
03035               0.00     -400.00
03036              18.00     -400.00
03037              86.00     -400.00
03038             144.00     -400.00
03039            -110.00     -800.00
03040            -254.00     -800.00
03041             -56.00     -400.00
03042             246.00     -600.00
03043             246.00     -800.00
03044            -254.00    -1000.00
03045            -254.00     -800.00
03046             246.00    -1200.00
03047             230.00     -800.00
03048            -254.00    -1200.00
03049             -80.00    -1200.00
03050             246.00    -1400.00
03051             -22.00    -1200.00
03052            -128.00    -1400.00
03053               0.00    -1600.00
03054            -102.00    -1400.00
03055              50.00    -1600.00
03056             246.00    -1600.00
03057            -114.00    -1600.00
03058            -218.00    -1800.00
03059             106.00    -2000.00
03060             148.00    -1600.00
03061             -48.00    -2000.00
03062             -80.00    -2200.00
03063             -20.00    -2000.00
03064              66.00    -2200.00
03065              80.00    -2400.00
03066             -86.00    -2200.00
03067             -50.00    -2200.00
03068              66.00    -2400.00
03069              48.00    -2400.00
03070             -26.00    -2400.00
03071             -34.00    -2400.00
03072               0.00    -2600.00
03073              48.00    -2800.00
03074              16.00    -2800.00
03075             -40.00    -2600.00
03076              -2.00    -2800.00
03077              26.00    -2800.00
03078              20.00    -3000.00
03079              -2.00    -2800.00
03080             -14.00    -3000.00
03081              -2.00    -3000.00
03082              24.00    -2800.00
03083               8.00    -3200.00
03084             -24.00    -3200.00
03085              -6.00    -3200.00
03086              30.00    -3200.00
03087              14.00    -3200.00
03088             -24.00    -3200.00
03089              -6.00    -3400.00
03090              24.00    -3600.00
03091              16.00    -3600.00
03092              -6.00    -3400.00
03093              -8.00    -3400.00
03094               2.00    -3600.00
03095              16.00    -3600.00
03096              14.00    -3600.00
03097               2.00    -3800.00
03098              -8.00    -3600.00
03099              -2.00    -3600.00
03100              10.00    -3600.00
03101              18.00    -3800.00
03102               6.00    -3600.00
03103              -2.00    -3800.00
03104               0.00    -3800.00
03105               0.00    -3800.00
03106               8.00    -3800.00
03107              12.00    -3800.00
03108               8.00    -3800.00
03109               2.00    -3800.00
03110               6.00    -3800.00
03111               6.00    -4000.00
03112               8.00    -3800.00
03113               8.00    -3800.00
03114               8.00    -3800.00
03115               8.00    -4000.00
03116               0.00    -3800.00
03117               4.00    -4000.00
03118              14.00    -4000.00
03119               8.00    -4000.00
03120              -2.00    -4000.00
03121               0.00    -3800.00
03122               8.00    -4000.00
03123               8.00    -4000.00
03124               8.00    -4000.00
03125              12.00    -4000.00
03126               6.00    -3800.00
03127               0.00    -4000.00
03128              -2.00    -3800.00
03129              10.00    -4000.00
03130              18.00    -3800.00
03131              14.00    -3800.00
03132               6.00    -3800.00
03133              -2.00    -4000.00
03134               0.00    -3800.00
03135               8.00    -3800.00
03136              16.00    -3800.00
03137              14.00    -3800.00
03138               6.00    -3800.00
03139               0.00    -3800.00
03140               0.00    -3800.00
03141               6.00    -3800.00
03142              10.00    -3800.00
03143              12.00    -3600.00
03144              10.00    -3600.00
03145               6.00    -3800.00
03146               2.00    -3600.00
03147               6.00    -3600.00
03148               2.00    -3600.00
03149               6.00    -3600.00
03150               8.00    -3600.00
03151              10.00    -3600.00
03152               4.00    -3600.00
03153               0.00    -3600.00
03154               0.00    -3600.00
03155               2.00    -3400.00
03156               8.00    -3200.00
03157              14.00    -3400.00
03158               6.00    -3200.00
03159               0.00    -3200.00
03160               0.00    -3000.00
03161               4.00    -3200.00
03162               8.00    -3200.00
03163               0.00    -3000.00
03164               6.00    -3000.00
03165               8.00    -3000.00
03166               8.00    -3000.00
03167               2.00    -3000.00
03168              -2.00    -3000.00
03169              -2.00    -3000.00
03170               6.00    -2800.00
03171              10.00    -2800.00
03172               6.00    -2600.00
03173              -2.00    -2800.00
03174              -6.00    -2800.00
03175               0.00    -2600.00
03176               8.00    -2400.00
03177              10.00    -2400.00
03178               8.00    -2400.00
03179               6.00    -2400.00
03180              -2.00    -2400.00
03181              -2.00    -2200.00
03182              -6.00    -2200.00
03183               0.00    -2200.00
03184               4.00    -2000.00
03185              10.00    -2000.00
03186               8.00    -2000.00
03187               0.00    -2000.00
03188              -4.00    -2000.00
03189              -2.00    -1600.00
03190               6.00    -1800.00
03191               8.00    -1600.00
03192               6.00    -1400.00
03193               0.00    -1600.00
03194              -2.00    -1400.00
03195              -2.00    -1400.00
03196               2.00    -1400.00
03197               6.00    -1400.00
03198               0.00    -1000.00
03199              -2.00    -1200.00
03200               0.00    -1000.00
03201               2.00    -1200.00
03202               6.00     -800.00
03203               0.00     -800.00
03204              -6.00     -800.00
03205              -6.00     -600.00
03206              -2.00     -800.00
03207               0.00     -600.00
03208               4.00     -600.00
03209               0.00     -400.00
03210               0.00     -600.00
03211               0.00     -400.00
03212               0.00     -400.00
03213              -2.00     -400.00
03214              -6.00     -200.00
03215              -2.00        0.00
03216               0.00        0.00
03217              -6.00        0.00
03218              -8.00      200.00
03219               0.00      200.00
03220               6.00      200.00
03221               6.00      400.00
03222               6.00      400.00
03223               2.00      400.00
03224             -10.00      400.00
03225             -10.00      600.00
03226              -6.00      600.00
03227               8.00      600.00
03228              80.00      800.00
03229             176.00     1200.00
03230            -102.00     1000.00
03231            -254.00      800.00
03232             -46.00     1000.00
03233             246.00     1200.00
03234             246.00     1400.00
03235            -254.00      800.00
03236            -254.00     1400.00
03237             246.00     1600.00
03238             176.00     1200.00
03239            -254.00     1200.00
03240              56.00     1800.00
03241             246.00     1600.00
03242            -210.00     1400.00
03243            -254.00     2000.00
03244             208.00     2000.00
03245             -30.00     1800.00
03246             -88.00     1800.00
03247             158.00     2000.00
03248             -70.00     2000.00
03249            -126.00     2000.00
03250              86.00     2400.00
03251              10.00     2200.00
03252             -24.00     2400.00
03253              24.00     2600.00
03254            -116.00     2400.00
03255              54.00     2600.00
03256             128.00     2600.00
03257            -182.00     2600.00
03258             -38.00     2800.00
03259             152.00     2800.00
03260             -86.00     2600.00
03261             -26.00     2800.00
03262              58.00     3000.00
03263             -90.00     2800.00
03264              24.00     2800.00
03265              50.00     3200.00
03266            -102.00     3000.00
03267              34.00     3200.00
03268              14.00     3200.00
03269             -70.00     3200.00
03270              56.00     3400.00
03271             -10.00     3200.00
03272             -74.00     3400.00
03273              48.00     3400.00
03274             -10.00     3400.00
03275             -48.00     3600.00
03276              26.00     3600.00
03277             -10.00     3400.00
03278             -24.00     3600.00
03279             -10.00     3800.00
03280             -18.00     3600.00
03281              16.00     3600.00
03282              -2.00     3800.00
03283             -40.00     3600.00
03284             -10.00     3800.00
03285             -10.00     4000.00
03286             -26.00     3800.00
03287               6.00     3800.00
03288               0.00     4000.00
03289             -32.00     4000.00
03290             -18.00     4000.00
03291               2.00     4000.00
03292             -14.00     4000.00
03293             -16.00     4000.00
03294              -8.00     4000.00
03295             -12.00     4200.00
03296             -14.00     4200.00
03297             -18.00     4200.00
03298             -14.00     4400.00
03299               0.00     4200.00
03300             -16.00     4200.00
03301             -22.00     4200.00
03302               6.00     4200.00
03303             -14.00     4200.00
03304             -22.00     4200.00
03305             -10.00     4400.00
03306             -18.00     4400.00
03307             -18.00     4200.00
03308              -2.00     4400.00
03309              -2.00     4400.00
03310              -8.00     4200.00
03311             -20.00     4400.00
03312             -20.00     4400.00
03313             -10.00     4200.00
03314             -10.00     4200.00
03315             -16.00     4400.00
03316              -2.00     4200.00
03317              -2.00     4400.00
03318             -18.00     4400.00
03319             -22.00     4400.00
03320             -10.00     4400.00
03321             -12.00     4400.00
03322              -6.00     4200.00
03323              -2.00     4400.00
03324             -12.00     4200.00
03325             -18.00     4200.00
03326             -22.00     4200.00
03327             -12.00     4400.00
03328              -2.00     4200.00
03329              -6.00     4200.00
03330             -10.00     4200.00
03331             -14.00     4200.00
03332             -22.00     4200.00
03333             -14.00     4000.00
03334              -2.00     4200.00
03335              -8.00     4000.00
03336              -8.00     4000.00
03337             -10.00     4200.00
03338             -18.00     4000.00
03339             -18.00     4000.00
03340              -8.00     4000.00
03341               2.00     4000.00
03342              -6.00     4000.00
03343             -16.00     3600.00
03344             -22.00     4000.00
03345             -10.00     3600.00
03346             -10.00     3800.00
03347             -10.00     3600.00
03348             -10.00     3600.00
03349             -14.00     3600.00
03350             -16.00     3600.00
03351              -8.00     3600.00
03352              -8.00     3400.00
03353             -10.00     3400.00
03354             -14.00     3600.00
03355             -14.00     3400.00
03356             -14.00     3400.00
03357             -12.00     3400.00
03358             -10.00     3400.00
03359              -6.00     3200.00
03360             -10.00     3200.00
03361             -14.00     3200.00
03362             -10.00     3200.00
03363             -10.00     3000.00
03364             -10.00     3200.00
03365             -10.00     2800.00
03366             -10.00     3000.00
03367             -12.00     2800.00
03368              -8.00     2800.00
03369              -6.00     2800.00
03370             -10.00     2800.00
03371             -14.00     2800.00
03372             -10.00     2600.00
03373               0.00     2600.00
03374              -2.00     2400.00
03375             -14.00     2600.00
03376             -10.00     2400.00
03377             -10.00     2200.00
03378             -10.00     2200.00
03379             -10.00     2200.00
03380              -6.00     2000.00
03381              -4.00     2000.00
03382              -6.00     2000.00
03383              -6.00     2000.00
03384              -8.00     1800.00
03385             -10.00     1800.00
03386             -10.00     2000.00
03387              -2.00     1800.00
03388              -2.00     1800.00
03389              -8.00     1600.00
03390             -10.00     1600.00
03391              -8.00     1400.00
03392              -6.00     1400.00
03393              -6.00     1200.00
03394              -6.00     1200.00
03395              -2.00     1200.00
03396              -6.00     1200.00
03397              -8.00     1000.00
03398              -8.00     1000.00
03399              -4.00      800.00
03400              -6.00     1000.00
03401              -2.00     1000.00
03402              -2.00      800.00
03403              -8.00      800.00
03404              -8.00      800.00
03405              -2.00      600.00
03406              -2.00      400.00
03407              -2.00      400.00
03408              -6.00      400.00
03409              -6.00      200.00
03410               0.00      200.00
03411               0.00        0.00
03412              -2.00      200.00
03413               0.00        0.00
03414               4.00        0.00
03415              -2.00        0.00
03416              -6.00        0.00
03417              -6.00     -400.00
03418               0.00     -200.00
03419              14.00     -400.00
03420              80.00     -400.00
03421             150.00     -600.00
03422             -86.00     -800.00
03423            -254.00     -800.00
03424            -110.00     -400.00
03425             246.00     -800.00
03426             246.00     -800.00
03427            -254.00    -1000.00
03428            -254.00     -800.00
03429             246.00    -1200.00
03430             246.00    -1000.00
03431            -254.00    -1000.00
03432            -126.00    -1000.00
03433             246.00    -1400.00
03434               0.00    -1400.00
03435            -150.00    -1400.00
03436              -8.00    -1800.00
03437             -98.00    -1600.00
03438              40.00    -1600.00
03439             246.00    -1600.00
03440             -76.00    -1600.00
03441            -222.00    -2000.00
03442              80.00    -2000.00
03443             152.00    -2000.00
03444             -50.00    -2000.00
03445             -86.00    -2400.00
03446             -24.00    -2000.00
03447              66.00    -2200.00
03448              90.00    -2400.00
03449             -74.00    -2400.00
03450             -54.00    -2200.00
03451              58.00    -2400.00
03452              50.00    -2400.00
03453             -28.00    -2400.00
03454             -32.00    -2600.00
03455              -8.00    -2800.00
03456              48.00    -2600.00
03457              22.00    -2800.00
03458             -40.00    -2800.00
03459             -10.00    -2800.00
03460              24.00    -3000.00
03461              20.00    -2800.00
03462               2.00    -3000.00
03463             -10.00    -2800.00
03464              -2.00    -3000.00
03465              24.00    -3000.00
03466               6.00    -3200.00
03467             -14.00    -3000.00
03468              -6.00    -3200.00
03469              22.00    -3200.00
03470              16.00    -3200.00
03471             -14.00    -3200.00
03472               6.00    -3200.00
03473              24.00    -3600.00
03474               8.00    -3400.00
03475              -8.00    -3400.00
03476              -6.00    -3600.00
03477              -6.00    -3600.00
03478               8.00    -3600.00
03479              22.00    -3600.00
03480              10.00    -3600.00
03481               2.00    -3800.00
03482               0.00    -3600.00
03483               2.00    -3600.00
03484               2.00    -3800.00
03485              -6.00    -3600.00
03486               6.00    -3800.00
03487              22.00    -3600.00
03488               8.00    -3800.00
03489              -6.00    -3800.00
03490               4.00    -3800.00
03491               2.00    -3800.00
03492               0.00    -3800.00
03493               6.00    -3800.00
03494              12.00    -3800.00
03495              12.00    -4000.00
03496               8.00    -3800.00
03497               0.00    -4000.00
03498               0.00    -4000.00
03499               6.00    -4000.00
03500               6.00    -4000.00
03501              14.00    -4000.00
03502              10.00    -3800.00
03503               0.00    -4000.00
03504               2.00    -4000.00
03505              12.00    -3800.00
03506               8.00    -4000.00
03507               8.00    -3800.00
03508               8.00    -4000.00
03509               6.00    -4000.00
03510               0.00    -4000.00
03511               0.00    -4000.00
03512              10.00    -3800.00
03513              14.00    -4000.00
03514              14.00    -4000.00
03515               8.00    -3800.00
03516               4.00    -3800.00
03517              -2.00    -3800.00
03518               2.00    -3600.00
03519              12.00    -3800.00
03520              14.00    -4000.00
03521               8.00    -3800.00
03522               8.00    -3800.00
03523               2.00    -3800.00
03524               6.00    -3800.00
03525               6.00    -3800.00
03526               6.00    -3600.00
03527               8.00    -3600.00
03528               8.00    -3600.00
03529               8.00    -3600.00
03530               8.00    -3800.00
03531               0.00    -3600.00
03532               0.00    -3600.00
03533               8.00    -3600.00
03534               8.00    -3600.00
03535               0.00    -3600.00
03536               8.00    -3600.00
03537              14.00    -3400.00
03538              12.00    -3400.00
03539               0.00    -3400.00
03540              -2.00    -3200.00
03541               0.00    -3400.00
03542               8.00    -3200.00
03543               6.00    -3200.00
03544               2.00    -3200.00
03545               2.00    -3200.00
03546               6.00    -3000.00
03547              10.00    -3000.00
03548               6.00    -3000.00
03549              -2.00    -3000.00
03550              -6.00    -3000.00
03551               0.00    -3000.00
03552              10.00    -2800.00
03553              10.00    -2800.00
03554               6.00    -2800.00
03555              -2.00    -2800.00
03556              -6.00    -2800.00
03557              -2.00    -2800.00
03558               6.00    -2600.00
03559               8.00    -2400.00
03560              10.00    -2400.00
03561               6.00    -2400.00
03562              -2.00    -2400.00
03563              -6.00    -2400.00
03564              -6.00    -2200.00
03565               0.00    -2200.00
03566               8.00    -2200.00
03567               6.00    -2200.00
03568               0.00    -2000.00
03569               0.00    -2000.00
03570              -2.00    -2000.00
03571               0.00    -1800.00
03572               2.00    -1600.00
03573               6.00    -1600.00
03574               2.00    -1800.00
03575               0.00    -1600.00
03576              -6.00    -1600.00
03577              -2.00    -1600.00
03578               2.00    -1400.00
03579               6.00    -1000.00
03580               2.00    -1200.00
03581               0.00    -1000.00
03582              -6.00    -1200.00
03583               0.00    -1000.00
03584               2.00     -800.00
03585               2.00    -1000.00
03586               0.00     -800.00
03587              -2.00     -800.00
03588              -2.00     -600.00
03589               0.00     -600.00
03590               2.00     -600.00
03591               2.00     -600.00
03592              -2.00     -400.00
03593              -2.00     -400.00
03594               0.00     -400.00
03595              -2.00     -400.00
03596              -6.00     -200.00
03597              -2.00        0.00
03598               0.00        0.00
03599               0.00        0.00
03600              -2.00        0.00
03601              -2.00      200.00
03602               0.00      200.00
03603               2.00      400.00
03604               0.00      400.00
03605               6.00      400.00
03606               2.00      400.00
03607              -2.00      400.00
03608              -2.00      600.00
03609              -2.00      600.00
03610              -6.00      800.00
03611              64.00      800.00
03612             190.00     1000.00
03613             -62.00     1000.00
03614            -254.00      800.00
03615            -106.00     1000.00
03616             246.00     1400.00
03617             246.00     1200.00
03618            -254.00      800.00
03619            -254.00     1200.00
03620             246.00     1600.00
03621             246.00     1400.00
03622            -254.00     1200.00
03623              -8.00     1600.00
03624             246.00     1800.00
03625            -184.00     1400.00
03626            -254.00     1800.00
03627             214.00     2000.00
03628               0.00     1600.00
03629            -104.00     1800.00
03630             130.00     2000.00
03631             -54.00     2000.00
03632            -128.00     2000.00
03633              92.00     2400.00
03634              18.00     2000.00
03635             -38.00     2200.00
03636              32.00     2600.00
03637            -110.00     2200.00
03638              30.00     2600.00
03639             126.00     2600.00
03640            -166.00     2600.00
03641             -46.00     2800.00
03642             162.00     2800.00
03643             -78.00     2600.00
03644             -50.00     2800.00
03645              58.00     3000.00
03646             -84.00     2800.00
03647              22.00     3000.00
03648              62.00     3000.00
03649            -104.00     3000.00
03650              18.00     3200.00
03651              24.00     3200.00
03652             -64.00     3200.00
03653              50.00     3400.00
03654              -6.00     3200.00
03655             -78.00     3400.00
03656              42.00     3400.00
03657              -2.00     3400.00
03658             -50.00     3200.00
03659              26.00     3600.00
03660              -8.00     3600.00
03661             -28.00     3400.00
03662             -10.00     3800.00
03663             -16.00     3600.00
03664              14.00     3600.00
03665              -2.00     3600.00
03666             -40.00     3800.00
03667              -2.00     3800.00
03668               0.00     4000.00
03669             -26.00     3800.00
03670               0.00     3800.00
03671               8.00     4000.00
03672             -26.00     3800.00
03673             -18.00     4000.00
03674               0.00     4000.00
03675             -18.00     4000.00
03676             -20.00     4200.00
03677              -8.00     4200.00
03678              -6.00     4000.00
03679              -8.00     4000.00
03680             -22.00     4200.00
03681             -16.00     4000.00
03682              -2.00     4200.00
03683             -24.00     4200.00
03684             -22.00     4200.00
03685              10.00     4200.00
03686              -6.00     4200.00
03687             -26.00     4200.00
03688             -16.00     4400.00
03689             -14.00     4200.00
03690             -12.00     4200.00
03691             -10.00     4200.00
03692               0.00     4200.00
03693              -6.00     4200.00
03694             -22.00     4200.00
03695             -26.00     4200.00
03696             -22.00     4200.00
03697             -12.00     4200.00
03698               0.00     4200.00
03699               6.00     4400.00
03700             -10.00     4200.00
03701             -40.00     4400.00
03702             -28.00     4200.00
03703               8.00     4200.00
03704              14.00     4400.00
03705             -16.00     4400.00
03706             -32.00     4200.00
03707             -14.00     4200.00
03708              -8.00     4400.00
03709             -12.00     4200.00
03710             -10.00     4200.00
03711              -6.00     4200.00
03712             -10.00     4200.00
03713             -14.00     4200.00
03714             -12.00     4200.00
03715             -12.00     4200.00
03716             -14.00     4200.00
03717             -10.00     4200.00
03718             -10.00     4000.00
03719             -10.00     4000.00
03720             -12.00     4200.00
03721             -10.00     4000.00
03722             -10.00     4000.00
03723             -10.00     4000.00
03724             -10.00     4000.00
03725             -16.00     4000.00
03726             -10.00     3800.00
03727             -10.00     4000.00
03728             -14.00     4000.00
03729             -14.00     4000.00
03730             -10.00     3800.00
03731              -6.00     3600.00
03732             -10.00     3600.00
03733             -20.00     3600.00
03734             -14.00     3600.00
03735              -6.00     3600.00
03736               0.00     3600.00
03737             -10.00     3400.00
03738             -18.00     3400.00
03739             -22.00     3400.00
03740             -10.00     3400.00
03741              -8.00     3200.00
03742              -4.00     3400.00
03743              -8.00     3200.00
03744             -14.00     3200.00
03745             -10.00     3200.00
03746             -14.00     3200.00
03747             -14.00     3000.00
03748              -8.00     3000.00
03749              -6.00     2800.00
03750             -10.00     2800.00
03751             -14.00     2800.00
03752             -10.00     2800.00
03753             -14.00     2800.00
03754             -10.00     2800.00
03755              -8.00     2600.00
03756              -2.00     2600.00
03757              -8.00     2600.00
03758             -10.00     2400.00
03759             -12.00     2400.00
03760             -10.00     2400.00
03761             -14.00     2200.00
03762              -8.00     2400.00
03763              -8.00     2000.00
03764              -6.00     2000.00
03765             -10.00     2000.00
03766              -8.00     2000.00
03767              -8.00     1800.00
03768             -10.00     1800.00
03769             -12.00     1800.00
03770              -6.00     1600.00
03771              -2.00     1600.00
03772              -8.00     1600.00
03773             -10.00     1600.00
03774              -8.00     1400.00
03775              -8.00     1400.00
03776              -8.00     1200.00
03777              -2.00     1200.00
03778              -2.00     1200.00
03779              -4.00     1000.00
03780              -8.00     1200.00
03781             -10.00     1000.00
03782              -2.00     1000.00
03783              -8.00      800.00
03784              -4.00      800.00
03785               0.00      800.00
03786              -2.00      800.00
03787              -6.00      600.00
03788              -6.00      400.00
03789              -6.00      400.00
03790              -2.00      400.00
03791              -2.00      400.00
03792              -2.00      400.00
03793               0.00      200.00
03794               2.00        0.00
03795               0.00      200.00
03796               0.00        0.00
03797               8.00        0.00
03798               2.00        0.00
03799              -6.00        0.00
03800              -6.00        0.00
03801               0.00     -400.00
03802              16.00     -400.00
03803              74.00     -400.00
03804             150.00     -600.00
03805             -64.00     -800.00
03806            -254.00     -800.00
03807            -154.00     -600.00
03808             246.00     -600.00
03809             246.00     -800.00
03810            -254.00    -1000.00
03811            -254.00     -800.00
03812             246.00    -1200.00
03813             246.00    -1000.00
03814            -254.00    -1200.00
03815            -176.00    -1200.00
03816             246.00    -1400.00
03817              34.00    -1200.00
03818            -142.00    -1600.00
03819               0.00    -1600.00
03820             -94.00    -1400.00
03821               8.00    -1600.00
03822             246.00    -1600.00
03823             -64.00    -1800.00
03824            -234.00    -1800.00
03825              64.00    -2000.00
03826             170.00    -2000.00
03827             -32.00    -2000.00
03828             -84.00    -2200.00
03829             -32.00    -2000.00
03830              56.00    -2000.00
03831              88.00    -2400.00
03832             -70.00    -2200.00
03833             -66.00    -2200.00
03834              54.00    -2400.00
03835              62.00    -2400.00
03836             -22.00    -2400.00
03837             -32.00    -2600.00
03838             -10.00    -2600.00
03839              42.00    -2800.00
03840              22.00    -2800.00
03841             -38.00    -2800.00
03842             -14.00    -2800.00
03843              24.00    -2800.00
03844              24.00    -2800.00
03845               0.00    -3000.00
03846             -12.00    -3000.00
03847              -8.00    -3000.00
03848              22.00    -3000.00
03849              14.00    -3200.00
03850             -10.00    -3200.00
03851              -4.00    -3200.00
03852              22.00    -3200.00
03853              12.00    -3200.00
03854             -18.00    -3200.00
03855               0.00    -3400.00
03856              22.00    -3400.00
03857              10.00    -3400.00
03858               0.00    -3600.00
03859               2.00    -3600.00
03860              -4.00    -3600.00
03861               8.00    -3400.00
03862              16.00    -3600.00
03863              10.00    -3600.00
03864               0.00    -3600.00
03865               0.00    -3600.00
03866               8.00    -3800.00
03867              10.00    -3800.00
03868               0.00    -3800.00
03869               0.00    -3800.00
03870              16.00    -3800.00
03871               6.00    -3800.00
03872              -2.00    -3800.00
03873               6.00    -4000.00
03874               2.00    -3800.00
03875               6.00    -3800.00
03876               8.00    -3800.00
03877               6.00    -3800.00
03878               8.00    -3800.00
03879               6.00    -3800.00
03880               0.00    -4000.00
03881               6.00    -4000.00
03882               4.00    -4000.00
03883               6.00    -4000.00
03884              14.00    -4000.00
03885               6.00    -4000.00
03886              -4.00    -4000.00
03887               2.00    -4000.00
03888               8.00    -4000.00
03889               8.00    -4000.00
03890               6.00    -4000.00
03891               6.00    -4000.00
03892               8.00    -4000.00
03893               6.00    -4000.00
03894               0.00    -4000.00
03895               8.00    -3800.00
03896              10.00    -4000.00
03897               8.00    -3800.00
03898               6.00    -4000.00
03899               2.00    -4000.00
03900               0.00    -3800.00
03901               8.00    -3800.00
03902               4.00    -4000.00
03903               8.00    -4000.00
03904              12.00    -3800.00
03905               6.00    -3800.00
03906               6.00    -3800.00
03907               0.00    -3800.00
03908               8.00    -3800.00
03909              12.00    -3800.00
03910               8.00    -3800.00
03911               4.00    -3800.00
03912               6.00    -3600.00
03913               4.00    -3600.00
03914               4.00    -3600.00
03915               6.00    -3600.00
03916               6.00    -3600.00
03917              10.00    -3400.00
03918               6.00    -3600.00
03919               2.00    -3600.00
03920               2.00    -3400.00
03921               6.00    -3400.00
03922               6.00    -3200.00
03923              10.00    -3400.00
03924               6.00    -3200.00
03925               2.00    -3200.00
03926               6.00    -3200.00
03927               2.00    -3200.00
03928               6.00    -3200.00
03929               8.00    -3000.00
03930               6.00    -3000.00
03931               6.00    -3000.00
03932               0.00    -3200.00
03933               0.00    -3000.00
03934               6.00    -3000.00
03935               4.00    -2800.00
03936               0.00    -2800.00
03937               2.00    -2800.00
03938               2.00    -2800.00
03939               2.00    -2800.00
03940               2.00    -2600.00
03941               2.00    -2600.00
03942               2.00    -2400.00
03943               2.00    -2400.00
03944               0.00    -2400.00
03945               6.00    -2200.00
03946               0.00    -2200.00
03947              -2.00    -2400.00
03948               0.00    -2200.00
03949               2.00    -2000.00
03950               6.00    -2000.00
03951               4.00    -2000.00
03952               0.00    -2000.00
03953              -2.00    -2000.00
03954              -2.00    -2000.00
03955               0.00    -1800.00
03956               6.00    -1600.00
03957               0.00    -1600.00
03958              -2.00    -1600.00
03959               0.00    -1600.00
03960               0.00    -1400.00
03961               0.00    -1400.00
03962               2.00    -1400.00
03963               0.00    -1200.00
03964               0.00    -1000.00
03965               0.00    -1000.00
03966              -2.00    -1000.00
03967              -2.00    -1000.00
03968              -2.00     -800.00
03969              -2.00     -800.00
03970               2.00     -800.00
03971               0.00     -600.00
03972              -2.00     -800.00
03973              -8.00     -600.00
03974              -2.00     -400.00
03975               0.00     -400.00
03976               2.00     -400.00
03977               0.00     -400.00
03978              -2.00     -400.00
03979              -6.00     -200.00
03980              -2.00        0.00
03981              -2.00        0.00
03982               0.00        0.00
03983              -2.00      200.00
03984              -6.00        0.00
03985              -2.00      200.00
03986               2.00      200.00
03987               2.00      400.00
03988               4.00      400.00
03989               6.00      400.00
03990              -6.00      400.00
03991             -10.00      800.00
03992              -6.00      600.00
03993               8.00      800.00
03994              70.00      800.00
03995             182.00     1000.00
03996             -50.00     1000.00
03997            -254.00      800.00
03998            -154.00     1000.00
03999             246.00     1200.00
04000             246.00     1200.00
04001            -254.00      800.00
04002            -254.00     1200.00
04003             246.00     1600.00
04004             246.00     1400.00
04005            -254.00     1200.00
04006             -74.00     1600.00
04007             246.00     1800.00
04008            -128.00     1200.00
04009            -254.00     1800.00
04010             178.00     2000.00
04011               6.00     1800.00
04012            -112.00     1800.00
04013             146.00     2000.00
04014             -14.00     2000.00
04015            -154.00     2000.00
04016              62.00     2400.00
04017              30.00     2400.00
04018             -30.00     2400.00
04019              34.00     2400.00
04020            -110.00     2400.00
04021              12.00     2400.00
04022             146.00     2600.00
04023            -150.00     2600.00
04024             -78.00     2600.00
04025             160.00     2800.00
04026             -58.00     2600.00
04027             -62.00     2800.00
04028              66.00     3000.00
04029             -80.00     2800.00
04030               4.00     2800.00
04031              70.00     3200.00
04032             -98.00     3000.00
04033              12.00     3200.00
04034              32.00     3200.00
04035             -74.00     3200.00
04036              42.00     3200.00
04037              12.00     3400.00
04038             -82.00     3200.00
04039              34.00     3600.00
04040               6.00     3400.00
04041             -52.00     3600.00
04042              22.00     3600.00
04043              -2.00     3400.00
04044             -30.00     3600.00
04045             -10.00     3600.00
04046             -22.00     3600.00
04047              10.00     3600.00
04048               4.00     3800.00
04049             -34.00     3800.00
04050              -2.00     3800.00
04051               0.00     4000.00
04052             -30.00     3600.00
04053              -6.00     4000.00
04054               8.00     3800.00
04055             -20.00     4000.00
04056             -18.00     4000.00
04057               2.00     4000.00
04058             -16.00     4000.00
04059             -22.00     4000.00
04060              -6.00     4200.00
04061              -6.00     4000.00
04062              -8.00     4000.00
04063             -22.00     4000.00
04064             -16.00     4000.00
04065              -2.00     4200.00
04066             -16.00     4200.00
04067             -22.00     4200.00
04068               2.00     4200.00
04069             -10.00     4200.00
04070             -24.00     4200.00
04071             -10.00     4200.00
04072             -10.00     4200.00
04073             -16.00     4200.00
04074             -10.00     4400.00
04075              -8.00     4200.00
04076             -10.00     4200.00
04077             -16.00     4400.00
04078             -18.00     4400.00
04079             -10.00     4400.00
04080             -10.00     4200.00
04081             -16.00     4400.00
04082             -10.00     4200.00
04083             -10.00     4400.00
04084             -20.00     4400.00
04085             -16.00     4400.00
04086             -10.00     4200.00
04087             -12.00     4400.00
04088             -12.00     4400.00
04089             -10.00     4200.00
04090             -14.00     4400.00
04091             -16.00     4200.00
04092             -16.00     4400.00
04093             -10.00     4200.00
04094              -8.00     4200.00
04095             -14.00     4200.00
04096             -14.00     4200.00
04097             -14.00     4200.00
04098             -18.00     4000.00
04099             -14.00     4000.00
04100              -8.00     4000.00
04101             -10.00     4000.00
04102             -14.00     4000.00
04103             -10.00     4000.00
04104             -10.00     4000.00
04105             -16.00     4000.00
04106             -10.00     4000.00
04107              -8.00     4000.00
04108              -8.00     4000.00
04109             -14.00     3800.00
04110             -14.00     3800.00
04111             -10.00     3800.00
04112             -14.00     3600.00
04113             -14.00     3600.00
04114              -8.00     3600.00
04115             -10.00     3600.00
04116             -14.00     3600.00
04117             -14.00     3600.00
04118             -10.00     3600.00
04119             -14.00     3600.00
04120             -10.00     3600.00
04121             -10.00     3400.00
04122             -10.00     3400.00
04123             -10.00     3400.00
04124             -16.00     3400.00
04125             -10.00     3400.00
04126             -10.00     3200.00
04127             -10.00     3200.00
04128              -8.00     3200.00
04129              -8.00     3200.00
04130             -14.00     3200.00
04131             -10.00     3000.00
04132             -10.00     2800.00
04133             -10.00     2800.00
04134             -10.00     2800.00
04135              -8.00     2800.00
04136              -8.00     2800.00
04137             -10.00     2600.00
04138             -12.00     2800.00
04139              -8.00     2600.00
04140             -10.00     2600.00
04141             -10.00     2400.00
04142              -8.00     2600.00
04143              -8.00     2400.00
04144             -12.00     2200.00
04145             -10.00     2200.00
04146             -10.00     2000.00
04147              -8.00     2000.00
04148              -8.00     2000.00
04149              -8.00     2000.00
04150              -8.00     2000.00
04151             -10.00     1800.00
04152             -10.00     1800.00
04153              -8.00     1600.00
04154              -4.00     1600.00
04155              -8.00     1600.00
04156              -6.00     1600.00
04157              -8.00     1400.00
04158              -8.00     1200.00
04159              -8.00     1400.00
04160              -6.00     1400.00
04161              -4.00     1200.00
04162              -8.00     1200.00
04163              -8.00     1000.00
04164              -8.00     1000.00
04165              -6.00      800.00
04166              -8.00      800.00
04167              -2.00     1000.00
04168              -2.00      800.00
04169              -2.00      800.00
04170              -8.00      600.00
04171              -6.00      400.00
04172              -6.00      600.00
04173              -2.00      400.00
04174              -8.00      400.00
04175              -6.00      400.00
04176              -2.00      200.00
04177               2.00      200.00
04178               0.00        0.00
04179               0.00        0.00
04180               8.00        0.00
04181               4.00        0.00
04182              -6.00        0.00
04183              -8.00        0.00
04184               0.00     -400.00
04185              12.00     -400.00
04186              66.00     -400.00
04187             158.00     -600.00
04188             -38.00     -800.00
04189            -254.00     -800.00
04190            -202.00     -400.00
04191             246.00     -600.00
04192             246.00     -800.00
04193            -254.00    -1000.00
04194            -254.00     -800.00
04195             246.00    -1200.00
04196             246.00    -1200.00
04197            -254.00    -1200.00
04198            -220.00    -1200.00
04199             246.00    -1200.00
04200              64.00    -1000.00
04201            -150.00    -1400.00
04202              -2.00    -1600.00
04203             -82.00    -1600.00
04204             -10.00    -1600.00
04205             246.00    -1600.00
04206             -38.00    -1600.00
04207            -242.00    -1800.00
04208              42.00    -2000.00
04209             178.00    -2000.00
04210             -24.00    -2000.00
04211             -80.00    -2200.00
04212             -34.00    -2000.00
04213              48.00    -2000.00
04214              90.00    -2400.00
04215             -62.00    -2400.00
04216             -74.00    -2200.00
04217              48.00    -2400.00
04218              66.00    -2400.00
04219             -24.00    -2400.00
04220             -34.00    -2400.00
04221             -16.00    -2600.00
04222              42.00    -2600.00
04223              30.00    -2800.00
04224             -32.00    -2800.00
04225             -16.00    -2800.00
04226              24.00    -2800.00
04227              22.00    -2800.00
04228               0.00    -3000.00
04229             -14.00    -3000.00
04230              -8.00    -3000.00
04231              20.00    -3000.00
04232              16.00    -3000.00
04233              -8.00    -3000.00
04234              -6.00    -3200.00
04235              24.00    -3200.00
04236              14.00    -3200.00
04237             -16.00    -3200.00
04238              -2.00    -3200.00
04239              22.00    -3200.00
04240              12.00    -3200.00
04241               0.00    -3400.00
04242               0.00    -3600.00
04243              -2.00    -3600.00
04244               8.00    -3600.00
04245              14.00    -3600.00
04246              10.00    -3600.00
04247               2.00    -3600.00
04248               2.00    -3600.00
04249               6.00    -3800.00
04250               8.00    -3600.00
04251               0.00    -3800.00
04252               2.00    -3600.00
04253              18.00    -3600.00
04254               8.00    -3800.00
04255               0.00    -3800.00
04256               6.00    -3800.00
04257               6.00    -3800.00
04258               2.00    -3800.00
04259               6.00    -3800.00
04260               8.00    -3800.00
04261               8.00    -3800.00
04262               6.00    -3800.00
04263               0.00    -4000.00
04264               6.00    -4000.00
04265              10.00    -4000.00
04266               6.00    -3800.00
04267              10.00    -4000.00
04268               6.00    -4000.00
04269              -2.00    -4000.00
04270               2.00    -4000.00
04271               6.00    -4000.00
04272               8.00    -3800.00
04273               6.00    -3800.00
04274               6.00    -4000.00
04275               2.00    -4000.00
04276               2.00    -4000.00
04277               2.00    -3800.00
04278               8.00    -4000.00
04279              10.00    -4000.00
04280               6.00    -3800.00
04281               6.00    -4000.00
04282               2.00    -4000.00
04283               0.00    -4000.00
04284               2.00    -3800.00
04285              10.00    -4000.00
04286               8.00    -4000.00
04287               6.00    -3800.00
04288               6.00    -3600.00
04289               0.00    -3800.00
04290               0.00    -3800.00
04291               2.00    -3600.00
04292               8.00    -3800.00
04293               8.00    -3800.00
04294               8.00    -3600.00
04295               4.00    -3800.00
04296               2.00    -3600.00
04297               2.00    -3600.00
04298               6.00    -3600.00
04299               8.00    -3600.00
04300               8.00    -3600.00
04301               2.00    -3400.00
04302               2.00    -3600.00
04303               6.00    -3600.00
04304               2.00    -3200.00
04305               6.00    -3400.00
04306               8.00    -3400.00
04307               6.00    -3200.00
04308               4.00    -3200.00
04309               2.00    -3200.00
04310               0.00    -3200.00
04311               6.00    -3000.00
04312               4.00    -3200.00
04313               8.00    -3200.00
04314               6.00    -3000.00
04315               4.00    -3000.00
04316               0.00    -3000.00
04317               2.00    -3000.00
04318               2.00    -2800.00
04319               6.00    -2800.00
04320               6.00    -2800.00
04321               6.00    -2800.00
04322               0.00    -2800.00
04323               0.00    -2400.00
04324               0.00    -2600.00
04325               2.00    -2400.00
04326               2.00    -2400.00
04327               2.00    -2400.00
04328               2.00    -2400.00
04329               0.00    -2400.00
04330              -2.00    -2400.00
04331               0.00    -2200.00
04332               2.00    -2200.00
04333               0.00    -2000.00
04334               0.00    -2000.00
04335               2.00    -2000.00
04336              -2.00    -2000.00
04337              -2.00    -1800.00
04338              -2.00    -1800.00
04339               2.00    -1600.00
04340               0.00    -1600.00
04341               0.00    -1600.00
04342              -2.00    -1400.00
04343              -2.00    -1400.00
04344              -2.00    -1400.00
04345               2.00    -1400.00
04346               2.00    -1200.00
04347               0.00    -1000.00
04348               0.00    -1200.00
04349              -2.00    -1000.00
04350              -2.00    -1000.00
04351              -2.00    -1000.00
04352               0.00    -1000.00
04353               2.00     -800.00
04354               0.00     -800.00
04355              -2.00     -800.00
04356              -2.00     -600.00
04357              -2.00     -600.00
04358              -4.00     -400.00
04359              -2.00     -400.00
04360               0.00     -400.00
04361               0.00     -200.00
04362              -4.00     -200.00
04363              -6.00        0.00
04364               0.00     -200.00
04365               0.00        0.00
04366              -2.00        0.00
04367              -6.00      200.00
04368               2.00      200.00
04369               2.00      400.00
04370               0.00      400.00
04371               4.00      400.00
04372               8.00      400.00
04373              -2.00      400.00
04374             -10.00      800.00
04375              -6.00      800.00
04376               6.00      800.00
04377              58.00      800.00
04378             174.00     1000.00
04379             -14.00     1000.00
04380            -254.00      800.00
04381            -206.00     1000.00
04382             246.00     1200.00
04383             246.00     1200.00
04384            -254.00      800.00
04385            -254.00     1400.00
04386             246.00     1600.00
04387             246.00     1400.00
04388            -254.00     1200.00
04389            -134.00     1600.00
04390             246.00     1800.00
04391             -72.00     1600.00
04392            -254.00     1600.00
04393             150.00     2000.00
04394              28.00     1800.00
04395            -112.00     1800.00
04396             138.00     2000.00
04397               2.00     2000.00
04398            -162.00     2000.00
04399              56.00     2400.00
04400              38.00     2200.00
04401             -42.00     2400.00
04402              36.00     2400.00
04403             -96.00     2200.00
04404              -2.00     2400.00
04405             150.00     2400.00
04406            -142.00     2400.00
04407             -96.00     2600.00
04408             168.00     2800.00
04409             -42.00     2600.00
04410             -82.00     2800.00
04411              60.00     3200.00
04412             -74.00     2800.00
04413               0.00     2800.00
04414              80.00     3200.00
04415             -98.00     3000.00
04416              -6.00     3200.00
04417              36.00     3200.00
04418             -74.00     3200.00
04419              40.00     3400.00
04420              22.00     3200.00
04421             -82.00     3400.00
04422              26.00     3400.00
04423               4.00     3600.00
04424             -62.00     3400.00
04425              22.00     3600.00
04426               6.00     3600.00
04427             -26.00     3600.00
04428             -10.00     3600.00
04429             -22.00     3600.00
04430               6.00     3400.00
04431               6.00     3800.00
04432             -38.00     3800.00
04433             -10.00     4000.00
04434               2.00     3800.00
04435             -30.00     3800.00
04436              -4.00     4000.00
04437              10.00     4000.00
04438             -22.00     4000.00
04439             -18.00     4000.00
04440               0.00     4000.00
04441             -14.00     4000.00
04442             -20.00     4000.00
04443             -10.00     4000.00
04444             -10.00     4000.00
04445              -6.00     4000.00
04446             -14.00     4200.00
04447             -14.00     4200.00
04448              -2.00     4200.00
04449             -18.00     4200.00
04450             -24.00     4200.00
04451               0.00     4400.00
04452              -8.00     4400.00
04453             -22.00     4400.00
04454              -8.00     4200.00
04455             -10.00     4400.00
04456             -16.00     4200.00
04457             -10.00     4400.00
04458             -10.00     4200.00
04459             -14.00     4400.00
04460             -18.00     4200.00
04461             -18.00     4200.00
04462              -8.00     4200.00
04463             -10.00     4200.00
04464             -20.00     4200.00
04465             -10.00     4400.00
04466              -8.00     4200.00
04467             -16.00     4200.00
04468             -16.00     4200.00
04469             -10.00     4200.00
04470             -16.00     4200.00
04471             -14.00     4200.00
04472             -10.00     4200.00
04473             -10.00     4400.00
04474             -16.00     4400.00
04475             -18.00     4200.00
04476             -10.00     4200.00
04477              -8.00     4200.00
04478             -10.00     4200.00
04479             -12.00     4200.00
04480             -14.00     4200.00
04481             -18.00     4000.00
04482             -16.00     4200.00
04483             -10.00     4200.00
04484              -8.00     4000.00
04485             -14.00     4000.00
04486             -10.00     4000.00
04487             -10.00     4200.00
04488             -16.00     4000.00
04489             -14.00     4000.00
04490              -8.00     4000.00
04491             -10.00     4000.00
04492             -16.00     3800.00
04493             -14.00     3800.00
04494             -10.00     3800.00
04495             -10.00     3800.00
04496             -12.00     3800.00
04497              -8.00     3600.00
04498              -6.00     3600.00
04499             -14.00     3600.00
04500             -10.00     3600.00
04501             -14.00     3600.00
04502             -14.00     3400.00
04503             -10.00     3400.00
04504              -8.00     3600.00
04505              -8.00     3400.00
04506             -10.00     3400.00
04507             -14.00     3400.00
04508             -12.00     3200.00
04509             -10.00     3200.00
04510              -8.00     3200.00
04511              -6.00     3200.00
04512              -8.00     3000.00
04513             -10.00     3000.00
04514             -10.00     2800.00
04515              -8.00     3000.00
04516             -10.00     2800.00
04517             -14.00     2800.00
04518              -8.00     2800.00
04519              -6.00     2600.00
04520             -10.00     2800.00
04521             -12.00     2600.00
04522              -8.00     2600.00
04523              -4.00     2600.00
04524              -8.00     2400.00
04525             -10.00     2400.00
04526             -10.00     2200.00
04527             -10.00     2200.00
04528             -14.00     2000.00
04529              -8.00     2200.00
04530             -10.00     2200.00
04531              -6.00     2000.00
04532              -2.00     2000.00
04533              -6.00     2000.00
04534             -16.00     1800.00
04535             -14.00     1800.00
04536              -6.00     1600.00
04537              -6.00     1600.00
04538              -6.00     1600.00
04539              -4.00     1600.00
04540              -6.00     1600.00
04541             -10.00     1400.00
04542             -14.00     1400.00
04543             -10.00     1200.00
04544              -2.00     1200.00
04545               0.00     1200.00
04546              -6.00     1000.00
04547              -6.00      800.00
04548              -8.00     1000.00
04549              -6.00      800.00
04550              -2.00     1000.00
04551               0.00      800.00
04552              -2.00      800.00
04553              -8.00      600.00
04554             -10.00      600.00
04555              -6.00      400.00
04556               0.00      400.00
04557              -2.00      400.00
04558             -10.00      400.00
04559              -6.00      200.00
04560               0.00      200.00
04561               0.00        0.00
04562               2.00        0.00
04563               8.00        0.00
04564               4.00        0.00
04565              -4.00        0.00
04566              -6.00     -200.00
04567              -2.00     -400.00
04568              10.00     -400.00
04569              62.00     -400.00
04570             156.00     -400.00
04571             -10.00     -800.00
04572            -254.00     -800.00
04573            -248.00     -400.00
04574             246.00     -600.00
04575             246.00     -800.00
04576            -254.00    -1200.00
04577            -254.00     -600.00
04578             246.00    -1200.00
04579             246.00    -1000.00
04580            -254.00    -1000.00
04581            -254.00    -1200.00
04582             246.00    -1200.00
04583             100.00    -1400.00
04584            -152.00    -1400.00
04585              -8.00    -1600.00
04586             -80.00    -1400.00
04587             -24.00    -1600.00
04588             246.00    -1600.00
04589              -6.00    -1600.00
04590            -248.00    -1800.00
04591              20.00    -2000.00
04592             186.00    -1800.00
04593             -14.00    -2000.00
04594             -82.00    -2200.00
04595             -40.00    -2000.00
04596              42.00    -2000.00
04597              90.00    -2200.00
04598             -50.00    -2200.00
04599             -80.00    -2400.00
04600              42.00    -2400.00
04601              72.00    -2400.00
04602             -16.00    -2400.00
04603             -32.00    -2600.00
04604             -22.00    -2600.00
04605              38.00    -2800.00
04606              30.00    -2800.00
04607             -28.00    -2800.00
04608             -18.00    -2800.00
04609              22.00    -3000.00
04610              22.00    -2800.00
04611              -2.00    -3000.00
04612             -14.00    -3000.00
04613              -8.00    -3000.00
04614              24.00    -3200.00
04615              16.00    -3200.00
04616             -10.00    -3200.00
04617             -12.00    -3200.00
04618              22.00    -3200.00
04619              16.00    -3200.00
04620             -14.00    -3200.00
04621              -6.00    -3400.00
04622              22.00    -3400.00
04623              14.00    -3200.00
04624               0.00    -3600.00
04625               2.00    -3600.00
04626              -2.00    -3600.00
04627               4.00    -3600.00
04628              14.00    -3600.00
04629               8.00    -3600.00
04630               6.00    -3600.00
04631               6.00    -3600.00
04632               8.00    -3600.00
04633               8.00    -3600.00
04634               0.00    -3800.00
04635               6.00    -3600.00
04636              16.00    -3800.00
04637               8.00    -3800.00
04638              -2.00    -3800.00
04639               4.00    -3800.00
04640               8.00    -4000.00
04641               6.00    -3800.00
04642               8.00    -3800.00
04643              10.00    -3800.00
04644              10.00    -4000.00
04645               6.00    -3800.00
04646               0.00    -4000.00
04647               2.00    -4000.00
04648               8.00    -4000.00
04649               6.00    -3800.00
04650               8.00    -4000.00
04651               8.00    -4000.00
04652               0.00    -3800.00
04653               0.00    -3800.00
04654               6.00    -3800.00
04655               6.00    -4000.00
04656               8.00    -4000.00
04657               8.00    -4000.00
04658               6.00    -4000.00
04659               2.00    -3800.00
04660               0.00    -4000.00
04661               6.00    -4000.00
04662               8.00    -3800.00
04663               8.00    -4000.00
04664               6.00    -4000.00
04665               6.00    -4000.00
04666               0.00    -4000.00
04667               2.00    -3800.00
04668               8.00    -4000.00
04669               8.00    -3800.00
04670               6.00    -3800.00
04671               2.00    -3800.00
04672               2.00    -3800.00
04673               2.00    -3800.00
04674               6.00    -3600.00
04675               6.00    -3600.00
04676               6.00    -3800.00
04677               8.00    -3600.00
04678               6.00    -3600.00
04679               6.00    -3600.00
04680               2.00    -3600.00
04681               6.00    -3600.00
04682               6.00    -3600.00
04683               8.00    -3600.00
04684               6.00    -3600.00
04685               6.00    -3600.00
04686               6.00    -3600.00
04687               6.00    -3400.00
04688               4.00    -3400.00
04689               8.00    -3200.00
04690               8.00    -3200.00
04691               6.00    -3200.00
04692               2.00    -3200.00
04693               0.00    -3200.00
04694               2.00    -3000.00
04695               6.00    -3000.00
04696              10.00    -3000.00
04697               8.00    -3000.00
04698               0.00    -2800.00
04699               0.00    -3000.00
04700               6.00    -2800.00
04701               6.00    -2800.00
04702               2.00    -2800.00
04703               0.00    -2800.00
04704               8.00    -2800.00
04705               6.00    -2800.00
04706               2.00    -2600.00
04707               2.00    -2400.00
04708               2.00    -2400.00
04709               6.00    -2400.00
04710               6.00    -2400.00
04711               6.00    -2400.00
04712               0.00    -2200.00
04713              -2.00    -2200.00
04714              -2.00    -2200.00
04715               6.00    -2000.00
04716               8.00    -2200.00
04717               2.00    -2200.00
04718              -2.00    -2000.00
04719              -2.00    -2000.00
04720              -2.00    -2000.00
04721               2.00    -1600.00
04722               8.00    -1800.00
04723               6.00    -1800.00
04724               0.00    -1600.00
04725              -6.00    -1600.00
04726              -2.00    -1400.00
04727               4.00    -1400.00
04728               6.00    -1400.00
04729               2.00    -1200.00
04730              -6.00    -1200.00
04731              -8.00    -1000.00
04732               0.00    -1200.00
04733               6.00    -1000.00
04734               2.00    -1000.00
04735              -2.00     -800.00
04736              -4.00     -800.00
04737              -2.00     -800.00
04738               0.00     -600.00
04739               0.00     -600.00
04740              -2.00     -600.00
04741              -6.00     -400.00
04742              -2.00     -400.00
04743               2.00     -200.00
04744               2.00     -200.00
04745              -2.00     -400.00
04746              -4.00     -200.00
04747              -6.00        0.00
04748              -2.00        0.00
04749              -2.00        0.00
04750               0.00        0.00
04751               0.00      200.00
04752               6.00      200.00
04753               0.00      400.00
04754               0.00      400.00
04755               8.00      400.00
04756               0.00      400.00
04757              -8.00      600.00
04758              -6.00      600.00
04759               0.00      800.00
04760              52.00      800.00
04761             178.00     1000.00
04762              14.00      800.00
04763            -254.00      800.00
04764            -254.00      800.00
04765             246.00     1200.00
04766             246.00     1400.00
04767            -254.00     1000.00
04768            -254.00     1200.00
04769             246.00     1600.00
04770             246.00     1600.00
04771            -254.00     1200.00
04772            -190.00     1600.00
04773             246.00     1800.00
04774             -30.00     1400.00
04775            -254.00     1600.00
04776             138.00     2000.00
04777              62.00     1800.00
04778            -124.00     1800.00
04779             114.00     2000.00
04780              22.00     2000.00
04781            -166.00     2000.00
04782              54.00     2200.00
04783              50.00     2400.00
04784             -48.00     2200.00
04785              30.00     2400.00
04786             -94.00     2400.00
04787             -16.00     2600.00
04788             162.00     2600.00
04789            -114.00     2400.00
04790            -122.00     2800.00
04791             152.00     2800.00
04792             -26.00     2600.00
04793             -82.00     2600.00
04794              70.00     2800.00
04795             -64.00     3000.00
04796             -24.00     2800.00
04797              80.00     3200.00
04798             -88.00     3000.00
04799             -10.00     3000.00
04800              40.00     3200.00
04801             -72.00     3200.00
04802              26.00     3400.00
04803              26.00     3400.00
04804             -88.00     3400.00
04805              22.00     3400.00
04806              16.00     3400.00
04807             -56.00     3400.00
04808              16.00     3600.00
04809               6.00     3400.00
04810             -32.00     3400.00
04811             -14.00     3800.00
04812             -22.00     3600.00
04813               6.00     3600.00
04814               8.00     3800.00
04815             -40.00     3800.00
04816             -10.00     3800.00
04817               2.00     3800.00
04818             -32.00     3800.00
04819             -12.00     4000.00
04820              14.00     4000.00
04821             -16.00     4000.00
04822             -24.00     4000.00
04823              -6.00     4000.00
04824             -16.00     4000.00
04825             -16.00     4000.00
04826               0.00     4000.00
04827              -2.00     4200.00
04828             -10.00     4000.00
04829             -22.00     4200.00
04830             -22.00     4200.00
04831               0.00     4200.00
04832             -10.00     4200.00
04833             -18.00     4400.00
04834               0.00     4200.00
04835              -8.00     4400.00
04836             -24.00     4200.00
04837              -8.00     4400.00
04838             -10.00     4400.00
04839             -16.00     4200.00
04840             -10.00     4400.00
04841             -10.00     4200.00
04842             -10.00     4200.00
04843             -10.00     4400.00
04844             -18.00     4200.00
04845             -14.00     4200.00
04846              -8.00     4400.00
04847             -16.00     4400.00
04848             -14.00     4200.00
04849             -10.00     4400.00
04850             -18.00     4400.00
04851             -12.00     4200.00
04852              -8.00     4400.00
04853             -16.00     4200.00
04854             -16.00     4200.00
04855              -8.00     4200.00
04856             -14.00     4400.00
04857             -18.00     4200.00
04858             -16.00     4200.00
04859             -10.00     4200.00
04860              -6.00     4400.00
04861             -16.00     4200.00
04862             -16.00     4200.00
04863             -14.00     4200.00
04864             -16.00     4200.00
04865             -16.00     4000.00
04866              -6.00     4000.00
04867              -6.00     4000.00
04868             -12.00     4200.00
04869             -14.00     4200.00
04870             -16.00     4200.00
04871             -16.00     4000.00
04872             -10.00     4000.00
04873              -6.00     3800.00
04874             -10.00     4000.00
04875             -14.00     4000.00
04876             -14.00     4000.00
04877             -10.00     3800.00
04878             -14.00     3800.00
04879             -10.00     3800.00
04880              -8.00     3600.00
04881              -8.00     3800.00
04882             -14.00     3600.00
04883             -16.00     3600.00
04884             -10.00     3400.00
04885             -10.00     3600.00
04886             -10.00     3600.00
04887              -6.00     3400.00
04888              -6.00     3400.00
04889             -10.00     3400.00
04890             -14.00     3400.00
04891              -8.00     3400.00
04892             -10.00     3400.00
04893             -10.00     3200.00
04894              -6.00     3200.00
04895              -6.00     3200.00
04896             -12.00     3200.00
04897             -10.00     3000.00
04898             -10.00     2800.00
04899             -10.00     3000.00
04900             -10.00     2800.00
04901              -8.00     2800.00
04902              -8.00     2600.00
04903             -10.00     2800.00
04904             -10.00     2800.00
04905              -8.00     2600.00
04906              -4.00     2600.00
04907              -8.00     2600.00
04908              -8.00     2200.00
04909              -8.00     2400.00
04910             -10.00     2400.00
04911             -14.00     2000.00
04912             -10.00     2200.00
04913              -8.00     2000.00
04914              -8.00     2000.00
04915              -8.00     2000.00
04916              -6.00     1800.00
04917             -10.00     2000.00
04918             -10.00     1800.00
04919              -6.00     1800.00
04920              -6.00     1600.00
04921              -6.00     1600.00
04922              -8.00     1600.00
04923             -10.00     1600.00
04924              -8.00     1400.00
04925              -8.00     1400.00
04926              -8.00     1200.00
04927              -2.00     1200.00
04928              -4.00     1200.00
04929             -10.00     1000.00
04930              -8.00     1000.00
04931              -6.00     1000.00
04932              -8.00     1000.00
04933              -8.00      800.00
04934              -2.00      800.00
04935               0.00      800.00
04936              -6.00      600.00
04937              -6.00      400.00
04938              -4.00      400.00
04939              -6.00      400.00
04940              -6.00      400.00
04941              -6.00      400.00
04942              -2.00      200.00
04943               2.00      200.00
04944               0.00      200.00
04945              -2.00        0.00
04946               4.00        0.00
04947               2.00        0.00
04948              -6.00        0.00
04949              -6.00     -200.00
04950               0.00     -200.00
04951              10.00     -400.00
04952              54.00     -400.00
04953             152.00     -400.00
04954              10.00     -800.00
04955            -254.00     -800.00
04956            -254.00     -400.00
04957             246.00     -800.00
04958             246.00     -800.00
04959            -254.00    -1000.00
04960            -254.00     -800.00
04961             246.00    -1200.00
04962             246.00    -1000.00
04963            -254.00    -1000.00
04964            -254.00    -1200.00
04965             246.00    -1400.00
04966             128.00    -1200.00
04967            -154.00    -1400.00
04968             -10.00    -1600.00
04969             -70.00    -1400.00
04970             -38.00    -1600.00
04971             240.00    -1600.00
04972              18.00    -1600.00
04973            -248.00    -1600.00
04974              -2.00    -2000.00
04975             194.00    -2000.00
04976              -2.00    -2000.00
04977             -82.00    -2200.00
04978             -46.00    -2000.00
04979              40.00    -2000.00
04980              96.00    -2400.00
04981             -42.00    -2400.00
04982             -88.00    -2200.00
04983              32.00    -2400.00
04984              78.00    -2400.00
04985             -16.00    -2400.00
04986             -32.00    -2600.00
04987             -18.00    -2800.00
04988              36.00    -2600.00
04989              34.00    -2800.00
04990             -26.00    -2800.00
04991             -24.00    -2800.00
04992              22.00    -3000.00
04993              24.00    -2800.00
04994               2.00    -3000.00
04995             -10.00    -3000.00
04996             -10.00    -3000.00
04997              18.00    -3200.00
04998              16.00    -3200.00
04999              -8.00    -3200.00
05000             -12.00    -3200.00
