Unit:(mV)
                     CH1         CH2
Frequency              ?           ?
00001              10.00    -2800.00
00002               8.00    -2800.00
00003               2.00    -2400.00
00004              -2.00    -2600.00
00005               6.00    -2400.00
00006              14.00    -2600.00
00007              14.00    -2400.00
00008               6.00    -2400.00
00009              -2.00    -2400.00
00010              -2.00    -2200.00
00011               4.00    -2200.00
00012              10.00    -2000.00
00013              10.00    -2000.00
00014              10.00    -2000.00
00015               0.00    -2000.00
00016               2.00    -1800.00
00017               2.00    -1600.00
00018               2.00    -2000.00
00019               6.00    -1600.00
00020               6.00    -1600.00
00021               2.00    -1600.00
00022               0.00    -1400.00
00023               0.00    -1600.00
00024              -2.00    -1400.00
00025               0.00    -1400.00
00026               4.00    -1000.00
00027               6.00    -1400.00
00028               2.00    -1000.00
00029              -6.00    -1200.00
00030              -6.00     -800.00
00031              -2.00    -1000.00
00032               6.00     -800.00
00033               6.00     -800.00
00034               4.00     -600.00
00035              -2.00     -800.00
00036              -8.00     -400.00
00037              -2.00     -600.00
00038              -2.00     -400.00
00039               2.00     -600.00
00040               6.00     -400.00
00041              -2.00     -400.00
00042              -8.00     -200.00
00043              -6.00     -200.00
00044              -2.00        0.00
00045               0.00        0.00
00046              -2.00        0.00
00047               2.00      200.00
00048               6.00      200.00
00049              -2.00      400.00
00050              -6.00      400.00
00051              10.00      400.00
00052              12.00      400.00
00053              -2.00      600.00
00054             -10.00      600.00
00055              -6.00      600.00
00056              14.00      800.00
00057             114.00      800.00
00058             182.00     1000.00
00059            -198.00     1000.00
00060            -254.00      600.00
00061              94.00     1200.00
00062             246.00     1400.00
00063             224.00     1200.00
00064            -254.00      800.00
00065            -142.00     1200.00
00066             246.00     1600.00
00067             -16.00     1400.00
00068            -254.00     1400.00
00069             192.00     1800.00
00070             246.00     1600.00
00071            -254.00     1400.00
00072            -150.00     2000.00
00073             166.00     1800.00
00074            -114.00     1600.00
00075              26.00     2000.00
00076             184.00     2000.00
00077            -202.00     2000.00
00078             -64.00     2000.00
00079             154.00     2400.00
00080             -78.00     2400.00
00081               0.00     2400.00
00082              72.00     2400.00
00083            -178.00     2400.00
00084              74.00     2600.00
00085             170.00     2600.00
00086            -240.00     2600.00
00087             -38.00     2800.00
00088             198.00     2800.00
00089            -104.00     2600.00
00090             -42.00     2800.00
00091              58.00     3000.00
00092             -94.00     2800.00
00093              30.00     3200.00
00094              50.00     3200.00
00095             -90.00     3200.00
00096              22.00     3200.00
00097             -10.00     3200.00
00098             -58.00     3200.00
00099              66.00     3400.00
00100             -22.00     3400.00
00101             -74.00     3400.00
00102              36.00     3600.00
00103             -18.00     3400.00
00104             -40.00     3400.00
00105              32.00     3600.00
00106             -10.00     3600.00
00107             -40.00     3600.00
00108             -20.00     3800.00
00109              -8.00     3600.00
00110              12.00     3600.00
00111              -6.00     3800.00
00112             -34.00     3600.00
00113              -8.00     3800.00
00114             -10.00     4000.00
00115             -28.00     4000.00
00116               0.00     3800.00
00117               6.00     4000.00
00118             -30.00     4000.00
00119             -16.00     4000.00
00120               0.00     4000.00
00121             -26.00     4000.00
00122             -18.00     4000.00
00123              -2.00     4200.00
00124              -8.00     4200.00
00125              -6.00     4200.00
00126             -22.00     4200.00
00127             -16.00     4200.00
00128              -2.00     4200.00
00129             -20.00     4200.00
00130             -14.00     4200.00
00131               2.00     4400.00
00132             -18.00     4200.00
00133             -24.00     4400.00
00134             -10.00     4200.00
00135             -14.00     4400.00
00136             -14.00     4400.00
00137             -10.00     4400.00
00138             -16.00     4400.00
00139             -16.00     4400.00
00140             -18.00     4200.00
00141             -16.00     4400.00
00142              -8.00     4200.00
00143             -10.00     4400.00
00144             -16.00     4400.00
00145             -10.00     4400.00
00146             -14.00     4400.00
00147             -20.00     4400.00
00148             -16.00     4200.00
00149             -16.00     4200.00
00150             -22.00     4200.00
00151             -12.00     4400.00
00152             -10.00     4200.00
00153             -18.00     4200.00
00154             -22.00     4400.00
00155             -16.00     4200.00
00156             -14.00     4200.00
00157             -16.00     4200.00
00158             -18.00     4200.00
00159             -14.00     4200.00
00160             -16.00     4200.00
00161             -22.00     4000.00
00162             -16.00     4000.00
00163              -8.00     4200.00
00164             -16.00     4000.00
00165             -18.00     4000.00
00166             -18.00     4000.00
00167             -16.00     4000.00
00168             -18.00     4000.00
00169             -16.00     4000.00
00170             -14.00     4000.00
00171             -16.00     4000.00
00172             -16.00     4000.00
00173             -16.00     3800.00
00174             -16.00     3800.00
00175             -18.00     3800.00
00176             -14.00     3800.00
00177             -12.00     3800.00
00178             -14.00     3600.00
00179             -16.00     3600.00
00180             -16.00     3600.00
00181             -14.00     3600.00
00182             -14.00     3400.00
00183             -14.00     3600.00
00184             -14.00     3400.00
00185             -14.00     3400.00
00186             -16.00     3400.00
00187             -16.00     3400.00
00188             -14.00     3200.00
00189             -14.00     3200.00
00190             -14.00     3000.00
00191              -8.00     3200.00
00192             -10.00     3200.00
00193             -16.00     3000.00
00194             -14.00     3200.00
00195             -10.00     3200.00
00196             -10.00     2800.00
00197             -10.00     2800.00
00198              -8.00     2800.00
00199             -10.00     2800.00
00200             -16.00     2800.00
00201             -14.00     2600.00
00202              -8.00     2600.00
00203              -8.00     2600.00
00204             -10.00     2400.00
00205              -8.00     2400.00
00206              -8.00     2400.00
00207             -14.00     2200.00
00208             -14.00     2000.00
00209             -10.00     2400.00
00210              -6.00     2000.00
00211              -6.00     2000.00
00212              -8.00     2000.00
00213              -8.00     2000.00
00214             -12.00     2000.00
00215              -8.00     1800.00
00216              -2.00     1800.00
00217              -2.00     1600.00
00218              -8.00     1600.00
00219             -10.00     1400.00
00220             -10.00     1600.00
00221              -6.00     1400.00
00222             -10.00     1200.00
00223              -6.00     1200.00
00224              -6.00     1200.00
00225              -6.00     1200.00
00226              -8.00     1200.00
00227              -8.00     1000.00
00228              -8.00     1000.00
00229             -10.00     1000.00
00230              -8.00      800.00
00231               0.00      800.00
00232               0.00      800.00
00233              -6.00      600.00
00234              -8.00      400.00
00235             -10.00      400.00
00236              -6.00      400.00
00237              -4.00      200.00
00238              -4.00      400.00
00239               0.00      200.00
00240               0.00      200.00
00241              -6.00        0.00
00242               0.00        0.00
00243               8.00        0.00
00244               2.00        0.00
00245              -4.00        0.00
00246              -2.00     -200.00
00247               0.00     -400.00
00248              16.00     -400.00
00249             104.00     -400.00
00250             146.00     -600.00
00251            -160.00     -800.00
00252            -254.00     -600.00
00253              20.00     -400.00
00254             246.00     -800.00
00255             246.00     -800.00
00256            -254.00     -800.00
00257            -254.00     -800.00
00258             246.00    -1200.00
00259             166.00    -1000.00
00260            -254.00    -1000.00
00261             -58.00    -1200.00
00262             246.00    -1200.00
00263               0.00    -1400.00
00264             -82.00    -1400.00
00265             -64.00    -1600.00
00266            -130.00    -1400.00
00267             134.00    -1600.00
00268             246.00    -1400.00
00269            -190.00    -1600.00
00270            -174.00    -2000.00
00271             136.00    -2000.00
00272              92.00    -1800.00
00273             -26.00    -2000.00
00274             -54.00    -2200.00
00275             -58.00    -2000.00
00276              86.00    -2000.00
00277             118.00    -2400.00
00278            -138.00    -2200.00
00279             -70.00    -2400.00
00280             120.00    -2400.00
00281              44.00    -2400.00
00282             -54.00    -2400.00
00283             -24.00    -2800.00
00284             -10.00    -2600.00
00285              32.00    -2800.00
00286              48.00    -2800.00
00287             -26.00    -2600.00
00288             -26.00    -2800.00
00289              12.00    -3000.00
00290              16.00    -2800.00
00291               0.00    -3000.00
00292               2.00    -3000.00
00293               2.00    -3000.00
00294              18.00    -3200.00
00295               8.00    -3200.00
00296             -22.00    -3200.00
00297              -2.00    -3200.00
00298              32.00    -3200.00
00299              10.00    -3200.00
00300             -16.00    -3200.00
00301               0.00    -3400.00
00302              10.00    -3600.00
00303              10.00    -3200.00
00304               6.00    -3400.00
00305               2.00    -3600.00
00306               8.00    -3600.00
00307              10.00    -3600.00
00308              10.00    -3600.00
00309               2.00    -3600.00
00310              -4.00    -3600.00
00311               2.00    -3600.00
00312              24.00    -3600.00
00313              20.00    -3600.00
00314              -6.00    -3800.00
00315             -14.00    -3800.00
00316               6.00    -3800.00
00317              24.00    -3800.00
00318              22.00    -3800.00
00319               0.00    -3800.00
00320             -10.00    -3800.00
00321               6.00    -3800.00
00322              20.00    -4000.00
00323              20.00    -3800.00
00324               8.00    -3800.00
00325               0.00    -4000.00
00326              -2.00    -3800.00
00327               8.00    -4000.00
00328              14.00    -3800.00
00329              18.00    -3800.00
00330              16.00    -3800.00
00331               4.00    -4000.00
00332              -6.00    -4000.00
00333               2.00    -3800.00
00334              14.00    -4000.00
00335              22.00    -4000.00
00336              18.00    -3800.00
00337               4.00    -3800.00
00338              -2.00    -4000.00
00339               2.00    -3800.00
00340              14.00    -4000.00
00341              22.00    -4000.00
00342              10.00    -3800.00
00343               4.00    -3800.00
00344              14.00    -4000.00
00345              14.00    -4000.00
00346               6.00    -4000.00
00347               0.00    -3800.00
00348               0.00    -3800.00
00349              16.00    -3800.00
00350              26.00    -3800.00
00351              14.00    -3800.00
00352              -6.00    -3800.00
00353              -2.00    -3800.00
00354              10.00    -3800.00
00355              20.00    -3800.00
00356              14.00    -3600.00
00357               8.00    -3800.00
00358              10.00    -3800.00
00359               6.00    -3800.00
00360               6.00    -3600.00
00361              12.00    -3600.00
00362               6.00    -3400.00
00363              12.00    -3600.00
00364              22.00    -3600.00
00365               8.00    -3600.00
00366             -10.00    -3600.00
00367              -2.00    -3200.00
00368              26.00    -3400.00
00369              36.00    -3200.00
00370               6.00    -3200.00
00371             -18.00    -3200.00
00372               0.00    -3200.00
00373              22.00    -3200.00
00374              16.00    -3200.00
00375              10.00    -3000.00
00376               6.00    -3200.00
00377              -2.00    -3000.00
00378               6.00    -2800.00
00379              16.00    -3000.00
00380              20.00    -2800.00
00381              10.00    -3000.00
00382               0.00    -2800.00
00383               2.00    -2800.00
00384               6.00    -2800.00
00385               0.00    -2800.00
00386              14.00    -2800.00
00387              20.00    -2600.00
00388               8.00    -2400.00
00389             -10.00    -2400.00
00390               0.00    -2400.00
00391              16.00    -2400.00
00392              18.00    -2200.00
00393               8.00    -2200.00
00394              -4.00    -2200.00
00395              -2.00    -2200.00
00396               2.00    -2000.00
00397              10.00    -2000.00
00398              16.00    -2000.00
00399              10.00    -2000.00
00400              -6.00    -2000.00
00401              -2.00    -1600.00
00402               2.00    -1600.00
00403               8.00    -1600.00
00404               8.00    -1600.00
00405               2.00    -1600.00
00406              -2.00    -1400.00
00407               0.00    -1400.00
00408               2.00    -1000.00
00409              10.00    -1400.00
00410               6.00    -1200.00
00411              -6.00    -1200.00
00412              -6.00    -1000.00
00413               6.00    -1000.00
00414               6.00     -800.00
00415               0.00     -800.00
00416              -2.00     -800.00
00417              -2.00     -800.00
00418               2.00     -600.00
00419               0.00     -600.00
00420              -2.00     -600.00
00421               0.00     -600.00
00422               2.00     -400.00
00423               0.00     -200.00
00424              -2.00     -400.00
00425              -2.00     -200.00
00426              -8.00        0.00
00427              -2.00        0.00
00428               6.00        0.00
00429               0.00        0.00
00430              -2.00      200.00
00431              -2.00      400.00
00432              -2.00      200.00
00433               0.00      200.00
00434              10.00      400.00
00435               8.00      400.00
00436              -8.00      600.00
00437              -8.00      400.00
00438              -6.00      600.00
00439               8.00      800.00
00440             102.00     1000.00
00441             186.00     1000.00
00442            -154.00      800.00
00443            -254.00      800.00
00444              16.00     1000.00
00445             246.00     1200.00
00446             246.00     1200.00
00447            -254.00      800.00
00448            -242.00     1200.00
00449             246.00     1600.00
00450              96.00     1400.00
00451            -254.00     1400.00
00452             116.00     1600.00
00453             246.00     1600.00
00454            -248.00     1400.00
00455            -192.00     1800.00
00456             184.00     2000.00
00457             -94.00     1600.00
00458              -2.00     2000.00
00459             184.00     2000.00
00460            -184.00     2000.00
00461             -90.00     2000.00
00462             162.00     2400.00
00463             -60.00     2200.00
00464             -18.00     2400.00
00465              86.00     2400.00
00466            -178.00     2400.00
00467              38.00     2600.00
00468             194.00     2800.00
00469            -214.00     2600.00
00470             -70.00     2800.00
00471             200.00     2800.00
00472             -90.00     2600.00
00473             -58.00     2800.00
00474              70.00     3200.00
00475             -78.00     2800.00
00476              14.00     3000.00
00477              54.00     3200.00
00478             -96.00     3000.00
00479              22.00     3200.00
00480              14.00     3400.00
00481             -58.00     3200.00
00482              50.00     3400.00
00483             -16.00     3400.00
00484             -72.00     3200.00
00485              46.00     3600.00
00486              -6.00     3400.00
00487             -50.00     3400.00
00488              22.00     3600.00
00489              -6.00     3600.00
00490             -32.00     3600.00
00491             -14.00     3800.00
00492             -14.00     3600.00
00493               8.00     3600.00
00494              -4.00     3800.00
00495             -32.00     3600.00
00496             -10.00     4000.00
00497              -6.00     4000.00
00498             -24.00     3800.00
00499              -2.00     4000.00
00500               6.00     4000.00
00501             -32.00     4000.00
00502             -18.00     4000.00
00503               2.00     4200.00
00504             -22.00     4200.00
00505             -22.00     4200.00
00506              -6.00     4200.00
00507              -8.00     4000.00
00508              -8.00     4200.00
00509             -22.00     4200.00
00510             -22.00     4200.00
00511              -6.00     4400.00
00512             -16.00     4000.00
00513             -10.00     4200.00
00514               0.00     4200.00
00515             -24.00     4200.00
00516             -32.00     4200.00
00517             -10.00     4400.00
00518              -6.00     4200.00
00519              -8.00     4200.00
00520             -14.00     4400.00
00521             -20.00     4200.00
00522             -22.00     4400.00
00523             -16.00     4400.00
00524             -10.00     4400.00
00525              -6.00     4400.00
00526             -10.00     4200.00
00527             -22.00     4200.00
00528             -14.00     4400.00
00529             -14.00     4400.00
00530             -16.00     4400.00
00531             -14.00     4200.00
00532             -16.00     4400.00
00533             -16.00     4200.00
00534              -8.00     4200.00
00535              -6.00     4400.00
00536             -20.00     4200.00
00537             -32.00     4200.00
00538             -16.00     4200.00
00539              -6.00     4400.00
00540             -10.00     4200.00
00541             -18.00     4200.00
00542             -16.00     4200.00
00543             -22.00     4200.00
00544             -26.00     4200.00
00545             -18.00     4200.00
00546              -6.00     4000.00
00547              -6.00     4000.00
00548             -14.00     4000.00
00549             -18.00     4000.00
00550             -24.00     4000.00
00551             -24.00     4000.00
00552             -16.00     4000.00
00553             -10.00     4000.00
00554             -10.00     4000.00
00555             -16.00     4000.00
00556             -18.00     3800.00
00557             -18.00     3800.00
00558             -20.00     3800.00
00559             -16.00     3600.00
00560             -10.00     3600.00
00561             -10.00     3600.00
00562             -16.00     3600.00
00563             -16.00     3600.00
00564             -16.00     3600.00
00565             -18.00     3600.00
00566             -14.00     3600.00
00567             -10.00     3600.00
00568              -8.00     3400.00
00569             -10.00     3400.00
00570             -18.00     3400.00
00571             -16.00     3200.00
00572             -20.00     3200.00
00573             -10.00     3200.00
00574              -6.00     3200.00
00575             -10.00     3000.00
00576             -14.00     3000.00
00577             -16.00     3000.00
00578             -16.00     2800.00
00579             -12.00     2800.00
00580             -12.00     2800.00
00581              -8.00     2800.00
00582             -10.00     2800.00
00583             -14.00     2800.00
00584             -14.00     2600.00
00585              -8.00     2600.00
00586             -10.00     2600.00
00587              -8.00     2400.00
00588             -10.00     2400.00
00589              -8.00     2400.00
00590             -10.00     2200.00
00591             -16.00     2200.00
00592             -10.00     2000.00
00593              -8.00     2000.00
00594              -8.00     2000.00
00595             -10.00     2000.00
00596              -6.00     2000.00
00597             -10.00     1800.00
00598             -10.00     1800.00
00599              -6.00     1800.00
00600              -6.00     1800.00
00601              -6.00     1600.00
00602             -10.00     1600.00
00603             -10.00     1400.00
00604              -6.00     1600.00
00605              -6.00     1400.00
00606              -6.00     1200.00
00607              -2.00     1200.00
00608              -8.00     1200.00
00609             -10.00     1200.00
00610              -6.00     1000.00
00611              -6.00     1000.00
00612             -10.00     1000.00
00613              -8.00      800.00
00614              -4.00      800.00
00615               0.00      800.00
00616              -2.00      600.00
00617              -8.00      800.00
00618             -10.00      400.00
00619             -10.00      400.00
00620              -4.00      200.00
00621              -2.00      200.00
00622               2.00      200.00
00623               2.00      200.00
00624              -2.00        0.00
00625              -6.00      200.00
00626               6.00        0.00
00627               2.00        0.00
00628              -4.00        0.00
00629              -6.00     -400.00
00630               0.00     -200.00
00631              16.00     -400.00
00632              94.00     -400.00
00633             152.00     -600.00
00634            -128.00     -800.00
00635            -254.00     -800.00
00636             -50.00     -600.00
00637             246.00     -600.00
00638             246.00     -800.00
00639            -254.00    -1000.00
00640            -254.00     -800.00
00641             246.00    -1200.00
00642             246.00    -1200.00
00643            -254.00    -1200.00
00644            -116.00    -1400.00
00645             246.00    -1400.00
00646              22.00    -1400.00
00647             -94.00    -1400.00
00648             -58.00    -1600.00
00649            -136.00    -1400.00
00650             118.00    -1600.00
00651             246.00    -1600.00
00652            -168.00    -1600.00
00653            -206.00    -2000.00
00654             118.00    -2000.00
00655             120.00    -1800.00
00656             -16.00    -2000.00
00657             -56.00    -2200.00
00658             -78.00    -2000.00
00659              66.00    -2200.00
00660             136.00    -2400.00
00661            -118.00    -2200.00
00662             -86.00    -2200.00
00663             104.00    -2400.00
00664              54.00    -2400.00
00665             -50.00    -2400.00
00666             -14.00    -2800.00
00667              -2.00    -2800.00
00668              24.00    -2800.00
00669              38.00    -2800.00
00670             -32.00    -2800.00
00671             -24.00    -3000.00
00672              30.00    -2800.00
00673              24.00    -2800.00
00674             -10.00    -3000.00
00675             -10.00    -3000.00
00676               0.00    -3000.00
00677              24.00    -3200.00
00678              16.00    -3000.00
00679             -20.00    -3000.00
00680              -8.00    -3200.00
00681              30.00    -3200.00
00682               8.00    -3200.00
00683             -22.00    -3200.00
00684               6.00    -3200.00
00685              22.00    -3600.00
00686               8.00    -3600.00
00687               2.00    -3600.00
00688               0.00    -3600.00
00689               0.00    -3400.00
00690               8.00    -3600.00
00691              14.00    -3600.00
00692               6.00    -3600.00
00693               0.00    -3600.00
00694               2.00    -3800.00
00695              10.00    -3800.00
00696               8.00    -3800.00
00697              -2.00    -3800.00
00698              10.00    -3800.00
00699              16.00    -3800.00
00700               8.00    -3800.00
00701              -2.00    -3800.00
00702               8.00    -3800.00
00703              12.00    -3800.00
00704               8.00    -4000.00
00705              10.00    -4000.00
00706               8.00    -4000.00
00707              10.00    -3800.00
00708               6.00    -4000.00
00709               4.00    -4000.00
00710              10.00    -4000.00
00711               8.00    -4000.00
00712               8.00    -4000.00
00713              16.00    -4000.00
00714               8.00    -4000.00
00715               2.00    -4200.00
00716               8.00    -4000.00
00717              14.00    -4000.00
00718              14.00    -3800.00
00719              14.00    -4000.00
00720              10.00    -4000.00
00721              10.00    -4000.00
00722               6.00    -4000.00
00723               6.00    -4000.00
00724              14.00    -3800.00
00725              14.00    -3800.00
00726              14.00    -4000.00
00727               8.00    -3800.00
00728               8.00    -4000.00
00729               8.00    -4000.00
00730              14.00    -3800.00
00731              16.00    -4000.00
00732              14.00    -3800.00
00733              10.00    -3800.00
00734               8.00    -3800.00
00735               8.00    -3800.00
00736              10.00    -3800.00
00737              10.00    -3600.00
00738              12.00    -3800.00
00739              10.00    -3800.00
00740              10.00    -3800.00
00741               8.00    -3800.00
00742               8.00    -3800.00
00743               8.00    -3600.00
00744               8.00    -3600.00
00745              10.00    -3600.00
00746               8.00    -3600.00
00747               8.00    -3600.00
00748               6.00    -3600.00
00749               8.00    -3400.00
00750               6.00    -3400.00
00751              10.00    -3400.00
00752              10.00    -3200.00
00753              10.00    -3200.00
00754               6.00    -3400.00
00755               6.00    -3200.00
00756               6.00    -3200.00
00757               6.00    -3200.00
00758               8.00    -3000.00
00759              10.00    -3200.00
00760               8.00    -3000.00
00761               6.00    -3000.00
00762               6.00    -2800.00
00763               6.00    -2800.00
00764               6.00    -2800.00
00765               6.00    -2800.00
00766              10.00    -2800.00
00767              10.00    -2800.00
00768               8.00    -2600.00
00769               2.00    -2600.00
00770               2.00    -2400.00
00771               6.00    -2400.00
00772              10.00    -2400.00
00773              10.00    -2400.00
00774               6.00    -2400.00
00775               0.00    -2400.00
00776               0.00    -2200.00
00777               8.00    -2200.00
00778               8.00    -2000.00
00779               6.00    -2000.00
00780               8.00    -2000.00
00781               6.00    -2000.00
00782               0.00    -2000.00
00783               2.00    -1800.00
00784               8.00    -1600.00
00785               6.00    -1600.00
00786              10.00    -1600.00
00787               6.00    -1400.00
00788              -8.00    -1600.00
00789              -2.00    -1400.00
00790              10.00    -1400.00
00791               8.00    -1400.00
00792               2.00    -1200.00
00793              -2.00    -1000.00
00794              -2.00    -1000.00
00795               6.00    -1000.00
00796               4.00     -800.00
00797              -2.00    -1000.00
00798               8.00     -800.00
00799               6.00     -800.00
00800              -8.00     -800.00
00801               0.00     -800.00
00802               0.00     -600.00
00803              -2.00     -600.00
00804              -2.00     -400.00
00805               0.00     -400.00
00806               6.00     -400.00
00807               6.00     -400.00
00808             -22.00     -200.00
00809             -10.00        0.00
00810              10.00        0.00
00811               6.00        0.00
00812              -6.00      200.00
00813             -10.00      200.00
00814               0.00      200.00
00815              10.00      400.00
00816               0.00      400.00
00817              -2.00      400.00
00818               6.00      400.00
00819               0.00      400.00
00820             -10.00      400.00
00821               0.00      800.00
00822               8.00      600.00
00823              80.00      800.00
00824             190.00     1000.00
00825            -108.00      800.00
00826            -254.00      800.00
00827             -56.00     1000.00
00828             246.00     1400.00
00829             246.00     1200.00
00830            -254.00      800.00
00831            -254.00     1200.00
00832             246.00     1600.00
00833             210.00     1400.00
00834            -254.00     1200.00
00835              38.00     1800.00
00836             246.00     1800.00
00837            -208.00     1400.00
00838            -230.00     1800.00
00839             176.00     2000.00
00840             -78.00     1600.00
00841             -24.00     1800.00
00842             198.00     2200.00
00843            -154.00     2000.00
00844            -114.00     2200.00
00845             158.00     2400.00
00846             -42.00     2200.00
00847             -42.00     2000.00
00848              94.00     2400.00
00849            -160.00     2400.00
00850              14.00     2600.00
00851             212.00     2800.00
00852            -194.00     2600.00
00853            -108.00     2800.00
00854             206.00     2800.00
00855             -58.00     2800.00
00856             -80.00     2800.00
00857              74.00     3200.00
00858             -74.00     2800.00
00859               0.00     3000.00
00860              64.00     3200.00
00861             -90.00     3200.00
00862              14.00     3200.00
00863              22.00     3200.00
00864             -64.00     3200.00
00865              46.00     3400.00
00866              -2.00     3400.00
00867             -80.00     3200.00
00868              34.00     3400.00
00869               2.00     3400.00
00870             -54.00     3600.00
00871              18.00     3600.00
00872               0.00     3600.00
00873             -32.00     3400.00
00874             -18.00     3600.00
00875             -12.00     3600.00
00876               6.00     3600.00
00877              -2.00     3800.00
00878             -30.00     3600.00
00879             -10.00     3800.00
00880              -2.00     4000.00
00881             -30.00     4000.00
00882              -8.00     4000.00
00883               6.00     4000.00
00884             -26.00     4000.00
00885             -18.00     4000.00
00886               4.00     4000.00
00887             -22.00     4200.00
00888             -24.00     4000.00
00889              -6.00     4200.00
00890             -10.00     4000.00
00891             -10.00     4200.00
00892             -18.00     4200.00
00893             -20.00     4200.00
00894              -2.00     4200.00
00895             -18.00     4200.00
00896             -22.00     4200.00
00897               0.00     4400.00
00898             -14.00     4200.00
00899             -24.00     4200.00
00900              -8.00     4400.00
00901             -16.00     4200.00
00902             -18.00     4200.00
00903             -10.00     4200.00
00904              -8.00     4400.00
00905             -10.00     4400.00
00906             -16.00     4400.00
00907             -20.00     4400.00
00908             -14.00     4200.00
00909             -10.00     4200.00
00910             -14.00     4200.00
00911             -10.00     4400.00
00912             -14.00     4400.00
00913             -22.00     4400.00
00914             -16.00     4400.00
00915             -14.00     4200.00
00916             -16.00     4200.00
00917             -16.00     4400.00
00918              -6.00     4200.00
00919             -16.00     4200.00
00920             -22.00     4200.00
00921             -16.00     4200.00
00922             -10.00     4400.00
00923              -8.00     4200.00
00924             -18.00     4200.00
00925             -16.00     4200.00
00926             -12.00     4200.00
00927             -22.00     4200.00
00928             -14.00     4200.00
00929              -6.00     4200.00
00930             -14.00     4000.00
00931             -20.00     4200.00
00932             -22.00     4200.00
00933             -16.00     4000.00
00934             -16.00     4000.00
00935             -12.00     4000.00
00936             -16.00     4000.00
00937             -16.00     4000.00
00938             -16.00     4000.00
00939             -14.00     3800.00
00940             -14.00     4000.00
00941             -18.00     3600.00
00942             -16.00     3600.00
00943             -16.00     3600.00
00944             -16.00     3800.00
00945             -16.00     3600.00
00946             -10.00     3600.00
00947             -16.00     3600.00
00948             -18.00     3400.00
00949             -16.00     3400.00
00950             -10.00     3400.00
00951             -10.00     3400.00
00952             -14.00     3200.00
00953             -16.00     3400.00
00954             -16.00     3200.00
00955             -16.00     3200.00
00956             -14.00     3200.00
00957              -8.00     3200.00
00958             -10.00     3200.00
00959             -14.00     3000.00
00960             -16.00     2800.00
00961             -12.00     3000.00
00962             -14.00     2800.00
00963             -10.00     2800.00
00964             -10.00     2800.00
00965             -10.00     2600.00
00966             -16.00     2800.00
00967             -16.00     2600.00
00968             -10.00     2600.00
00969              -8.00     2400.00
00970             -10.00     2600.00
00971             -10.00     2400.00
00972             -12.00     2400.00
00973             -10.00     2000.00
00974             -14.00     2200.00
00975              -8.00     2200.00
00976              -6.00     2000.00
00977              -8.00     2000.00
00978             -10.00     2000.00
00979              -8.00     1800.00
00980             -10.00     1800.00
00981             -10.00     1800.00
00982              -6.00     1800.00
00983              -8.00     1800.00
00984              -8.00     1600.00
00985              -6.00     1600.00
00986              -8.00     1600.00
00987             -10.00     1600.00
00988             -10.00     1200.00
00989              -6.00     1200.00
00990              -2.00     1400.00
00991              -2.00     1200.00
00992              -8.00     1200.00
00993              -6.00     1000.00
00994             -10.00      800.00
00995              -8.00      800.00
00996              -2.00      800.00
00997              -2.00      800.00
00998              -2.00      600.00
00999              -8.00      800.00
01000              -8.00      400.00
01001              -6.00      400.00
01002              -2.00      400.00
01003              -6.00      400.00
01004              -8.00      400.00
01005              -2.00      200.00
01006               0.00        0.00
01007               0.00        0.00
01008               2.00        0.00
01009               6.00        0.00
01010               0.00        0.00
01011              -8.00        0.00
01012              -6.00     -400.00
01013               0.00     -400.00
01014              16.00     -400.00
01015              86.00     -400.00
01016             158.00     -600.00
01017             -90.00     -800.00
01018            -254.00     -600.00
01019            -122.00     -400.00
01020             246.00     -600.00
01021             246.00    -1000.00
01022            -254.00    -1000.00
01023            -254.00     -800.00
01024             246.00    -1200.00
01025             246.00    -1200.00
01026            -254.00    -1000.00
01027            -178.00    -1000.00
01028             246.00    -1400.00
01029              54.00    -1200.00
01030             -94.00    -1400.00
01031             -50.00    -1600.00
01032            -138.00    -1400.00
01033              80.00    -1400.00
01034             246.00    -1600.00
01035            -136.00    -1600.00
01036            -222.00    -1800.00
01037              96.00    -2000.00
01038             136.00    -2000.00
01039             -14.00    -2000.00
01040             -52.00    -2200.00
01041             -80.00    -2000.00
01042              54.00    -2000.00
01043             144.00    -2400.00
01044             -98.00    -2200.00
01045            -104.00    -2200.00
01046              96.00    -2400.00
01047              70.00    -2600.00
01048             -50.00    -2400.00
01049             -16.00    -2600.00
01050              -2.00    -2600.00
01051              24.00    -2800.00
01052              38.00    -2800.00
01053             -26.00    -2800.00
01054             -26.00    -3000.00
01055              28.00    -3000.00
01056              30.00    -2800.00
01057              -6.00    -2800.00
01058             -10.00    -3200.00
01059              -2.00    -3000.00
01060              22.00    -3200.00
01061              18.00    -3200.00
01062             -14.00    -3000.00
01063              -8.00    -3200.00
01064              30.00    -3200.00
01065              12.00    -3200.00
01066             -24.00    -3200.00
01067               2.00    -3400.00
01068              24.00    -3400.00
01069              10.00    -3400.00
01070               0.00    -3600.00
01071              -2.00    -3400.00
01072              -4.00    -3600.00
01073               8.00    -3600.00
01074              14.00    -3600.00
01075               8.00    -3600.00
01076               6.00    -3600.00
01077               0.00    -3800.00
01078               8.00    -3600.00
01079               8.00    -3800.00
01080              -2.00    -3800.00
01081               8.00    -3800.00
01082              18.00    -3800.00
01083               8.00    -3800.00
01084              -2.00    -3800.00
01085               6.00    -3800.00
01086               8.00    -3800.00
01087               8.00    -3800.00
01088               8.00    -4000.00
01089              12.00    -4000.00
01090              10.00    -3800.00
01091               6.00    -3800.00
01092               2.00    -4000.00
01093               8.00    -3800.00
01094               8.00    -4000.00
01095              10.00    -3800.00
01096              16.00    -4000.00
01097              10.00    -4000.00
01098               0.00    -4000.00
01099               6.00    -4000.00
01100              12.00    -4000.00
01101              14.00    -3800.00
01102              10.00    -3800.00
01103              10.00    -3800.00
01104               8.00    -3800.00
01105               8.00    -4000.00
01106               8.00    -4000.00
01107              10.00    -4000.00
01108              14.00    -3800.00
01109              14.00    -3800.00
01110              10.00    -4000.00
01111               8.00    -3800.00
01112               6.00    -4000.00
01113              10.00    -3800.00
01114              14.00    -4000.00
01115              14.00    -3800.00
01116              14.00    -3800.00
01117              10.00    -3800.00
01118               6.00    -3800.00
01119               8.00    -3800.00
01120              10.00    -3800.00
01121              10.00    -3600.00
01122              14.00    -3600.00
01123              14.00    -3800.00
01124               8.00    -3600.00
01125               8.00    -3800.00
01126               8.00    -3600.00
01127               8.00    -3600.00
01128              16.00    -3600.00
01129              10.00    -3600.00
01130               8.00    -3600.00
01131               6.00    -3400.00
01132               6.00    -3600.00
01133               6.00    -3400.00
01134              10.00    -3400.00
01135              12.00    -3400.00
01136              10.00    -3200.00
01137               8.00    -3200.00
01138               8.00    -3200.00
01139               6.00    -3200.00
01140               6.00    -3200.00
01141               8.00    -3200.00
01142              10.00    -3200.00
01143               6.00    -3000.00
01144               4.00    -3000.00
01145               6.00    -3000.00
01146               6.00    -2800.00
01147               6.00    -3000.00
01148               8.00    -2800.00
01149               8.00    -2800.00
01150               6.00    -2800.00
01151               2.00    -2800.00
01152               6.00    -2600.00
01153               4.00    -2600.00
01154               8.00    -2400.00
01155               6.00    -2400.00
01156               6.00    -2400.00
01157               6.00    -2400.00
01158               2.00    -2200.00
01159               6.00    -2400.00
01160               4.00    -2200.00
01161               6.00    -2200.00
01162               6.00    -2000.00
01163               6.00    -2000.00
01164               2.00    -2000.00
01165               0.00    -2000.00
01166               0.00    -1600.00
01167               6.00    -2000.00
01168               6.00    -1600.00
01169               2.00    -1600.00
01170               2.00    -1600.00
01171               2.00    -1400.00
01172               0.00    -1400.00
01173               6.00    -1400.00
01174               0.00    -1000.00
01175               2.00    -1400.00
01176              -2.00    -1000.00
01177               2.00    -1200.00
01178              -6.00    -1000.00
01179             -16.00    -1200.00
01180               8.00     -800.00
01181              16.00     -800.00
01182              26.00     -800.00
01183               6.00     -600.00
01184               2.00     -800.00
01185              -2.00     -600.00
01186             -16.00     -600.00
01187             -24.00     -600.00
01188              -8.00     -400.00
01189              14.00     -400.00
01190              16.00     -200.00
01191               6.00     -200.00
01192              -6.00        0.00
01193               8.00     -400.00
01194              -2.00        0.00
01195             -10.00        0.00
01196              -6.00      200.00
01197              -6.00        0.00
01198              -6.00      400.00
01199               0.00      400.00
01200              10.00      400.00
01201              16.00      400.00
01202               4.00      400.00
01203             -16.00      400.00
01204              -2.00      400.00
01205               6.00      600.00
01206              66.00      800.00
01207             192.00     1000.00
01208             -64.00     1000.00
01209            -254.00      800.00
01210            -136.00     1000.00
01211             246.00     1200.00
01212             246.00     1200.00
01213            -254.00      800.00
01214            -254.00     1200.00
01215             246.00     1600.00
01216             246.00     1200.00
01217            -254.00     1200.00
01218             -50.00     1800.00
01219             246.00     1800.00
01220            -152.00     1400.00
01221            -254.00     1600.00
01222             174.00     2000.00
01223             -58.00     1800.00
01224             -50.00     1800.00
01225             192.00     2000.00
01226            -126.00     2000.00
01227            -144.00     2000.00
01228             154.00     2200.00
01229             -22.00     2400.00
01230             -56.00     2200.00
01231             102.00     2400.00
01232            -150.00     2400.00
01233             -22.00     2600.00
01234             216.00     2600.00
01235            -166.00     2600.00
01236            -138.00     2800.00
01237             204.00     2800.00
01238             -32.00     2600.00
01239             -98.00     2800.00
01240              74.00     3000.00
01241             -62.00     3000.00
01242             -16.00     3000.00
01243              72.00     3200.00
01244             -88.00     3000.00
01245               0.00     3200.00
01246              32.00     3200.00
01247             -64.00     3200.00
01248              34.00     3400.00
01249              10.00     3200.00
01250             -82.00     3400.00
01251              30.00     3600.00
01252              10.00     3400.00
01253             -54.00     3600.00
01254              16.00     3600.00
01255               8.00     3600.00
01256             -30.00     3600.00
01257             -16.00     3600.00
01258             -10.00     3600.00
01259               4.00     3600.00
01260               2.00     3800.00
01261             -32.00     3600.00
01262             -10.00     3600.00
01263              -6.00     4000.00
01264             -28.00     4000.00
01265             -10.00     4000.00
01266               8.00     4200.00
01267             -24.00     4000.00
01268             -24.00     4000.00
01269               2.00     4000.00
01270             -20.00     4200.00
01271             -22.00     4200.00
01272              -2.00     4200.00
01273              -8.00     4200.00
01274              -8.00     4200.00
01275             -22.00     4200.00
01276             -22.00     4000.00
01277              -6.00     4000.00
01278             -16.00     4200.00
01279             -22.00     4200.00
01280               0.00     4200.00
01281             -14.00     4200.00
01282             -26.00     4200.00
01283             -10.00     4400.00
01284             -10.00     4400.00
01285             -18.00     4200.00
01286             -10.00     4400.00
01287             -10.00     4200.00
01288             -14.00     4400.00
01289             -16.00     4400.00
01290             -18.00     4400.00
01291             -14.00     4400.00
01292             -10.00     4400.00
01293             -16.00     4400.00
01294             -14.00     4400.00
01295             -10.00     4400.00
01296             -24.00     4200.00
01297             -18.00     4400.00
01298             -14.00     4400.00
01299             -10.00     4400.00
01300             -10.00     4200.00
01301             -10.00     4200.00
01302             -22.00     4400.00
01303             -20.00     4200.00
01304             -14.00     4200.00
01305              -8.00     4400.00
01306             -10.00     4200.00
01307             -20.00     4200.00
01308             -18.00     4200.00
01309             -10.00     4200.00
01310             -18.00     4200.00
01311             -18.00     4200.00
01312             -10.00     4000.00
01313             -14.00     4200.00
01314             -16.00     4000.00
01315             -14.00     4000.00
01316             -16.00     4000.00
01317             -16.00     4000.00
01318             -16.00     4000.00
01319             -14.00     3800.00
01320             -14.00     3800.00
01321             -14.00     3800.00
01322             -14.00     3800.00
01323             -16.00     4000.00
01324             -18.00     3600.00
01325             -18.00     3600.00
01326             -14.00     3600.00
01327             -14.00     3600.00
01328             -14.00     3600.00
01329             -12.00     3600.00
01330             -16.00     3400.00
01331             -18.00     3600.00
01332             -16.00     3600.00
01333             -12.00     3600.00
01334             -10.00     3400.00
01335             -14.00     3400.00
01336             -18.00     3400.00
01337             -10.00     3400.00
01338             -14.00     3200.00
01339             -14.00     3200.00
01340             -10.00     3200.00
01341             -14.00     3200.00
01342             -16.00     3000.00
01343             -16.00     3000.00
01344             -10.00     2800.00
01345             -10.00     2800.00
01346             -14.00     2800.00
01347             -14.00     2800.00
01348             -14.00     2600.00
01349             -16.00     2800.00
01350             -14.00     2600.00
01351              -6.00     2600.00
01352              -8.00     2400.00
01353             -10.00     2400.00
01354             -10.00     2600.00
01355             -10.00     2400.00
01356             -14.00     2400.00
01357             -14.00     2200.00
01358             -10.00     2200.00
01359              -8.00     2000.00
01360             -10.00     2000.00
01361              -8.00     2000.00
01362             -10.00     1800.00
01363             -10.00     1800.00
01364             -10.00     1800.00
01365              -6.00     1600.00
01366              -6.00     1600.00
01367              -6.00     1600.00
01368              -8.00     1600.00
01369              -6.00     1600.00
01370             -10.00     1600.00
01371             -10.00     1400.00
01372              -6.00     1200.00
01373              -2.00     1200.00
01374              -4.00     1200.00
01375              -8.00     1000.00
01376              -8.00     1000.00
01377              -6.00     1000.00
01378              -6.00     1000.00
01379              -6.00      800.00
01380              -2.00      800.00
01381              -2.00      800.00
01382              -6.00      600.00
01383              -8.00      600.00
01384              -2.00      600.00
01385              -2.00      400.00
01386              -8.00      400.00
01387              -8.00      200.00
01388               2.00      200.00
01389               6.00      200.00
01390               0.00      200.00
01391              -2.00        0.00
01392               6.00        0.00
01393               2.00        0.00
01394              -6.00        0.00
01395              -8.00     -400.00
01396               0.00     -400.00
01397              16.00     -200.00
01398              74.00     -400.00
01399             160.00     -600.00
01400             -56.00     -800.00
01401            -254.00     -800.00
01402            -192.00     -400.00
01403             246.00     -800.00
01404             246.00     -800.00
01405            -254.00    -1000.00
01406            -254.00     -800.00
01407             246.00    -1200.00
01408             246.00    -1000.00
01409            -254.00    -1200.00
01410            -238.00    -1000.00
01411             246.00    -1400.00
01412              82.00    -1200.00
01413             -96.00    -1400.00
01414             -48.00    -1600.00
01415            -140.00    -1600.00
01416              54.00    -1600.00
01417             246.00    -1600.00
01418             -98.00    -1600.00
01419            -238.00    -1800.00
01420              72.00    -2000.00
01421             150.00    -1800.00
01422             -10.00    -2000.00
01423             -48.00    -2200.00
01424             -84.00    -2200.00
01425              38.00    -2000.00
01426             152.00    -2400.00
01427             -82.00    -2200.00
01428            -118.00    -2200.00
01429              86.00    -2400.00
01430              82.00    -2400.00
01431             -50.00    -2400.00
01432             -22.00    -2600.00
01433              -2.00    -2800.00
01434              24.00    -2800.00
01435              46.00    -2800.00
01436             -24.00    -2800.00
01437             -32.00    -2800.00
01438              24.00    -2800.00
01439              32.00    -2800.00
01440              -4.00    -3000.00
01441              -8.00    -3000.00
01442              -4.00    -3000.00
01443              22.00    -3200.00
01444              22.00    -3200.00
01445             -10.00    -3200.00
01446             -10.00    -3200.00
01447              30.00    -3200.00
01448              16.00    -3200.00
01449             -18.00    -3200.00
01450               0.00    -3200.00
01451              24.00    -3400.00
01452              14.00    -3600.00
01453               4.00    -3200.00
01454              -2.00    -3600.00
01455              -2.00    -3600.00
01456               8.00    -3600.00
01457              16.00    -3600.00
01458               8.00    -3800.00
01459               2.00    -3600.00
01460               2.00    -3600.00
01461              10.00    -3600.00
01462               8.00    -3800.00
01463               0.00    -3800.00
01464               6.00    -3800.00
01465              16.00    -3800.00
01466               8.00    -3800.00
01467               0.00    -3800.00
01468               4.00    -3800.00
01469              10.00    -4000.00
01470               8.00    -3800.00
01471               8.00    -4000.00
01472              10.00    -4000.00
01473              12.00    -4000.00
01474               6.00    -4000.00
01475               0.00    -4000.00
01476               6.00    -4000.00
01477               8.00    -4000.00
01478               8.00    -4000.00
01479              16.00    -4000.00
01480               8.00    -4000.00
01481               2.00    -4000.00
01482               6.00    -4000.00
01483              10.00    -4000.00
01484              10.00    -4000.00
01485              14.00    -4000.00
01486              12.00    -4000.00
01487              10.00    -4000.00
01488               6.00    -4000.00
01489               6.00    -3800.00
01490              10.00    -4000.00
01491              14.00    -4000.00
01492              10.00    -4000.00
01493              14.00    -3800.00
01494               8.00    -4000.00
01495               4.00    -3800.00
01496               8.00    -3800.00
01497              14.00    -4000.00
01498              14.00    -3800.00
01499              12.00    -4000.00
01500               8.00    -3800.00
01501               8.00    -3800.00
01502               6.00    -3800.00
01503              10.00    -3600.00
01504              14.00    -3800.00
01505              14.00    -3800.00
01506              10.00    -3800.00
01507               8.00    -3600.00
01508               6.00    -3800.00
01509               8.00    -3600.00
01510              14.00    -3600.00
01511              14.00    -3600.00
01512              12.00    -3600.00
01513               6.00    -3600.00
01514               8.00    -3600.00
01515              10.00    -3600.00
01516               6.00    -3400.00
01517              10.00    -3400.00
01518              10.00    -3400.00
01519              12.00    -3200.00
01520               8.00    -3200.00
01521               6.00    -3200.00
01522               6.00    -3200.00
01523               8.00    -3200.00
01524               8.00    -3200.00
01525              10.00    -3000.00
01526               8.00    -3000.00
01527               6.00    -3000.00
01528               4.00    -3000.00
01529               8.00    -3000.00
01530               8.00    -2800.00
01531               8.00    -2800.00
01532               8.00    -2800.00
01533               8.00    -2800.00
01534               2.00    -2800.00
01535               2.00    -2800.00
01536               6.00    -2600.00
01537               6.00    -2600.00
01538               6.00    -2400.00
01539               6.00    -2400.00
01540               2.00    -2400.00
01541               2.00    -2200.00
01542               2.00    -2400.00
01543               6.00    -2200.00
01544               6.00    -2200.00
01545               2.00    -2200.00
01546               0.00    -2000.00
01547               4.00    -2000.00
01548               6.00    -2000.00
01549               2.00    -1800.00
01550               2.00    -1600.00
01551               2.00    -1600.00
01552               2.00    -1600.00
01553               6.00    -1600.00
01554               2.00    -1600.00
01555               0.00    -1400.00
01556               0.00    -1400.00
01557               0.00    -1400.00
01558               6.00    -1000.00
01559               2.00    -1200.00
01560               0.00    -1200.00
01561               0.00    -1000.00
01562               0.00    -1000.00
01563               0.00     -800.00
01564               2.00     -800.00
01565               6.00     -800.00
01566               0.00     -600.00
01567              -2.00     -600.00
01568              -2.00     -600.00
01569              -2.00     -600.00
01570               0.00     -600.00
01571               2.00     -400.00
01572               2.00     -400.00
01573               2.00     -200.00
01574              -2.00     -400.00
01575              -6.00     -200.00
01576               0.00        0.00
01577               0.00        0.00
01578              -2.00        0.00
01579              -2.00      200.00
01580               2.00      200.00
01581               6.00      200.00
01582               2.00      400.00
01583               2.00      400.00
01584               6.00      400.00
01585              -2.00      400.00
01586              -8.00      400.00
01587              -6.00      400.00
01588               2.00      800.00
01589              64.00      800.00
01590             196.00     1000.00
01591             -26.00     1000.00
01592            -254.00      800.00
01593            -212.00      800.00
01594             246.00     1200.00
01595             246.00     1200.00
01596            -254.00      800.00
01597            -254.00     1200.00
01598             246.00     1600.00
01599             246.00     1200.00
01600            -254.00     1200.00
01601            -130.00     1800.00
01602             246.00     1800.00
01603             -90.00     1400.00
01604            -254.00     1600.00
01605             146.00     2000.00
01606             -34.00     1800.00
01607             -62.00     1800.00
01608             192.00     2000.00
01609             -90.00     2000.00
01610            -172.00     2000.00
01611             148.00     2000.00
01612               4.00     2200.00
01613             -80.00     2400.00
01614             102.00     2400.00
01615            -120.00     2400.00
01616             -50.00     2600.00
01617             224.00     2600.00
01618            -130.00     2400.00
01619            -170.00     2600.00
01620             192.00     2800.00
01621             -10.00     2600.00
01622            -118.00     2800.00
01623              78.00     3200.00
01624             -46.00     2800.00
01625             -32.00     3000.00
01626              78.00     3200.00
01627             -78.00     3000.00
01628             -16.00     3200.00
01629              40.00     3400.00
01630             -64.00     3200.00
01631              28.00     3400.00
01632              22.00     3400.00
01633             -88.00     3400.00
01634              22.00     3600.00
01635              26.00     3400.00
01636             -54.00     3400.00
01637               6.00     3600.00
01638               6.00     3600.00
01639             -30.00     3400.00
01640             -16.00     3600.00
01641              -8.00     3600.00
01642               4.00     3600.00
01643               6.00     3800.00
01644             -32.00     3600.00
01645             -20.00     3600.00
01646               0.00     4000.00
01647             -20.00     4000.00
01648              -8.00     3800.00
01649              10.00     4000.00
01650             -24.00     4000.00
01651             -26.00     4000.00
01652               2.00     4200.00
01653             -16.00     4000.00
01654             -26.00     4000.00
01655              -6.00     4200.00
01656             -10.00     4000.00
01657             -10.00     4200.00
01658             -16.00     4000.00
01659             -20.00     4200.00
01660              -6.00     4200.00
01661             -16.00     4200.00
01662             -26.00     4200.00
01663               0.00     4400.00
01664              -8.00     4400.00
01665             -24.00     4200.00
01666             -16.00     4200.00
01667             -12.00     4200.00
01668             -14.00     4200.00
01669             -10.00     4200.00
01670             -16.00     4400.00
01671             -16.00     4400.00
01672             -14.00     4200.00
01673             -22.00     4400.00
01674             -10.00     4200.00
01675             -10.00     4400.00
01676             -20.00     4200.00
01677             -14.00     4400.00
01678             -16.00     4400.00
01679             -22.00     4400.00
01680             -10.00     4400.00
01681             -10.00     4200.00
01682             -18.00     4200.00
01683             -18.00     4200.00
01684             -14.00     4400.00
01685             -14.00     4400.00
01686             -16.00     4200.00
01687             -18.00     4200.00
01688             -16.00     4200.00
01689             -10.00     4200.00
01690             -14.00     4200.00
01691             -18.00     4000.00
01692             -16.00     4200.00
01693             -22.00     4200.00
01694             -14.00     4200.00
01695              -2.00     4200.00
01696             -10.00     4000.00
01697             -22.00     4200.00
01698             -22.00     4000.00
01699             -16.00     4000.00
01700             -14.00     4000.00
01701             -12.00     4000.00
01702             -14.00     4000.00
01703             -16.00     4000.00
01704             -14.00     4000.00
01705             -16.00     4000.00
01706             -14.00     4000.00
01707             -16.00     3800.00
01708             -16.00     3600.00
01709             -10.00     3600.00
01710             -10.00     3600.00
01711             -16.00     3800.00
01712             -14.00     3600.00
01713             -16.00     3600.00
01714             -18.00     3600.00
01715             -16.00     3400.00
01716             -10.00     3400.00
01717             -10.00     3400.00
01718             -14.00     3400.00
01719             -16.00     3200.00
01720             -14.00     3200.00
01721             -16.00     3200.00
01722             -14.00     3200.00
01723             -10.00     3200.00
01724             -10.00     3000.00
01725             -16.00     2800.00
01726             -16.00     3000.00
01727             -10.00     2800.00
01728             -10.00     2800.00
01729             -14.00     2800.00
01730             -10.00     2800.00
01731             -14.00     2800.00
01732             -16.00     2800.00
01733             -16.00     2800.00
01734              -8.00     2600.00
01735              -8.00     2600.00
01736             -12.00     2400.00
01737             -14.00     2400.00
01738             -14.00     2400.00
01739             -14.00     2400.00
01740             -10.00     2000.00
01741              -6.00     2000.00
01742              -8.00     2000.00
01743             -10.00     2000.00
01744             -10.00     2000.00
01745              -8.00     2000.00
01746              -8.00     1800.00
01747              -8.00     1800.00
01748             -10.00     1800.00
01749             -10.00     1600.00
01750             -10.00     1600.00
01751              -8.00     1600.00
01752              -2.00     1600.00
01753              -6.00     1400.00
01754             -10.00     1400.00
01755             -10.00     1200.00
01756              -2.00     1200.00
01757              -6.00     1200.00
01758              -8.00     1200.00
01759              -8.00     1000.00
01760              -6.00     1000.00
01761              -8.00      800.00
01762              -4.00      800.00
01763              -2.00      800.00
01764              -2.00      800.00
01765              -2.00      600.00
01766              -8.00      600.00
01767              -6.00      600.00
01768              -2.00      400.00
01769              -4.00      400.00
01770              -6.00      200.00
01771               0.00      200.00
01772               2.00      200.00
01773               2.00      200.00
01774               2.00        0.00
01775               6.00        0.00
01776               2.00        0.00
01777              -8.00     -200.00
01778              -6.00        0.00
01779               0.00     -400.00
01780              14.00     -200.00
01781              66.00     -400.00
01782             162.00     -600.00
01783             -26.00     -800.00
01784            -254.00     -800.00
01785            -254.00     -600.00
01786             246.00     -600.00
01787             246.00     -800.00
01788            -254.00    -1000.00
01789            -254.00     -800.00
01790             246.00    -1200.00
01791             246.00    -1200.00
01792            -254.00    -1000.00
01793            -254.00    -1200.00
01794             246.00    -1200.00
01795             120.00    -1200.00
01796            -102.00    -1600.00
01797             -50.00    -1600.00
01798            -138.00    -1400.00
01799              32.00    -1600.00
01800             246.00    -1800.00
01801             -66.00    -1600.00
01802            -254.00    -1600.00
01803              48.00    -2200.00
01804             160.00    -2000.00
01805              -8.00    -2000.00
01806             -48.00    -2200.00
01807             -86.00    -2000.00
01808              24.00    -2000.00
01809             154.00    -2400.00
01810             -62.00    -2400.00
01811            -128.00    -2400.00
01812              72.00    -2400.00
01813              94.00    -2400.00
01814             -50.00    -2400.00
01815             -24.00    -2600.00
01816              -6.00    -2800.00
01817              22.00    -2600.00
01818              40.00    -2800.00
01819             -16.00    -3000.00
01820             -40.00    -2800.00
01821              22.00    -3000.00
01822              36.00    -3000.00
01823              -2.00    -3000.00
01824             -14.00    -3200.00
01825              -8.00    -3200.00
01826              22.00    -3000.00
01827              22.00    -3200.00
01828              -8.00    -3000.00
01829             -14.00    -3200.00
01830              28.00    -3200.00
01831              18.00    -3200.00
01832             -18.00    -3200.00
01833              -2.00    -3200.00
01834              24.00    -3400.00
01835              16.00    -3600.00
01836               2.00    -3400.00
01837               0.00    -3600.00
01838               0.00    -3600.00
01839               8.00    -3600.00
01840              16.00    -3400.00
01841              10.00    -3600.00
01842               6.00    -3600.00
01843               2.00    -3600.00
01844               8.00    -3800.00
01845              10.00    -3800.00
01846               0.00    -3800.00
01847               6.00    -3800.00
01848              14.00    -3800.00
01849               6.00    -3800.00
01850               0.00    -3800.00
01851               6.00    -3800.00
01852               8.00    -3800.00
01853               2.00    -4000.00
01854               4.00    -3800.00
01855              10.00    -4000.00
01856              16.00    -4000.00
01857              10.00    -4000.00
01858               0.00    -4000.00
01859               0.00    -4000.00
01860               2.00    -4000.00
01861              10.00    -4000.00
01862              22.00    -4000.00
01863              14.00    -4000.00
01864              -2.00    -4000.00
01865               0.00    -4000.00
01866              10.00    -4000.00
01867              16.00    -4000.00
01868              12.00    -4000.00
01869               8.00    -3800.00
01870               2.00    -4000.00
01871               6.00    -3800.00
01872              10.00    -4000.00
01873              14.00    -4000.00
01874              10.00    -4000.00
01875               8.00    -3800.00
01876               8.00    -3800.00
01877              10.00    -4000.00
01878               8.00    -4000.00
01879              10.00    -3800.00
01880              10.00    -3800.00
01881               8.00    -4000.00
01882               8.00    -3800.00
01883              10.00    -3800.00
01884               8.00    -3800.00
01885               8.00    -3800.00
01886              10.00    -3800.00
01887              10.00    -3800.00
01888              14.00    -3800.00
01889              14.00    -3600.00
01890              10.00    -3800.00
01891               6.00    -3600.00
01892               6.00    -3600.00
01893               8.00    -3600.00
01894              14.00    -3600.00
01895              16.00    -3600.00
01896              12.00    -3600.00
01897               6.00    -3600.00
01898               6.00    -3600.00
01899               6.00    -3400.00
01900              14.00    -3400.00
01901              18.00    -3400.00
01902              14.00    -3200.00
01903               8.00    -3200.00
01904               2.00    -3200.00
01905               2.00    -3200.00
01906              10.00    -3200.00
01907              14.00    -3200.00
01908              12.00    -3000.00
01909               8.00    -3000.00
01910               2.00    -3000.00
01911               2.00    -3000.00
01912              10.00    -2800.00
01913              10.00    -3000.00
01914               8.00    -2800.00
01915               6.00    -2800.00
01916               2.00    -2800.00
01917               6.00    -2800.00
01918               6.00    -2600.00
01919               6.00    -2400.00
01920               6.00    -2600.00
01921               6.00    -2400.00
01922               8.00    -2400.00
01923               6.00    -2400.00
01924               2.00    -2400.00
01925               0.00    -2200.00
01926               6.00    -2400.00
01927               6.00    -2200.00
01928               2.00    -2200.00
01929               6.00    -2000.00
01930               2.00    -2000.00
01931               0.00    -2000.00
01932               2.00    -1800.00
01933               0.00    -1600.00
01934               0.00    -1800.00
01935               2.00    -1600.00
01936               6.00    -1600.00
01937               4.00    -1600.00
01938               0.00    -1400.00
01939              -4.00    -1400.00
01940              -2.00    -1400.00
01941               4.00    -1200.00
01942               6.00    -1200.00
01943               0.00    -1000.00
01944               2.00    -1000.00
01945              -2.00    -1000.00
01946              -6.00     -800.00
01947               2.00    -1000.00
01948               2.00     -800.00
01949               2.00     -800.00
01950               4.00     -600.00
01951               2.00     -600.00
01952              -2.00     -600.00
01953              -6.00     -400.00
01954              -2.00     -400.00
01955              10.00     -400.00
01956               8.00        0.00
01957              -6.00     -400.00
01958             -10.00        0.00
01959               0.00     -200.00
01960               4.00        0.00
01961               0.00      200.00
01962              -2.00        0.00
01963               2.00      200.00
01964               6.00      400.00
01965               2.00      200.00
01966               6.00      400.00
01967               8.00      400.00
01968              -2.00      400.00
01969             -10.00      400.00
01970               0.00      600.00
01971               6.00      800.00
01972              56.00      800.00
01973             190.00     1000.00
01974              14.00     1000.00
01975            -254.00      800.00
01976            -254.00      800.00
01977             246.00     1200.00
01978             246.00     1400.00
01979            -254.00      800.00
01980            -254.00     1000.00
01981             246.00     1600.00
01982             246.00     1400.00
01983            -254.00     1200.00
01984            -210.00     1600.00
01985             246.00     1800.00
01986             -34.00     1600.00
01987            -254.00     1600.00
01988             126.00     2000.00
01989             -10.00     1800.00
01990             -80.00     1800.00
01991             182.00     2000.00
01992             -50.00     2000.00
01993            -192.00     2000.00
01994             134.00     2400.00
01995              22.00     2200.00
01996             -94.00     2200.00
01997             102.00     2400.00
01998            -104.00     2400.00
01999             -82.00     2600.00
02000             224.00     2800.00
02001             -90.00     2400.00
02002            -194.00     2600.00
02003             174.00     2800.00
02004              14.00     2800.00
02005            -128.00     2800.00
02006              80.00     3000.00
02007             -32.00     3000.00
02008             -50.00     2800.00
02009              78.00     3200.00
02010             -66.00     3200.00
02011             -24.00     3000.00
02012              48.00     3200.00
02013             -66.00     3200.00
02014              14.00     3200.00
02015              30.00     3400.00
02016             -80.00     3200.00
02017              16.00     3400.00
02018              26.00     3600.00
02019             -56.00     3600.00
02020              10.00     3600.00
02021              16.00     3800.00
02022             -34.00     3600.00
02023             -26.00     3600.00
02024             -14.00     3800.00
02025              10.00     3600.00
02026              14.00     3800.00
02027             -32.00     3800.00
02028             -26.00     3800.00
02029              -2.00     4000.00
02030             -18.00     4000.00
02031              -2.00     4000.00
02032              14.00     4000.00
02033             -30.00     4000.00
02034             -34.00     4000.00
02035               4.00     4000.00
02036              -4.00     4000.00
02037             -16.00     4000.00
02038             -10.00     4000.00
02039             -10.00     4200.00
02040             -10.00     4200.00
02041             -16.00     4200.00
02042             -22.00     4200.00
02043               0.00     4200.00
02044             -16.00     4000.00
02045             -28.00     4200.00
02046              -2.00     4400.00
02047              -6.00     4400.00
02048             -24.00     4200.00
02049             -16.00     4200.00
02050             -16.00     4200.00
02051             -20.00     4200.00
02052             -10.00     4200.00
02053             -10.00     4400.00
02054             -10.00     4200.00
02055             -18.00     4200.00
02056             -24.00     4400.00
02057             -16.00     4400.00
02058             -10.00     4400.00
02059             -10.00     4400.00
02060             -14.00     4400.00
02061             -16.00     4400.00
02062             -22.00     4200.00
02063             -18.00     4400.00
02064             -14.00     4200.00
02065             -16.00     4400.00
02066             -14.00     4400.00
02067              -8.00     4200.00
02068             -18.00     4200.00
02069             -30.00     4200.00
02070             -22.00     4400.00
02071             -10.00     4200.00
02072              -8.00     4200.00
02073             -16.00     4200.00
02074             -16.00     4200.00
02075             -16.00     4200.00
02076             -24.00     4200.00
02077             -22.00     4200.00
02078             -10.00     4000.00
02079             -10.00     4000.00
02080             -16.00     4000.00
02081             -18.00     4200.00
02082             -16.00     4000.00
02083             -18.00     4000.00
02084             -16.00     4000.00
02085             -14.00     3800.00
02086             -10.00     4000.00
02087             -16.00     4000.00
02088             -16.00     3800.00
02089             -16.00     4000.00
02090             -14.00     3800.00
02091             -14.00     3600.00
02092             -10.00     3600.00
02093             -14.00     3600.00
02094             -16.00     3600.00
02095             -16.00     3800.00
02096             -18.00     3600.00
02097             -16.00     3400.00
02098             -16.00     3400.00
02099              -8.00     3600.00
02100             -10.00     3400.00
02101             -14.00     3400.00
02102             -18.00     3400.00
02103             -16.00     3400.00
02104             -16.00     3200.00
02105             -10.00     3200.00
02106              -6.00     3000.00
02107             -14.00     3200.00
02108             -18.00     3000.00
02109             -14.00     2800.00
02110             -14.00     2800.00
02111             -10.00     3000.00
02112             -14.00     2800.00
02113             -14.00     2800.00
02114             -10.00     2800.00
02115             -14.00     2600.00
02116             -14.00     2600.00
02117              -8.00     2600.00
02118             -10.00     2400.00
02119             -10.00     2600.00
02120             -14.00     2400.00
02121             -10.00     2400.00
02122             -12.00     2200.00
02123             -10.00     2200.00
02124             -10.00     2000.00
02125              -8.00     2000.00
02126             -10.00     2000.00
02127             -10.00     2000.00
02128              -8.00     1800.00
02129             -10.00     1800.00
02130             -12.00     1800.00
02131             -10.00     1600.00
02132              -8.00     1600.00
02133              -8.00     1600.00
02134              -8.00     1600.00
02135              -6.00     1400.00
02136              -8.00     1600.00
02137              -8.00     1400.00
02138              -6.00     1200.00
02139              -6.00     1200.00
02140              -4.00     1200.00
02141             -10.00     1000.00
02142             -10.00     1000.00
02143              -6.00     1000.00
02144              -8.00      800.00
02145              -6.00      800.00
02146               0.00      800.00
02147              -2.00      800.00
02148              -6.00      800.00
02149              -6.00      800.00
02150              -6.00      600.00
02151              -2.00      400.00
02152              -2.00      400.00
02153              -8.00      400.00
02154              -2.00      200.00
02155               2.00      200.00
02156               0.00        0.00
02157               2.00        0.00
02158               8.00        0.00
02159               2.00        0.00
02160              -6.00        0.00
02161              -8.00     -400.00
02162               0.00     -200.00
02163              14.00     -400.00
02164              58.00     -400.00
02165             160.00     -400.00
02166               6.00     -800.00
02167            -254.00     -600.00
02168            -254.00     -400.00
02169             246.00     -600.00
02170             246.00     -800.00
02171            -254.00    -1000.00
02172            -254.00     -800.00
02173             246.00    -1200.00
02174             246.00    -1000.00
02175            -254.00    -1200.00
02176            -254.00    -1200.00
02177             246.00    -1400.00
02178             146.00    -1000.00
02179            -100.00    -1400.00
02180             -42.00    -1600.00
02181            -128.00    -1400.00
02182               6.00    -1600.00
02183             246.00    -1800.00
02184             -30.00    -1800.00
02185            -254.00    -1600.00
02186              28.00    -2000.00
02187             170.00    -2000.00
02188              -6.00    -2000.00
02189             -42.00    -2200.00
02190             -88.00    -2200.00
02191               6.00    -2000.00
02192             154.00    -2400.00
02193             -32.00    -2400.00
02194            -138.00    -2200.00
02195              64.00    -2400.00
02196             114.00    -2400.00
02197             -34.00    -2400.00
02198             -38.00    -2400.00
02199             -34.00    -2800.00
02200              -8.00    -2600.00
02201              38.00    -2800.00
02202               8.00    -2800.00
02203             -24.00    -2800.00
02204              26.00    -2800.00
02205              40.00    -2800.00
02206               2.00    -3000.00
02207             -10.00    -2800.00
02208             -10.00    -3000.00
02209               4.00    -3000.00
02210               2.00    -3200.00
02211             -16.00    -3200.00
02212             -10.00    -3000.00
02213              50.00    -3200.00
02214              48.00    -3200.00
02215             -14.00    -3200.00
02216             -26.00    -3400.00
02217               4.00    -3400.00
02218              10.00    -3200.00
02219              12.00    -3600.00
02220               6.00    -3600.00
02221              -8.00    -3600.00
02222               6.00    -3600.00
02223              18.00    -3600.00
02224              20.00    -3600.00
02225              14.00    -3600.00
02226               6.00    -3600.00
02227               4.00    -3800.00
02228               2.00    -3600.00
02229              -8.00    -3800.00
02230               0.00    -3800.00
02231              18.00    -3800.00
02232              20.00    -3800.00
02233               8.00    -3800.00
02234              10.00    -3800.00
02235              10.00    -4000.00
02236               6.00    -3800.00
02237               2.00    -4000.00
02238               8.00    -3800.00
02239              10.00    -4000.00
02240               8.00    -3800.00
02241               0.00    -4000.00
02242               6.00    -4000.00
02243              10.00    -4000.00
02244              14.00    -4000.00
02245              16.00    -4000.00
02246               8.00    -4000.00
02247               2.00    -3800.00
02248               0.00    -4000.00
02249               2.00    -4000.00
02250              14.00    -4000.00
02251              16.00    -4000.00
02252               8.00    -4000.00
02253              14.00    -4000.00
02254               8.00    -4000.00
02255               2.00    -4200.00
02256              10.00    -4000.00
02257               6.00    -4000.00
02258               6.00    -4000.00
02259              16.00    -3800.00
02260              18.00    -4000.00
02261              14.00    -4000.00
02262               2.00    -4000.00
02263              -8.00    -4000.00
02264              10.00    -3800.00
02265              26.00    -4000.00
02266              16.00    -3800.00
02267              -4.00    -3800.00
02268               6.00    -3800.00
02269              14.00    -3800.00
02270              22.00    -3600.00
02271              14.00    -3800.00
02272               6.00    -3800.00
02273               6.00    -3800.00
02274               2.00    -3800.00
02275               4.00    -3600.00
02276              14.00    -3600.00
02277              16.00    -3600.00
02278              16.00    -3600.00
02279              12.00    -3600.00
02280               6.00    -3600.00
02281               2.00    -3400.00
02282               8.00    -3400.00
02283              16.00    -3400.00
02284              14.00    -3200.00
02285               8.00    -3200.00
02286               2.00    -3200.00
02287               8.00    -3200.00
02288              14.00    -3200.00
02289               8.00    -3200.00
02290               6.00    -3000.00
02291              10.00    -3000.00
02292              10.00    -3000.00
02293              14.00    -3000.00
02294               4.00    -3000.00
02295              -2.00    -2800.00
02296               6.00    -2800.00
02297              16.00    -2800.00
02298              18.00    -2800.00
02299               8.00    -2800.00
02300              -6.00    -2800.00
02301               0.00    -2600.00
02302              10.00    -2400.00
02303              14.00    -2600.00
02304               8.00    -2400.00
02305               6.00    -2400.00
02306               6.00    -2400.00
02307               2.00    -2400.00
02308              -2.00    -2400.00
02309               2.00    -2200.00
02310              12.00    -2000.00
02311              12.00    -2000.00
02312               0.00    -2000.00
02313              -6.00    -2000.00
02314               0.00    -2000.00
02315               8.00    -2000.00
02316              10.00    -1600.00
02317               8.00    -1600.00
02318              -4.00    -1600.00
02319              -6.00    -1600.00
02320               8.00    -1600.00
02321              10.00    -1600.00
02322             -14.00    -1400.00
02323              -8.00    -1200.00
02324              18.00    -1200.00
02325              22.00    -1200.00
02326              -6.00    -1000.00
02327             -22.00    -1000.00
02328              -6.00    -1000.00
02329              16.00    -1000.00
02330              10.00     -800.00
02331               0.00     -800.00
02332              -4.00     -800.00
02333             -14.00     -800.00
02334              -2.00     -600.00
02335              14.00     -400.00
02336              10.00     -600.00
02337               0.00     -400.00
02338             -10.00     -400.00
02339              -6.00     -400.00
02340               6.00     -200.00
02341              -2.00        0.00
02342              -2.00        0.00
02343               6.00        0.00
02344              -2.00        0.00
02345             -14.00      200.00
02346              -2.00      200.00
02347              14.00      400.00
02348              16.00      200.00
02349               6.00      400.00
02350              -4.00      400.00
02351             -10.00      600.00
02352              -6.00      600.00
02353               4.00      600.00
02354              10.00      600.00
02355              50.00      800.00
02356             174.00     1000.00
02357              32.00     1000.00
02358            -254.00      800.00
02359            -254.00      800.00
02360             246.00     1200.00
02361             246.00     1400.00
02362            -254.00     1200.00
02363            -254.00     1200.00
02364             246.00     1600.00
02365             246.00     1600.00
02366            -254.00     1200.00
02367            -254.00     1600.00
02368             246.00     1800.00
02369              24.00     1400.00
02370            -254.00     1600.00
02371             106.00     2000.00
02372              22.00     1800.00
02373            -104.00     1800.00
02374             164.00     2000.00
02375              -8.00     2000.00
02376            -208.00     2000.00
02377             114.00     2200.00
02378              50.00     2400.00
02379            -108.00     2400.00
02380              94.00     2400.00
02381             -82.00     2400.00
02382            -110.00     2600.00
02383             222.00     2800.00
02384             -50.00     2600.00
02385            -224.00     2600.00
02386             160.00     2800.00
02387              42.00     2600.00
02388            -144.00     2800.00
02389              64.00     3200.00
02390             -16.00     2800.00
02391             -56.00     3000.00
02392              80.00     3200.00
02393             -64.00     3000.00
02394             -44.00     3200.00
02395              52.00     3400.00
02396             -56.00     3200.00
02397               6.00     3400.00
02398              42.00     3400.00
02399             -88.00     3200.00
02400               0.00     3400.00
02401              36.00     3600.00
02402             -50.00     3400.00
02403              -4.00     3600.00
02404              16.00     3600.00
02405             -34.00     3600.00
02406             -20.00     3600.00
02407              -8.00     3600.00
02408              -2.00     3600.00
02409               8.00     3800.00
02410             -30.00     3800.00
02411             -18.00     3800.00
02412               6.00     4000.00
02413             -22.00     4000.00
02414             -22.00     4000.00
02415               8.00     4000.00
02416             -14.00     4000.00
02417             -26.00     4000.00
02418               0.00     4200.00
02419             -16.00     4000.00
02420             -24.00     4000.00
02421              -2.00     4200.00
02422              -6.00     4200.00
02423             -10.00     4000.00
02424             -14.00     4200.00
02425             -22.00     4000.00
02426              -2.00     4200.00
02427             -10.00     4400.00
02428             -26.00     4200.00
02429              -2.00     4400.00
02430              -6.00     4200.00
02431             -24.00     4200.00
02432             -14.00     4400.00
02433             -10.00     4400.00
02434             -22.00     4200.00
02435             -14.00     4800.00
02436             -10.00     4200.00
02437             -14.00     4400.00
02438             -16.00     4400.00
02439             -22.00     4200.00
02440             -16.00     4400.00
02441             -10.00     4400.00
02442             -22.00     4400.00
02443             -18.00     4400.00
02444             -10.00     4400.00
02445             -16.00     4400.00
02446             -16.00     4200.00
02447             -16.00     4400.00
02448             -22.00     4400.00
02449             -18.00     4400.00
02450              -6.00     4400.00
02451             -16.00     4400.00
02452             -22.00     4200.00
02453             -16.00     4200.00
02454             -12.00     4200.00
02455             -16.00     4400.00
02456             -22.00     4200.00
02457             -16.00     4200.00
02458              -8.00     4200.00
02459             -18.00     4200.00
02460             -26.00     4000.00
02461             -14.00     4200.00
02462             -14.00     4000.00
02463             -16.00     4200.00
02464             -10.00     4000.00
02465             -14.00     4000.00
02466             -22.00     4000.00
02467             -18.00     4000.00
02468             -16.00     4000.00
02469             -10.00     4000.00
02470             -14.00     4000.00
02471             -16.00     4000.00
02472             -16.00     3800.00
02473             -16.00     3800.00
02474             -18.00     4000.00
02475             -10.00     3800.00
02476             -12.00     3600.00
02477             -16.00     3600.00
02478             -16.00     3600.00
02479             -16.00     3600.00
02480             -16.00     3600.00
02481             -14.00     3600.00
02482             -10.00     3600.00
02483             -10.00     3600.00
02484             -14.00     3400.00
02485             -16.00     3400.00
02486             -16.00     3400.00
02487             -12.00     3400.00
02488             -10.00     3200.00
02489              -6.00     3200.00
02490              -8.00     3200.00
02491             -16.00     3000.00
02492             -16.00     3000.00
02493             -12.00     3000.00
02494             -10.00     2800.00
02495             -12.00     3000.00
02496             -10.00     2800.00
02497             -10.00     2800.00
02498             -16.00     2600.00
02499             -16.00     2800.00
02500             -10.00     2600.00
02501              -8.00     2600.00
02502             -10.00     2400.00
02503             -12.00     2400.00
02504             -10.00     2400.00
02505             -16.00     2400.00
02506             -12.00     2200.00
02507             -10.00     2200.00
02508              -8.00     2000.00
02509              -8.00     2000.00
02510              -8.00     2000.00
02511             -10.00     1800.00
02512             -10.00     2000.00
02513             -14.00     1800.00
02514              -8.00     1800.00
02515              -6.00     1800.00
02516              -6.00     1600.00
02517              -8.00     1600.00
02518              -6.00     1600.00
02519             -10.00     1400.00
02520             -10.00     1400.00
02521              -6.00     1200.00
02522              -2.00     1200.00
02523              -6.00     1200.00
02524              -8.00     1200.00
02525              -8.00     1000.00
02526             -10.00      800.00
02527              -6.00     1000.00
02528              -2.00     1000.00
02529              -2.00      800.00
02530              -2.00      800.00
02531              -8.00      600.00
02532              -8.00      600.00
02533              -8.00      600.00
02534              -6.00      400.00
02535              -2.00      200.00
02536              -6.00      400.00
02537              -6.00      200.00
02538               0.00      200.00
02539               0.00        0.00
02540               2.00        0.00
02541              10.00        0.00
02542               6.00        0.00
02543             -10.00     -400.00
02544             -18.00     -200.00
02545              -6.00        0.00
02546              16.00     -400.00
02547              64.00     -400.00
02548             162.00     -400.00
02549              26.00     -800.00
02550            -254.00     -800.00
02551            -254.00     -400.00
02552             246.00     -400.00
02553             246.00     -800.00
02554            -254.00    -1000.00
02555            -254.00     -800.00
02556             246.00    -1200.00
02557             246.00    -1200.00
02558            -254.00    -1000.00
02559            -254.00    -1000.00
02560             246.00    -1200.00
02561             194.00    -1000.00
02562             -98.00    -1400.00
02563             -58.00    -1600.00
02564            -134.00    -1400.00
02565             -10.00    -1600.00
02566             246.00    -1800.00
02567              10.00    -1600.00
02568            -254.00    -1600.00
02569               2.00    -2000.00
02570             190.00    -2000.00
02571               2.00    -2000.00
02572             -48.00    -2200.00
02573             -80.00    -2200.00
02574               2.00    -2000.00
02575             150.00    -2400.00
02576             -18.00    -2400.00
02577            -148.00    -2200.00
02578              46.00    -2400.00
02579             110.00    -2400.00
02580             -42.00    -2400.00
02581             -30.00    -2600.00
02582              -2.00    -2800.00
02583              18.00    -2600.00
02584              40.00    -2800.00
02585              -8.00    -2800.00
02586             -48.00    -2800.00
02587              16.00    -3000.00
02588              42.00    -2800.00
02589               2.00    -2800.00
02590             -16.00    -3000.00
02591             -10.00    -2800.00
02592              16.00    -3000.00
02593              22.00    -3200.00
02594              -6.00    -3000.00
02595             -16.00    -3200.00
02596              26.00    -3200.00
02597              24.00    -3200.00
02598             -18.00    -3200.00
02599             -10.00    -3200.00
02600              22.00    -3400.00
02601              16.00    -3200.00
02602               6.00    -3600.00
02603               2.00    -3200.00
02604              -4.00    -3600.00
02605               6.00    -3600.00
02606              16.00    -3600.00
02607              16.00    -3600.00
02608               6.00    -3600.00
02609               0.00    -3800.00
02610               8.00    -3600.00
02611              14.00    -3600.00
02612               0.00    -3600.00
02613               2.00    -3800.00
02614              16.00    -3800.00
02615              16.00    -3800.00
02616               2.00    -3800.00
02617              -2.00    -3800.00
02618               2.00    -4000.00
02619              10.00    -3800.00
02620              16.00    -3800.00
02621              18.00    -3800.00
02622               8.00    -3800.00
02623              -2.00    -4000.00
02624              -2.00    -3800.00
02625              12.00    -4000.00
02626              20.00    -3800.00
02627              14.00    -4000.00
02628               8.00    -4000.00
02629               2.00    -4000.00
02630               0.00    -4000.00
02631               6.00    -3800.00
02632              14.00    -4000.00
02633              10.00    -4000.00
02634               8.00    -4000.00
02635              12.00    -4000.00
02636              10.00    -4000.00
02637               6.00    -4000.00
02638               2.00    -4000.00
02639               8.00    -4000.00
02640              10.00    -4000.00
02641              14.00    -3800.00
02642              16.00    -3800.00
02643              12.00    -4000.00
02644               0.00    -4000.00
02645               0.00    -4000.00
02646              10.00    -3800.00
02647              16.00    -3800.00
02648              16.00    -3800.00
02649              14.00    -3800.00
02650               6.00    -3800.00
02651               0.00    -3800.00
02652               0.00    -3800.00
02653              10.00    -3800.00
02654              16.00    -3600.00
02655              22.00    -3800.00
02656              14.00    -3600.00
02657               2.00    -3800.00
02658               0.00    -3600.00
02659               6.00    -3600.00
02660              14.00    -3600.00
02661              22.00    -3600.00
02662              14.00    -3600.00
02663               6.00    -3400.00
02664               2.00    -3400.00
02665               2.00    -3600.00
02666               6.00    -3200.00
02667              16.00    -3400.00
02668              16.00    -3200.00
02669              10.00    -3200.00
02670               6.00    -3200.00
02671               6.00    -3200.00
02672               6.00    -3000.00
02673              10.00    -3000.00
02674              10.00    -3000.00
02675              14.00    -3000.00
02676              12.00    -3000.00
02677               6.00    -2800.00
02678               2.00    -3000.00
02679               4.00    -2800.00
02680               8.00    -2800.00
02681              14.00    -2800.00
02682              10.00    -2800.00
02683               8.00    -2800.00
02684               0.00    -2800.00
02685               8.00    -2600.00
02686              10.00    -2600.00
02687               8.00    -2400.00
02688               8.00    -2400.00
02689               6.00    -2400.00
02690               2.00    -2200.00
02691               4.00    -2200.00
02692               8.00    -2200.00
02693               8.00    -2000.00
02694               8.00    -2000.00
02695               0.00    -2200.00
02696               6.00    -2200.00
02697              10.00    -2000.00
02698              -2.00    -1800.00
02699               0.00    -1800.00
02700               8.00    -1800.00
02701               6.00    -1800.00
02702               0.00    -1600.00
02703               2.00    -1400.00
02704               0.00    -1600.00
02705               6.00    -1400.00
02706               6.00    -1400.00
02707              -6.00    -1400.00
02708               2.00    -1000.00
02709               6.00    -1200.00
02710               2.00    -1000.00
02711              -2.00    -1000.00
02712              -8.00    -1000.00
02713               2.00    -1000.00
02714              12.00     -800.00
02715              -2.00     -800.00
02716              -6.00     -600.00
02717               0.00     -600.00
02718               0.00     -600.00
02719               0.00     -400.00
02720              -2.00     -400.00
02721              -2.00     -400.00
02722               2.00     -400.00
02723               0.00     -200.00
02724             -10.00     -200.00
02725               0.00        0.00
02726               0.00        0.00
02727               0.00        0.00
02728               8.00      200.00
02729               6.00      200.00
02730              -8.00      400.00
02731              -8.00      400.00
02732               6.00      400.00
02733              18.00      400.00
02734              10.00      400.00
02735             -16.00      400.00
02736             -14.00      600.00
02737               8.00      800.00
02738              40.00      800.00
02739             170.00     1000.00
02740              72.00     1000.00
02741            -254.00      800.00
02742            -254.00      800.00
02743             246.00     1400.00
02744             246.00     1400.00
02745            -254.00     1000.00
02746            -254.00     1200.00
02747             246.00     1600.00
02748             246.00     1600.00
02749            -254.00     1200.00
02750            -254.00     1600.00
02751             246.00     1800.00
02752             110.00     1600.00
02753            -254.00     1600.00
02754              58.00     2000.00
02755              42.00     1800.00
02756             -98.00     1800.00
02757             162.00     2000.00
02758              16.00     2000.00
02759            -234.00     2000.00
02760             106.00     2200.00
02761              78.00     2400.00
02762            -122.00     2000.00
02763              82.00     2400.00
02764             -48.00     2400.00
02765            -128.00     2400.00
02766             202.00     2800.00
02767             -26.00     2600.00
02768            -234.00     2800.00
02769             144.00     2800.00
02770              78.00     2800.00
02771            -144.00     2600.00
02772              54.00     3000.00
02773             -10.00     2800.00
02774             -74.00     2800.00
02775              82.00     3200.00
02776             -38.00     3000.00
02777             -50.00     3200.00
02778              50.00     3200.00
02779             -54.00     3200.00
02780             -10.00     3400.00
02781              50.00     3400.00
02782             -78.00     3200.00
02783              -8.00     3400.00
02784              40.00     3400.00
02785             -54.00     3400.00
02786             -10.00     3600.00
02787              22.00     3600.00
02788             -30.00     3600.00
02789             -22.00     3600.00
02790             -10.00     3800.00
02791              -2.00     3600.00
02792               8.00     3800.00
02793             -26.00     3800.00
02794             -26.00     3800.00
02795               0.00     4000.00
02796             -22.00     4000.00
02797             -16.00     4000.00
02798              14.00     4200.00
02799             -16.00     4000.00
02800             -32.00     4000.00
02801               0.00     4200.00
02802              -6.00     4000.00
02803             -24.00     4200.00
02804             -10.00     4000.00
02805             -10.00     4200.00
02806              -8.00     4200.00
02807             -14.00     4000.00
02808             -22.00     4200.00
02809              -8.00     4200.00
02810             -10.00     4400.00
02811             -26.00     4400.00
02812               0.00     4200.00
02813              -2.00     4400.00
02814             -24.00     4200.00
02815             -16.00     4200.00
02816             -10.00     4400.00
02817             -16.00     4400.00
02818             -10.00     4200.00
02819              -8.00     4400.00
02820             -14.00     4400.00
02821             -14.00     4400.00
02822             -18.00     4400.00
02823             -16.00     4400.00
02824              -8.00     4400.00
02825             -14.00     4400.00
02826             -14.00     4200.00
02827             -10.00     4400.00
02828             -18.00     4200.00
02829             -18.00     4400.00
02830             -10.00     4200.00
02831             -18.00     4400.00
02832             -18.00     4200.00
02833              -8.00     4400.00
02834             -16.00     4400.00
02835             -24.00     4200.00
02836             -16.00     4400.00
02837             -14.00     4200.00
02838             -14.00     4200.00
02839             -16.00     4200.00
02840             -14.00     4200.00
02841             -14.00     4200.00
02842             -18.00     4200.00
02843             -22.00     4200.00
02844             -14.00     4000.00
02845             -10.00     4000.00
02846             -18.00     4000.00
02847             -16.00     4000.00
02848             -16.00     4000.00
02849             -18.00     4000.00
02850             -16.00     4000.00
02851             -14.00     4000.00
02852             -14.00     3800.00
02853             -16.00     4000.00
02854             -16.00     3600.00
02855             -16.00     4000.00
02856             -16.00     3800.00
02857             -14.00     3600.00
02858             -14.00     3800.00
02859              -8.00     3600.00
02860             -16.00     3600.00
02861             -16.00     3600.00
02862             -14.00     3600.00
02863             -16.00     3600.00
02864             -10.00     3400.00
02865             -10.00     3400.00
02866             -12.00     3400.00
02867             -14.00     3400.00
02868             -16.00     3400.00
02869             -10.00     3200.00
02870             -10.00     3200.00
02871             -12.00     3200.00
02872              -8.00     3400.00
02873             -10.00     3200.00
02874             -14.00     3200.00
02875             -16.00     3200.00
02876             -14.00     3000.00
02877             -10.00     3000.00
02878             -12.00     2800.00
02879             -10.00     2800.00
02880             -10.00     2800.00
02881             -14.00     2800.00
02882             -10.00     2800.00
02883             -10.00     2600.00
02884             -10.00     2800.00
02885              -8.00     2600.00
02886              -8.00     2600.00
02887              -8.00     2400.00
02888             -10.00     2400.00
02889             -14.00     2200.00
02890             -10.00     2200.00
02891              -8.00     2200.00
02892              -8.00     2000.00
02893             -10.00     2000.00
02894             -10.00     1800.00
02895             -10.00     1800.00
02896             -14.00     1800.00
02897             -10.00     1800.00
02898              -6.00     1600.00
02899              -8.00     1600.00
02900             -10.00     1600.00
02901             -10.00     1600.00
02902             -10.00     1600.00
02903             -10.00     1200.00
02904              -6.00     1200.00
02905              -6.00     1200.00
02906              -4.00     1200.00
02907              -8.00     1000.00
02908             -10.00     1000.00
02909              -8.00      800.00
02910             -10.00      800.00
02911              -8.00      800.00
02912              -4.00      800.00
02913              -2.00      600.00
02914              -8.00      800.00
02915              -8.00      400.00
02916              -8.00      400.00
02917              -2.00      400.00
02918              -2.00      400.00
02919              -6.00      400.00
02920              -2.00      200.00
02921               2.00      200.00
02922               0.00      200.00
02923              -2.00      200.00
02924               6.00        0.00
02925               4.00        0.00
02926              -4.00        0.00
02927              -8.00     -200.00
02928              -2.00        0.00
02929               8.00     -400.00
02930              46.00     -400.00
02931             152.00     -600.00
02932              56.00     -600.00
02933            -254.00     -800.00
02934            -254.00     -400.00
02935             246.00     -600.00
02936             246.00     -800.00
02937            -254.00    -1200.00
02938            -254.00     -600.00
02939             246.00    -1000.00
02940             246.00    -1000.00
02941            -254.00    -1000.00
02942            -254.00    -1000.00
02943             246.00    -1400.00
02944             218.00    -1400.00
02945             -94.00    -1400.00
02946             -48.00    -1600.00
02947            -118.00    -1600.00
02948             -42.00    -1400.00
02949             246.00    -1800.00
02950              58.00    -1800.00
02951            -254.00    -1600.00
02952             -32.00    -2000.00
02953             186.00    -2000.00
02954              18.00    -1800.00
02955             -34.00    -2200.00
02956             -86.00    -2200.00
02957             -22.00    -2000.00
02958             150.00    -2200.00
02959               8.00    -2400.00
02960            -158.00    -2200.00
02961              30.00    -2400.00
02962             114.00    -2400.00
02963             -32.00    -2600.00
02964             -34.00    -2400.00
02965              -6.00    -2800.00
02966              10.00    -2400.00
02967              38.00    -2800.00
02968               2.00    -2800.00
02969             -46.00    -2800.00
02970              10.00    -3000.00
02971              38.00    -3000.00
02972               4.00    -3000.00
02973             -14.00    -3200.00
02974             -10.00    -3000.00
02975              14.00    -3000.00
02976              24.00    -3200.00
02977               0.00    -3000.00
02978             -22.00    -3200.00
02979              18.00    -3200.00
02980              24.00    -3200.00
02981             -16.00    -3200.00
02982             -10.00    -3400.00
02983              22.00    -3400.00
02984              18.00    -3400.00
02985               6.00    -3600.00
02986               0.00    -3600.00
02987              -2.00    -3600.00
02988               6.00    -3600.00
02989              16.00    -3600.00
02990              14.00    -3600.00
02991               6.00    -3600.00
02992               2.00    -3600.00
02993               8.00    -3800.00
02994              10.00    -3800.00
02995               6.00    -3600.00
02996               6.00    -3600.00
02997              18.00    -3800.00
02998              10.00    -3800.00
02999               0.00    -3800.00
03000               6.00    -3800.00
03001              14.00    -3800.00
03002              14.00    -3800.00
03003               6.00    -3800.00
03004               8.00    -3800.00
03005              10.00    -3800.00
03006              10.00    -4000.00
03007               8.00    -4000.00
03008              10.00    -4000.00
03009               8.00    -4000.00
03010               6.00    -4000.00
03011              12.00    -4000.00
03012              16.00    -3800.00
03013              10.00    -3800.00
03014               6.00    -4000.00
03015               8.00    -4000.00
03016               8.00    -3800.00
03017              10.00    -4000.00
03018              14.00    -4000.00
03019              14.00    -4000.00
03020               8.00    -4000.00
03021               4.00    -4000.00
03022               6.00    -4000.00
03023              12.00    -3800.00
03024              14.00    -4000.00
03025              10.00    -3800.00
03026              10.00    -4000.00
03027               6.00    -3800.00
03028               2.00    -4000.00
03029              14.00    -4000.00
03030              14.00    -3800.00
03031              12.00    -3800.00
03032              10.00    -3800.00
03033               6.00    -3800.00
03034               2.00    -3800.00
03035               8.00    -3800.00
03036              16.00    -3800.00
03037              14.00    -3800.00
03038              14.00    -3800.00
03039               8.00    -3600.00
03040               6.00    -3800.00
03041               6.00    -3800.00
03042              14.00    -3800.00
03043              10.00    -3600.00
03044              14.00    -3600.00
03045               8.00    -3600.00
03046               6.00    -3600.00
03047               8.00    -3600.00
03048               8.00    -3600.00
03049               8.00    -3400.00
03050              12.00    -3200.00
03051              10.00    -3200.00
03052               8.00    -3200.00
03053               6.00    -3200.00
03054               8.00    -3200.00
03055               8.00    -3000.00
03056               8.00    -3000.00
03057              10.00    -3200.00
03058               8.00    -3000.00
03059               8.00    -3000.00
03060               8.00    -2800.00
03061               6.00    -3000.00
03062               8.00    -2800.00
03063               8.00    -2800.00
03064              10.00    -2800.00
03065               8.00    -2800.00
03066               6.00    -2800.00
03067               6.00    -2800.00
03068               6.00    -2400.00
03069               8.00    -2400.00
03070               8.00    -2400.00
03071               8.00    -2400.00
03072               8.00    -2400.00
03073               6.00    -2400.00
03074               4.00    -2200.00
03075               6.00    -2200.00
03076               6.00    -2200.00
03077               6.00    -2200.00
03078               6.00    -2000.00
03079               6.00    -2000.00
03080               2.00    -2000.00
03081               4.00    -1800.00
03082               2.00    -1600.00
03083               6.00    -1600.00
03084               6.00    -1600.00
03085               6.00    -1600.00
03086               2.00    -1400.00
03087               0.00    -1400.00
03088               0.00    -1400.00
03089               0.00    -1400.00
03090               2.00    -1400.00
03091               4.00    -1000.00
03092               2.00    -1200.00
03093               0.00    -1000.00
03094               0.00    -1000.00
03095               0.00    -1000.00
03096               0.00    -1200.00
03097               2.00     -800.00
03098               0.00     -600.00
03099               0.00     -800.00
03100              -2.00     -600.00
03101               0.00     -600.00
03102               0.00     -400.00
03103              -2.00     -400.00
03104               2.00     -400.00
03105               2.00     -400.00
03106               0.00     -400.00
03107              -6.00        0.00
03108              -2.00     -200.00
03109               0.00      200.00
03110               0.00        0.00
03111              -2.00        0.00
03112              -2.00      200.00
03113               2.00      200.00
03114               0.00      200.00
03115               2.00      400.00
03116               6.00      400.00
03117               2.00      400.00
03118              -8.00      600.00
03119              -6.00      400.00
03120              -2.00      800.00
03121              32.00      800.00
03122             168.00     1000.00
03123              98.00      800.00
03124            -254.00      800.00
03125            -254.00      800.00
03126             246.00     1200.00
03127             246.00     1400.00
03128            -254.00     1000.00
03129            -254.00     1000.00
03130             246.00     1600.00
03131             246.00     1600.00
03132            -254.00     1200.00
03133            -254.00     1600.00
03134             246.00     1800.00
03135             158.00     1600.00
03136            -254.00     1600.00
03137              38.00     2000.00
03138              80.00     1800.00
03139            -114.00     1800.00
03140             134.00     2000.00
03141              54.00     2000.00
03142            -238.00     2000.00
03143              76.00     2000.00
03144              94.00     2400.00
03145            -116.00     2200.00
03146              74.00     2400.00
03147             -30.00     2400.00
03148            -150.00     2600.00
03149             194.00     2600.00
03150              22.00     2600.00
03151            -246.00     2600.00
03152             112.00     2600.00
03153              98.00     2800.00
03154            -152.00     2600.00
03155              40.00     3000.00
03156              14.00     2800.00
03157             -74.00     3000.00
03158              76.00     3000.00
03159             -32.00     3200.00
03160             -66.00     3200.00
03161              54.00     3200.00
03162             -42.00     3200.00
03163             -18.00     3400.00
03164              50.00     3400.00
03165             -74.00     3400.00
03166             -20.00     3400.00
03167              48.00     3600.00
03168             -46.00     3400.00
03169             -18.00     3600.00
03170              24.00     3600.00
03171             -30.00     3600.00
03172             -26.00     3600.00
03173             -14.00     3600.00
03174              -8.00     3600.00
03175               8.00     3600.00
03176             -24.00     3800.00
03177             -26.00     3600.00
03178               0.00     4000.00
03179             -18.00     3800.00
03180             -18.00     4000.00
03181              10.00     4000.00
03182             -10.00     4000.00
03183             -32.00     4000.00
03184               0.00     4000.00
03185              -8.00     4200.00
03186             -26.00     4000.00
03187             -10.00     4200.00
03188              -8.00     4000.00
03189             -10.00     4200.00
03190             -10.00     4200.00
03191             -22.00     4400.00
03192              -8.00     4200.00
03193              -8.00     4200.00
03194             -22.00     4200.00
03195              -2.00     4200.00
03196              -2.00     4400.00
03197             -28.00     4400.00
03198             -14.00     4200.00
03199              -2.00     4400.00
03200             -16.00     4200.00
03201             -20.00     4400.00
03202             -12.00     4400.00
03203              -8.00     4200.00
03204             -10.00     4400.00
03205             -18.00     4200.00
03206             -18.00     4400.00
03207             -10.00     4400.00
03208             -14.00     4200.00
03209             -16.00     4400.00
03210              -8.00     4400.00
03211             -16.00     4200.00
03212             -16.00     4200.00
03213             -14.00     4400.00
03214             -16.00     4200.00
03215             -10.00     4200.00
03216              -6.00     4400.00
03217             -16.00     4400.00
03218             -26.00     4200.00
03219             -24.00     4200.00
03220             -10.00     4200.00
03221             -10.00     4200.00
03222             -14.00     4000.00
03223             -16.00     4400.00
03224             -14.00     4000.00
03225             -22.00     4200.00
03226             -26.00     4200.00
03227             -10.00     4000.00
03228              -6.00     4200.00
03229             -12.00     4000.00
03230             -18.00     4000.00
03231             -18.00     4000.00
03232             -18.00     4000.00
03233             -18.00     4000.00
03234             -14.00     4000.00
03235             -10.00     4000.00
03236             -16.00     4000.00
03237             -16.00     3800.00
03238             -18.00     4000.00
03239             -18.00     3800.00
03240             -16.00     3800.00
03241             -10.00     3600.00
03242             -10.00     3600.00
03243             -20.00     3800.00
03244             -18.00     3600.00
03245             -10.00     3600.00
03246             -16.00     3600.00
03247             -16.00     3400.00
03248             -14.00     3600.00
03249             -12.00     3600.00
03250             -10.00     3400.00
03251             -14.00     3400.00
03252             -14.00     3400.00
03253             -14.00     3200.00
03254             -12.00     3200.00
03255             -10.00     3200.00
03256             -12.00     3200.00
03257             -14.00     3200.00
03258             -10.00     3000.00
03259             -10.00     3000.00
03260             -10.00     2800.00
03261             -14.00     2800.00
03262             -10.00     2800.00
03263              -8.00     2800.00
03264             -12.00     2800.00
03265             -16.00     2800.00
03266             -12.00     2600.00
03267             -10.00     2600.00
03268              -6.00     2600.00
03269              -8.00     2600.00
03270              -8.00     2400.00
03271             -12.00     2200.00
03272             -14.00     2400.00
03273             -10.00     2200.00
03274              -6.00     2000.00
03275              -6.00     2000.00
03276             -10.00     2000.00
03277              -8.00     2000.00
03278              -8.00     2000.00
03279             -14.00     2000.00
03280             -10.00     1800.00
03281              -8.00     1800.00
03282              -6.00     1600.00
03283              -8.00     1600.00
03284              -8.00     1400.00
03285              -8.00     1600.00
03286             -10.00     1400.00
03287              -8.00     1200.00
03288              -2.00     1200.00
03289              -6.00     1200.00
03290             -10.00     1000.00
03291             -10.00     1200.00
03292              -4.00      800.00
03293              -8.00      800.00
03294              -8.00     1000.00
03295              -6.00      800.00
03296              -6.00      600.00
03297              -6.00      600.00
03298             -10.00      600.00
03299              -8.00      400.00
03300              -4.00      400.00
03301              -6.00      400.00
03302              -6.00      400.00
03303              -2.00      200.00
03304               0.00      200.00
03305               0.00      200.00
03306              -2.00        0.00
03307               6.00        0.00
03308               6.00        0.00
03309              -4.00     -200.00
03310              -8.00        0.00
03311              -4.00        0.00
03312               6.00     -400.00
03313              40.00     -400.00
03314             150.00     -600.00
03315              74.00     -800.00
03316            -254.00     -800.00
03317            -254.00     -600.00
03318             246.00     -400.00
03319             246.00     -800.00
03320            -194.00    -1000.00
03321            -254.00     -800.00
03322             182.00    -1200.00
03323             246.00    -1000.00
03324            -248.00    -1200.00
03325            -254.00    -1000.00
03326             210.00    -1200.00
03327             246.00    -1200.00
03328             -86.00    -1400.00
03329             -58.00    -1400.00
03330            -110.00    -1600.00
03331             -58.00    -1400.00
03332             246.00    -1600.00
03333              92.00    -1600.00
03334            -254.00    -1600.00
03335             -56.00    -2000.00
03336             190.00    -1800.00
03337              30.00    -1800.00
03338             -34.00    -2200.00
03339             -78.00    -2200.00
03340             -26.00    -1800.00
03341             142.00    -2200.00
03342              32.00    -2400.00
03343            -158.00    -2200.00
03344              16.00    -2200.00
03345             122.00    -2400.00
03346             -24.00    -2400.00
03347             -38.00    -2400.00
03348              -8.00    -2600.00
03349              12.00    -2400.00
03350              40.00    -2800.00
03351               6.00    -2800.00
03352             -48.00    -2800.00
03353               6.00    -3000.00
03354              40.00    -2800.00
03355               8.00    -3000.00
03356             -14.00    -2800.00
03357             -10.00    -3000.00
03358              12.00    -3000.00
03359              24.00    -3200.00
03360               0.00    -3200.00
03361             -22.00    -3200.00
03362              18.00    -3200.00
03363              26.00    -3200.00
03364             -10.00    -3200.00
03365             -14.00    -3400.00
03366              22.00    -3600.00
03367              20.00    -3400.00
03368               2.00    -3400.00
03369               0.00    -3600.00
03370              -6.00    -3600.00
03371               6.00    -3600.00
03372              16.00    -3600.00
03373              14.00    -3600.00
03374               6.00    -3600.00
03375               0.00    -3600.00
03376               8.00    -3800.00
03377              10.00    -3600.00
03378               2.00    -3600.00
03379               2.00    -3600.00
03380              18.00    -3800.00
03381              14.00    -3600.00
03382               2.00    -3800.00
03383               2.00    -3800.00
03384               8.00    -3800.00
03385               8.00    -3800.00
03386               8.00    -3800.00
03387              10.00    -4000.00
03388              14.00    -3800.00
03389              10.00    -3800.00
03390               4.00    -3800.00
03391               8.00    -3800.00
03392              14.00    -3800.00
03393              12.00    -4000.00
03394              14.00    -4000.00
03395              16.00    -3800.00
03396               2.00    -4000.00
03397               2.00    -4000.00
03398              10.00    -3800.00
03399              10.00    -4000.00
03400              14.00    -3800.00
03401              14.00    -4000.00
03402              10.00    -4000.00
03403               8.00    -4000.00
03404               6.00    -4000.00
03405              10.00    -4000.00
03406              14.00    -3800.00
03407              14.00    -3800.00
03408              12.00    -3800.00
03409              12.00    -3800.00
03410               6.00    -3800.00
03411               6.00    -4000.00
03412              12.00    -3800.00
03413              12.00    -3800.00
03414              10.00    -3800.00
03415               8.00    -3800.00
03416               6.00    -3800.00
03417               6.00    -3800.00
03418               8.00    -3800.00
03419              12.00    -3800.00
03420              10.00    -3800.00
03421              12.00    -3600.00
03422               8.00    -3600.00
03423               8.00    -3600.00
03424               6.00    -3600.00
03425              10.00    -3600.00
03426               8.00    -3600.00
03427              14.00    -3600.00
03428               8.00    -3600.00
03429              10.00    -3600.00
03430               6.00    -3400.00
03431               6.00    -3400.00
03432               2.00    -3200.00
03433              10.00    -3200.00
03434              12.00    -3200.00
03435              10.00    -3200.00
03436               6.00    -3200.00
03437               2.00    -3200.00
03438               6.00    -3200.00
03439               8.00    -3000.00
03440              10.00    -3000.00
03441              10.00    -3000.00
03442               6.00    -3200.00
03443               6.00    -3000.00
03444               8.00    -2800.00
03445              10.00    -2800.00
03446               6.00    -2800.00
03447               8.00    -2800.00
03448               6.00    -2800.00
03449               2.00    -2800.00
03450               6.00    -2600.00
03451               6.00    -2800.00
03452               8.00    -2600.00
03453               8.00    -2400.00
03454               6.00    -2400.00
03455               8.00    -2400.00
03456               4.00    -2200.00
03457               6.00    -2400.00
03458               4.00    -2200.00
03459               6.00    -2200.00
03460               8.00    -2000.00
03461               8.00    -2000.00
03462               6.00    -2000.00
03463               2.00    -2000.00
03464               0.00    -1800.00
03465               6.00    -1800.00
03466               8.00    -1800.00
03467               8.00    -1600.00
03468               6.00    -1600.00
03469               0.00    -1600.00
03470               2.00    -1400.00
03471               0.00    -1400.00
03472               6.00    -1200.00
03473               6.00    -1400.00
03474               0.00    -1000.00
03475               2.00    -1000.00
03476               2.00    -1200.00
03477               6.00     -800.00
03478               0.00    -1000.00
03479               0.00     -800.00
03480               0.00     -800.00
03481               2.00     -800.00
03482               0.00     -800.00
03483               0.00     -600.00
03484              -2.00     -600.00
03485              -2.00     -600.00
03486              -2.00     -600.00
03487               0.00     -400.00
03488               0.00     -200.00
03489               0.00     -200.00
03490              -6.00     -200.00
03491              -6.00        0.00
03492              -2.00        0.00
03493               0.00        0.00
03494               0.00      200.00
03495               2.00        0.00
03496               0.00      200.00
03497               0.00      200.00
03498               2.00      400.00
03499              12.00      400.00
03500               4.00      400.00
03501              -8.00      600.00
03502             -14.00      600.00
03503              -2.00      600.00
03504              26.00      800.00
03505             160.00     1000.00
03506             122.00     1000.00
03507            -254.00      800.00
03508            -254.00      800.00
03509             246.00     1200.00
03510             246.00     1400.00
03511            -228.00     1000.00
03512            -254.00     1000.00
03513             242.00     1600.00
03514             246.00     1600.00
03515            -254.00     1200.00
03516            -254.00     1600.00
03517             246.00     1800.00
03518             222.00     1600.00
03519            -254.00     1600.00
03520               2.00     2000.00
03521             106.00     2000.00
03522            -126.00     1800.00
03523             112.00     2000.00
03524              92.00     2000.00
03525            -234.00     2000.00
03526              48.00     2200.00
03527             112.00     2400.00
03528            -114.00     2200.00
03529              62.00     2400.00
03530              -6.00     2400.00
03531            -164.00     2400.00
03532             176.00     2600.00
03533              62.00     2600.00
03534            -254.00     2400.00
03535              88.00     2800.00
03536             130.00     2800.00
03537            -146.00     2800.00
03538              24.00     2800.00
03539              24.00     3000.00
03540             -82.00     2800.00
03541              72.00     3200.00
03542             -14.00     3200.00
03543             -76.00     3200.00
03544              54.00     3200.00
03545             -34.00     3200.00
03546             -30.00     3400.00
03547              54.00     3200.00
03548             -64.00     3200.00
03549             -30.00     3200.00
03550              46.00     3600.00
03551             -46.00     3400.00
03552             -26.00     3600.00
03553              30.00     3600.00
03554             -16.00     3600.00
03555             -28.00     3600.00
03556             -18.00     3800.00
03557              -8.00     3600.00
03558              14.00     3600.00
03559             -14.00     3800.00
03560             -32.00     3800.00
03561               0.00     4000.00
03562             -16.00     4000.00
03563             -30.00     3800.00
03564               6.00     4000.00
03565              -2.00     4000.00
03566             -32.00     4000.00
03567              -6.00     4000.00
03568              -6.00     4000.00
03569             -24.00     4000.00
03570             -14.00     4200.00
03571              -8.00     4000.00
03572              -4.00     4200.00
03573              -6.00     4200.00
03574             -26.00     4200.00
03575             -16.00     4200.00
03576              -2.00     4200.00
03577             -26.00     4400.00
03578              -8.00     4200.00
03579               2.00     4200.00
03580             -22.00     4200.00
03581             -24.00     4400.00
03582             -16.00     4400.00
03583             -22.00     4200.00
03584              -4.00     4400.00
03585               0.00     4400.00
03586             -14.00     4200.00
03587             -22.00     4400.00
03588             -24.00     4400.00
03589             -18.00     4200.00
03590               0.00     4200.00
03591              -6.00     4400.00
03592             -18.00     4400.00
03593             -22.00     4200.00
03594             -30.00     4400.00
03595             -18.00     4200.00
03596               8.00     4400.00
03597               0.00     4400.00
03598             -22.00     4200.00
03599             -26.00     4400.00
03600             -30.00     4200.00
03601             -16.00     4200.00
03602               0.00     4400.00
03603             -10.00     4200.00
03604             -22.00     4200.00
03605             -20.00     4200.00
03606             -12.00     4200.00
03607              -8.00     4200.00
03608             -16.00     4200.00
03609             -24.00     4200.00
03610             -16.00     4000.00
03611             -14.00     4000.00
03612             -22.00     4200.00
03613             -16.00     4000.00
03614             -10.00     4000.00
03615             -14.00     4000.00
03616             -18.00     4000.00
03617             -18.00     4000.00
03618             -16.00     4000.00
03619             -14.00     3800.00
03620             -16.00     3800.00
03621             -14.00     3800.00
03622             -14.00     4000.00
03623             -18.00     3800.00
03624             -16.00     3800.00
03625             -14.00     3600.00
03626             -10.00     3600.00
03627             -14.00     3600.00
03628             -16.00     3600.00
03629             -18.00     3600.00
03630             -18.00     3600.00
03631              -8.00     3600.00
03632              -8.00     3400.00
03633             -14.00     3400.00
03634             -22.00     3400.00
03635             -18.00     3200.00
03636             -14.00     3200.00
03637             -12.00     3200.00
03638              -8.00     3200.00
03639             -10.00     3200.00
03640             -16.00     3200.00
03641             -14.00     3200.00
03642             -14.00     3000.00
03643             -10.00     2800.00
03644             -14.00     2800.00
03645             -10.00     2800.00
03646              -8.00     2800.00
03647             -14.00     2800.00
03648             -18.00     2600.00
03649             -10.00     2600.00
03650              -8.00     2600.00
03651              -6.00     2400.00
03652              -8.00     2600.00
03653             -10.00     2400.00
03654             -14.00     2200.00
03655             -14.00     2200.00
03656              -8.00     2200.00
03657              -6.00     2200.00
03658              -8.00     2000.00
03659             -10.00     2000.00
03660             -10.00     1800.00
03661              -8.00     1800.00
03662             -10.00     1800.00
03663              -6.00     1800.00
03664              -8.00     1800.00
03665              -8.00     1600.00
03666              -8.00     1600.00
03667              -8.00     1600.00
03668              -4.00     1600.00
03669              -6.00     1200.00
03670              -8.00     1200.00
03671              -6.00     1200.00
03672              -6.00     1000.00
03673              -8.00     1200.00
03674              -8.00     1200.00
03675              -8.00      800.00
03676              -8.00     1000.00
03677              -8.00      800.00
03678              -2.00      800.00
03679               0.00      800.00
03680              -6.00      800.00
03681             -10.00      400.00
03682              -8.00      600.00
03683              -6.00      400.00
03684              -4.00      400.00
03685              -6.00      400.00
03686              -8.00      200.00
03687               0.00      200.00
03688               0.00        0.00
03689               0.00        0.00
03690               6.00        0.00
03691               4.00        0.00
03692              -8.00        0.00
03693             -14.00     -200.00
03694              -2.00     -400.00
03695               8.00     -400.00
03696              34.00     -400.00
03697             142.00     -400.00
03698              94.00     -800.00
03699            -254.00     -800.00
03700            -254.00     -600.00
03701             246.00     -400.00
03702             246.00     -800.00
03703             -86.00    -1000.00
03704            -254.00     -800.00
03705              92.00    -1000.00
03706             246.00    -1200.00
03707            -174.00    -1000.00
03708            -254.00    -1000.00
03709             162.00    -1400.00
03710             246.00    -1400.00
03711             -74.00    -1400.00
03712             -60.00    -1600.00
03713             -98.00    -1600.00
03714             -80.00    -1400.00
03715             234.00    -1800.00
03716             134.00    -1600.00
03717            -254.00    -1600.00
03718             -86.00    -2000.00
03719             184.00    -2000.00
03720              48.00    -2000.00
03721             -30.00    -2000.00
03722             -80.00    -2200.00
03723             -40.00    -2000.00
03724             132.00    -2200.00
03725              56.00    -2400.00
03726            -160.00    -2200.00
03727              -2.00    -2400.00
03728             128.00    -2400.00
03729             -10.00    -2200.00
03730             -40.00    -2400.00
03731              -8.00    -2600.00
03732              10.00    -2800.00
03733              38.00    -2800.00
03734              16.00    -2800.00
03735             -46.00    -2800.00
03736               0.00    -2800.00
03737              38.00    -3000.00
03738              14.00    -2800.00
03739             -10.00    -3000.00
03740              -8.00    -3000.00
03741              10.00    -3000.00
03742              24.00    -3200.00
03743               0.00    -3200.00
03744             -22.00    -3000.00
03745              22.00    -3200.00
03746              34.00    -3200.00
03747             -10.00    -3200.00
03748             -22.00    -3200.00
03749              14.00    -3400.00
03750              22.00    -3400.00
03751              14.00    -3600.00
03752               6.00    -3600.00
03753              -8.00    -3800.00
03754              -6.00    -3600.00
03755              14.00    -3600.00
03756              16.00    -3600.00
03757              10.00    -3600.00
03758              -2.00    -3600.00
03759               2.00    -3600.00
03760              14.00    -3800.00
03761               8.00    -3800.00
03762               2.00    -3600.00
03763              16.00    -3800.00
03764              12.00    -3800.00
03765               0.00    -3800.00
03766               0.00    -3800.00
03767              14.00    -4000.00
03768              10.00    -3800.00
03769               6.00    -4000.00
03770               6.00    -3800.00
03771               8.00    -4000.00
03772              10.00    -3800.00
03773               6.00    -4000.00
03774               8.00    -4000.00
03775               8.00    -4000.00
03776               6.00    -3800.00
03777              14.00    -4000.00
03778              16.00    -4000.00
03779               6.00    -3800.00
03780               4.00    -4000.00
03781               8.00    -4000.00
03782              10.00    -4000.00
03783              14.00    -4000.00
03784              14.00    -3800.00
03785              12.00    -4000.00
03786               8.00    -4000.00
03787               0.00    -4000.00
03788               6.00    -4000.00
03789              16.00    -3800.00
03790              18.00    -4000.00
03791              14.00    -3800.00
03792               8.00    -3800.00
03793               2.00    -4000.00
03794               0.00    -3800.00
03795              14.00    -3800.00
03796              20.00    -3800.00
03797              14.00    -3800.00
03798               8.00    -3800.00
03799               2.00    -3800.00
03800               6.00    -3800.00
03801              12.00    -3800.00
03802              16.00    -3800.00
03803              14.00    -3800.00
03804               8.00    -3600.00
03805               6.00    -3600.00
03806               8.00    -3600.00
03807              10.00    -3600.00
03808              10.00    -3600.00
03809               8.00    -3600.00
03810              10.00    -3600.00
03811               8.00    -3600.00
03812              10.00    -3400.00
03813               6.00    -3600.00
03814               6.00    -3400.00
03815               6.00    -3200.00
03816              12.00    -3400.00
03817              10.00    -3200.00
03818               8.00    -3400.00
03819               6.00    -3200.00
03820               8.00    -3200.00
03821               6.00    -3200.00
03822               6.00    -3200.00
03823               8.00    -3200.00
03824              10.00    -3200.00
03825               6.00    -3000.00
03826               8.00    -3000.00
03827               6.00    -3000.00
03828               8.00    -2800.00
03829               6.00    -2800.00
03830               6.00    -2800.00
03831              10.00    -2800.00
03832               8.00    -2800.00
03833               2.00    -2800.00
03834               2.00    -2400.00
03835               6.00    -2600.00
03836               6.00    -2400.00
03837              10.00    -2400.00
03838               8.00    -2400.00
03839               6.00    -2400.00
03840               2.00    -2400.00
03841               0.00    -2400.00
03842               6.00    -2200.00
03843               6.00    -2000.00
03844               8.00    -2200.00
03845               6.00    -2000.00
03846               2.00    -1800.00
03847               2.00    -2000.00
03848               6.00    -1800.00
03849               6.00    -1600.00
03850               0.00    -1800.00
03851               2.00    -1600.00
03852               8.00    -1600.00
03853               6.00    -1400.00
03854               0.00    -1400.00
03855               0.00    -1400.00
03856               0.00    -1400.00
03857               4.00    -1200.00
03858               2.00    -1200.00
03859               4.00    -1000.00
03860               2.00    -1000.00
03861              -2.00     -800.00
03862              -2.00    -1000.00
03863               6.00     -800.00
03864               2.00     -600.00
03865               0.00     -600.00
03866               2.00     -600.00
03867              -2.00     -600.00
03868              -8.00     -400.00
03869              -6.00     -400.00
03870               6.00     -200.00
03871              10.00     -400.00
03872               4.00     -200.00
03873             -10.00     -400.00
03874             -10.00     -200.00
03875               0.00        0.00
03876               2.00        0.00
03877               2.00      200.00
03878               0.00      200.00
03879              -6.00      200.00
03880              -8.00      400.00
03881               0.00      400.00
03882              16.00      400.00
03883               8.00      400.00
03884              -8.00      600.00
03885             -12.00      400.00
03886              -6.00      800.00
03887              20.00      800.00
03888             146.00      800.00
03889             146.00     1000.00
03890            -254.00      800.00
03891            -254.00      800.00
03892             246.00     1200.00
03893             246.00     1400.00
03894            -110.00     1200.00
03895            -254.00     1000.00
03896             140.00     1600.00
03897             246.00     1600.00
03898            -254.00     1200.00
03899            -254.00     1600.00
03900             246.00     1800.00
03901             246.00     1600.00
03902            -254.00     1400.00
03903             -38.00     2000.00
03904             134.00     2000.00
03905            -122.00     1800.00
03906              88.00     1800.00
03907             116.00     2000.00
03908            -234.00     2000.00
03909              26.00     2200.00
03910             126.00     2200.00
03911            -114.00     2400.00
03912              48.00     2400.00
03913              22.00     2400.00
03914            -168.00     2400.00
03915             150.00     2800.00
03916              82.00     2600.00
03917            -254.00     2600.00
03918              64.00     2800.00
03919             158.00     2800.00
03920            -136.00     2800.00
03921               8.00     3000.00
03922              30.00     2800.00
03923             -90.00     2800.00
03924              56.00     3200.00
03925               2.00     3200.00
03926             -74.00     3000.00
03927              62.00     3200.00
03928             -24.00     3200.00
03929             -40.00     3200.00
03930              50.00     3600.00
03931             -54.00     3400.00
03932             -30.00     3400.00
03933              56.00     3600.00
03934             -38.00     3400.00
03935             -44.00     3600.00
03936              22.00     3600.00
03937             -14.00     3600.00
03938             -22.00     3600.00
03939             -10.00     3600.00
03940              -8.00     3600.00
03941               8.00     3600.00
03942             -22.00     3800.00
03943             -32.00     3600.00
03944               0.00     3800.00
03945             -10.00     4000.00
03946             -22.00     4000.00
03947               2.00     4000.00
03948             -10.00     4000.00
03949             -34.00     4000.00
03950              -2.00     4000.00
03951               6.00     4000.00
03952             -30.00     4000.00
03953             -24.00     4200.00
03954             -14.00     4000.00
03955              -8.00     4200.00
03956              -2.00     4200.00
03957             -18.00     4200.00
03958             -16.00     4200.00
03959             -12.00     4200.00
03960             -26.00     4200.00
03961              -8.00     4200.00
03962               2.00     4400.00
03963             -20.00     4200.00
03964             -20.00     4400.00
03965             -10.00     4200.00
03966             -18.00     4400.00
03967             -14.00     4200.00
03968              -6.00     4400.00
03969             -10.00     4200.00
03970             -18.00     4400.00
03971             -22.00     4200.00
03972             -18.00     4400.00
03973              -8.00     4400.00
03974             -10.00     4400.00
03975             -16.00     4400.00
03976             -14.00     4400.00
03977             -16.00     4200.00
03978             -18.00     4400.00
03979              -8.00     4200.00
03980             -14.00     4400.00
03981             -18.00     4200.00
03982             -10.00     4200.00
03983             -16.00     4200.00
03984             -22.00     4200.00
03985             -14.00     4200.00
03986             -10.00     4200.00
03987             -14.00     4200.00
03988             -18.00     4200.00
03989             -18.00     4200.00
03990             -12.00     4200.00
03991             -16.00     4200.00
03992             -18.00     4200.00
03993             -10.00     4200.00
03994             -14.00     4000.00
03995             -20.00     4000.00
03996             -18.00     4000.00
03997             -12.00     4000.00
03998             -12.00     4000.00
03999             -16.00     4000.00
04000             -14.00     4000.00
04001             -14.00     3800.00
04002             -18.00     3800.00
04003             -16.00     3800.00
04004             -16.00     4000.00
04005             -16.00     3800.00
04006             -18.00     3800.00
04007             -14.00     3600.00
04008             -10.00     3600.00
04009             -16.00     3600.00
04010             -16.00     3600.00
04011             -16.00     3600.00
04012             -14.00     3600.00
04013             -16.00     3400.00
04014             -14.00     3400.00
04015             -10.00     3400.00
04016             -16.00     3400.00
04017             -18.00     3400.00
04018             -16.00     3400.00
04019             -14.00     3200.00
04020             -10.00     3200.00
04021             -12.00     3200.00
04022             -14.00     3200.00
04023             -14.00     3200.00
04024             -14.00     3000.00
04025             -16.00     3000.00
04026             -12.00     3000.00
04027             -14.00     2800.00
04028             -10.00     2800.00
04029              -8.00     2800.00
04030             -10.00     2600.00
04031             -16.00     2800.00
04032             -12.00     2600.00
04033              -8.00     2600.00
04034             -10.00     2600.00
04035             -10.00     2400.00
04036             -10.00     2400.00
04037             -10.00     2400.00
04038             -10.00     2400.00
04039             -10.00     2000.00
04040              -8.00     2200.00
04041             -10.00     2000.00
04042              -6.00     2000.00
04043              -6.00     2000.00
04044              -8.00     2000.00
04045             -12.00     1800.00
04046             -12.00     1800.00
04047              -6.00     1600.00
04048              -2.00     1800.00
04049              -4.00     1600.00
04050              -8.00     1600.00
04051             -10.00     1600.00
04052              -8.00     1600.00
04053              -8.00     1200.00
04054              -2.00     1200.00
04055              -2.00     1200.00
04056              -8.00     1000.00
04057              -6.00     1000.00
04058              -6.00     1000.00
04059              -8.00      800.00
04060              -8.00     1000.00
04061              -2.00      800.00
04062               0.00      800.00
04063              -4.00      600.00
04064              -8.00      600.00
04065              -8.00      400.00
04066              -6.00      400.00
04067              -4.00      400.00
04068              -6.00      400.00
04069              -6.00      400.00
04070               0.00      200.00
04071               0.00        0.00
04072               0.00      200.00
04073               2.00        0.00
04074               6.00        0.00
04075              -4.00        0.00
04076             -10.00        0.00
04077              -6.00     -400.00
04078               0.00     -200.00
04079              30.00     -400.00
04080             134.00     -400.00
04081             112.00     -800.00
04082            -254.00     -800.00
04083            -254.00     -600.00
04084             222.00     -600.00
04085             246.00     -800.00
04086              20.00    -1200.00
04087            -254.00     -800.00
04088               2.00    -1000.00
04089             246.00    -1000.00
04090             -96.00    -1200.00
04091            -254.00    -1000.00
04092             110.00    -1400.00
04093             246.00    -1400.00
04094             -62.00    -1200.00
04095             -62.00    -1600.00
04096             -90.00    -1600.00
04097            -100.00    -1600.00
04098             214.00    -1600.00
04099             168.00    -1600.00
04100            -254.00    -1600.00
04101            -112.00    -2000.00
04102             178.00    -2000.00
04103              54.00    -1800.00
04104             -26.00    -2000.00
04105             -74.00    -2200.00
04106             -48.00    -2000.00
04107             122.00    -2200.00
04108              78.00    -2400.00
04109            -158.00    -2200.00
04110             -24.00    -2400.00
04111             126.00    -2400.00
04112               2.00    -2400.00
04113             -42.00    -2400.00
04114             -10.00    -2800.00
04115               8.00    -2600.00
04116              32.00    -2800.00
04117              22.00    -2800.00
04118             -42.00    -2800.00
04119              -4.00    -2800.00
04120              38.00    -3000.00
04121              18.00    -3000.00
04122             -12.00    -3000.00
04123             -10.00    -3000.00
04124               8.00    -3000.00
04125              26.00    -3000.00
04126               8.00    -3200.00
04127             -22.00    -3200.00
04128              10.00    -3200.00
04129              32.00    -3200.00
04130              -8.00    -3200.00
04131             -16.00    -3200.00
04132              18.00    -3200.00
04133              22.00    -3400.00
04134               6.00    -3600.00
04135               0.00    -3400.00
04136              -2.00    -3600.00
04137               0.00    -3400.00
04138              14.00    -3600.00
04139              14.00    -3600.00
04140               6.00    -3600.00
04141               2.00    -3600.00
04142               6.00    -3600.00
04143              12.00    -3800.00
04144               2.00    -3800.00
04145               0.00    -3800.00
04146              14.00    -3600.00
04147              16.00    -3800.00
04148               0.00    -3800.00
04149               0.00    -3800.00
04150               8.00    -4000.00
04151              10.00    -3800.00
04152               8.00    -3800.00
04153               8.00    -3800.00
04154              10.00    -4000.00
04155               8.00    -4000.00
04156               4.00    -3800.00
04157              10.00    -4000.00
04158               8.00    -4000.00
04159               0.00    -4000.00
04160              14.00    -4000.00
04161              18.00    -4000.00
04162               0.00    -4000.00
04163               2.00    -4000.00
04164              16.00    -3800.00
04165              14.00    -4000.00
04166              10.00    -4000.00
04167               2.00    -4000.00
04168               0.00    -4000.00
04169              14.00    -3800.00
04170              16.00    -4000.00
04171              16.00    -3800.00
04172               6.00    -4000.00
04173              -8.00    -3800.00
04174               4.00    -3800.00
04175              32.00    -4000.00
04176              22.00    -3800.00
04177             -10.00    -3800.00
04178              -6.00    -3800.00
04179              14.00    -4000.00
04180              24.00    -3800.00
04181              18.00    -3800.00
04182               8.00    -4000.00
04183               0.00    -3800.00
04184               2.00    -3800.00
04185              14.00    -3800.00
04186              16.00    -3800.00
04187              22.00    -3600.00
04188               6.00    -3800.00
04189               0.00    -3600.00
04190               6.00    -3600.00
04191               6.00    -3600.00
04192              16.00    -3600.00
04193              22.00    -3600.00
04194              10.00    -3600.00
04195               2.00    -3400.00
04196              -2.00    -3600.00
04197               6.00    -3600.00
04198              16.00    -3200.00
04199              14.00    -3400.00
04200               6.00    -3200.00
04201               8.00    -3200.00
04202               8.00    -3200.00
04203              10.00    -3200.00
04204               6.00    -3200.00
04205              -2.00    -3000.00
04206               2.00    -3200.00
04207              22.00    -3000.00
04208              18.00    -3200.00
04209               4.00    -3000.00
04210              -8.00    -3000.00
04211               4.00    -2800.00
04212              16.00    -2800.00
04213              14.00    -2800.00
04214               2.00    -3000.00
04215               6.00    -2800.00
04216               6.00    -2800.00
04217               2.00    -2600.00
04218               6.00    -2400.00
04219               0.00    -2400.00
04220               2.00    -2400.00
04221              22.00    -2400.00
04222              16.00    -2400.00
04223             -16.00    -2200.00
04224             -16.00    -2200.00
04225              16.00    -2000.00
04226              30.00    -2200.00
04227              10.00    -2200.00
04228             -20.00    -2000.00
04229              -6.00    -2000.00
04230              14.00    -2000.00
04231              14.00    -1800.00
04232               6.00    -2000.00
04233               0.00    -1600.00
04234              -6.00    -1600.00
04235               0.00    -1600.00
04236              10.00    -1400.00
04237              14.00    -1400.00
04238               6.00    -1200.00
04239              -6.00    -1000.00
04240              -2.00    -1200.00
04241               8.00    -1000.00
04242               0.00    -1200.00
04243              -2.00    -1000.00
04244              10.00     -800.00
04245               6.00     -800.00
04246              -6.00     -800.00
04247              -6.00     -800.00
04248               2.00     -600.00
04249              10.00     -600.00
04250               6.00     -400.00
04251              -6.00     -600.00
04252              -8.00     -400.00
04253               0.00     -600.00
04254               2.00     -400.00
04255               6.00        0.00
04256               6.00        0.00
04257              -8.00     -200.00
04258              -8.00        0.00
04259              -2.00        0.00
04260               0.00        0.00
04261               6.00      200.00
04262               6.00      200.00
04263              -2.00      200.00
04264              -4.00      400.00
04265               6.00      400.00
04266               8.00      400.00
04267               2.00      400.00
04268             -10.00      400.00
04269             -10.00      800.00
04270              16.00      800.00
04271             136.00     1000.00
04272             162.00     1000.00
04273            -254.00     1000.00
04274            -254.00      800.00
04275             238.00     1000.00
04276             246.00     1400.00
04277              -2.00     1200.00
04278            -254.00      800.00
04279              48.00     1600.00
04280             246.00     1600.00
04281            -218.00     1200.00
04282            -254.00     1600.00
04283             246.00     1800.00
04284             246.00     1600.00
04285            -254.00     1600.00
04286             -72.00     1800.00
04287             152.00     2000.00
04288            -128.00     1800.00
04289              58.00     2000.00
04290             144.00     2200.00
04291            -226.00     2000.00
04292              -2.00     2000.00
04293             136.00     2400.00
04294            -106.00     2200.00
04295              32.00     2400.00
04296              36.00     2400.00
04297            -182.00     2600.00
04298             128.00     2600.00
04299             122.00     2600.00
04300            -254.00     2400.00
04301              26.00     2800.00
04302             174.00     2800.00
04303            -132.00     2600.00
04304             -10.00     3000.00
04305              44.00     3000.00
04306             -90.00     3000.00
04307              54.00     3200.00
04308              18.00     3200.00
04309             -86.00     3200.00
04310              40.00     3400.00
04311             -16.00     3200.00
04312             -42.00     3200.00
04313              62.00     3400.00
04314             -42.00     3200.00
04315             -50.00     3200.00
04316              48.00     3400.00
04317             -26.00     3400.00
04318             -34.00     3400.00
04319              30.00     3600.00
04320             -16.00     3600.00
04321             -32.00     3600.00
04322             -14.00     3800.00
04323              -6.00     3600.00
04324               8.00     3600.00
04325             -10.00     3800.00
04326             -30.00     3600.00
04327              -6.00     3800.00
04328             -16.00     3800.00
04329             -28.00     4000.00
04330               8.00     4000.00
04331               6.00     4000.00
04332             -30.00     4000.00
04333             -10.00     4000.00
04334              -4.00     4000.00
04335             -32.00     4200.00
04336             -16.00     4000.00
04337               0.00     4200.00
04338              -2.00     4000.00
04339             -10.00     4000.00
04340             -30.00     4200.00
04341             -20.00     4000.00
04342              -6.00     4200.00
04343             -18.00     4200.00
04344             -10.00     4200.00
04345              -2.00     4400.00
04346             -24.00     4200.00
04347             -22.00     4400.00
04348              -8.00     4200.00
04349             -14.00     4400.00
04350             -16.00     4200.00
04351             -12.00     4400.00
04352             -18.00     4400.00
04353             -16.00     4400.00
04354             -16.00     4400.00
04355             -16.00     4200.00
04356             -14.00     4400.00
04357             -12.00     4200.00
04358             -16.00     4400.00
04359              -8.00     4400.00
04360             -16.00     4400.00
04361             -26.00     4200.00
04362             -16.00     4400.00
04363             -16.00     4200.00
04364             -18.00     4400.00
04365              -8.00     4200.00
04366             -10.00     4400.00
04367             -18.00     4400.00
04368             -20.00     4200.00
04369             -18.00     4200.00
04370             -14.00     4200.00
04371             -12.00     4200.00
04372             -10.00     4200.00
04373             -10.00     4200.00
04374             -22.00     4200.00
04375             -26.00     4200.00
04376             -16.00     4200.00
04377              -8.00     4000.00
04378             -10.00     4200.00
04379             -16.00     4000.00
04380             -14.00     4000.00
04381             -18.00     4000.00
04382             -20.00     4000.00
04383             -10.00     4000.00
04384             -10.00     3800.00
04385             -10.00     4000.00
04386             -14.00     3800.00
04387             -16.00     3800.00
04388             -22.00     3800.00
04389             -20.00     3800.00
04390             -10.00     3800.00
04391              -6.00     3600.00
04392             -14.00     3800.00
04393             -18.00     3600.00
04394             -16.00     3600.00
04395             -18.00     3600.00
04396             -16.00     3400.00
04397             -12.00     3400.00
04398             -10.00     3400.00
04399             -10.00     3600.00
04400             -16.00     3400.00
04401             -16.00     3200.00
04402             -18.00     3400.00
04403             -16.00     3200.00
04404             -10.00     3200.00
04405              -6.00     3200.00
04406             -10.00     3200.00
04407             -16.00     3000.00
04408             -18.00     3000.00
04409             -14.00     2800.00
04410             -14.00     2800.00
04411             -10.00     2800.00
04412              -8.00     2800.00
04413             -10.00     2600.00
04414             -18.00     2800.00
04415             -14.00     2600.00
04416              -8.00     2400.00
04417              -8.00     2600.00
04418             -10.00     2400.00
04419              -8.00     2400.00
04420             -12.00     2400.00
04421             -14.00     2000.00
04422             -10.00     2200.00
04423              -8.00     2000.00
04424              -8.00     2000.00
04425              -6.00     2000.00
04426             -10.00     1800.00
04427             -10.00     2000.00
04428             -14.00     1800.00
04429             -10.00     1800.00
04430              -6.00     1600.00
04431              -4.00     1800.00
04432              -6.00     1600.00
04433              -8.00     1600.00
04434             -10.00     1600.00
04435             -10.00     1200.00
04436              -6.00     1200.00
04437              -2.00     1400.00
04438              -2.00     1200.00
04439              -6.00     1200.00
04440              -8.00     1200.00
04441              -6.00     1000.00
04442              -4.00      800.00
04443              -6.00      800.00
04444              -2.00      800.00
04445              -2.00      800.00
04446              -6.00      800.00
04447              -8.00      400.00
04448              -4.00      800.00
04449              -2.00      400.00
04450              -2.00      400.00
04451              -6.00      400.00
04452              -2.00      200.00
04453               0.00      400.00
04454               0.00        0.00
04455              -2.00      200.00
04456               6.00        0.00
04457               6.00        0.00
04458              -2.00     -200.00
04459              -6.00        0.00
04460              -6.00     -400.00
04461               0.00     -400.00
04462              26.00     -400.00
04463             122.00     -600.00
04464             122.00     -600.00
04465            -238.00     -800.00
04466            -254.00     -600.00
04467             156.00     -600.00
04468             246.00     -600.00
04469             118.00    -1200.00
04470            -254.00     -800.00
04471             -86.00     -800.00
04472             246.00    -1200.00
04473             -10.00    -1000.00
04474            -254.00    -1000.00
04475              54.00    -1200.00
04476             246.00    -1400.00
04477             -46.00    -1400.00
04478             -74.00    -1400.00
04479             -80.00    -1600.00
04480            -110.00    -1400.00
04481             182.00    -1600.00
04482             192.00    -1600.00
04483            -238.00    -1800.00
04484            -134.00    -2000.00
04485             168.00    -2000.00
04486              74.00    -1800.00
04487             -26.00    -2200.00
04488             -74.00    -2200.00
04489             -58.00    -2200.00
04490             110.00    -2200.00
04491              96.00    -2200.00
04492            -158.00    -2200.00
04493             -46.00    -2400.00
04494             122.00    -2400.00
04495              18.00    -2400.00
04496             -40.00    -2400.00
04497              -6.00    -2600.00
04498               4.00    -2600.00
04499              22.00    -2800.00
04500              16.00    -2800.00
04501             -42.00    -2600.00
04502               6.00    -2800.00
04503              48.00    -3000.00
04504              18.00    -3000.00
04505             -24.00    -3000.00
04506             -22.00    -3000.00
04507               6.00    -3000.00
04508              40.00    -3000.00
04509              22.00    -3200.00
04510             -22.00    -3000.00
04511              -2.00    -3200.00
04512              24.00    -3200.00
04513              -6.00    -3400.00
04514             -14.00    -3200.00
04515              18.00    -3200.00
04516              22.00    -3400.00
04517               6.00    -3200.00
04518               0.00    -3400.00
04519              -2.00    -3600.00
04520               0.00    -3600.00
04521               6.00    -3600.00
04522              16.00    -3600.00
04523              14.00    -3600.00
04524               2.00    -3800.00
04525               8.00    -3600.00
04526              12.00    -3800.00
04527               0.00    -3800.00
04528              -4.00    -3800.00
04529              14.00    -3800.00
04530              18.00    -3800.00
04531              14.00    -3800.00
04532               0.00    -3800.00
04533              -2.00    -4000.00
04534               6.00    -3800.00
04535               6.00    -4000.00
04536               8.00    -3800.00
04537              10.00    -4000.00
04538               8.00    -4000.00
04539               8.00    -3800.00
04540               8.00    -4000.00
04541              -2.00    -3800.00
04542               2.00    -4000.00
04543              16.00    -3800.00
04544              18.00    -4000.00
04545               8.00    -4000.00
04546              -2.00    -4000.00
04547               0.00    -4200.00
04548              14.00    -4000.00
04549              12.00    -4000.00
04550               8.00    -4200.00
04551              14.00    -4000.00
04552               6.00    -4000.00
04553               2.00    -4000.00
04554              14.00    -4000.00
04555              14.00    -4000.00
04556              10.00    -3800.00
04557              10.00    -4000.00
04558              14.00    -3800.00
04559               8.00    -4000.00
04560               8.00    -3800.00
04561               8.00    -4000.00
04562              14.00    -4000.00
04563              16.00    -3800.00
04564               8.00    -3800.00
04565               8.00    -3800.00
04566               6.00    -3800.00
04567              10.00    -4000.00
04568              14.00    -3600.00
04569              16.00    -3800.00
04570              14.00    -3800.00
04571               8.00    -3800.00
04572               6.00    -3600.00
04573               8.00    -3800.00
04574              12.00    -3600.00
04575              16.00    -3600.00
04576              16.00    -3600.00
04577              12.00    -3400.00
04578               8.00    -3400.00
04579               8.00    -3600.00
04580              10.00    -3400.00
04581               8.00    -3400.00
04582              14.00    -3200.00
04583              14.00    -3200.00
04584              14.00    -3200.00
04585               8.00    -3200.00
04586               6.00    -3200.00
04587               2.00    -3200.00
04588               8.00    -3000.00
04589              14.00    -3200.00
04590              14.00    -3200.00
04591              10.00    -3000.00
04592               6.00    -3000.00
04593               0.00    -3000.00
04594               4.00    -2800.00
04595              10.00    -2800.00
04596              16.00    -3000.00
04597              10.00    -2800.00
04598               0.00    -2800.00
04599              -2.00    -2800.00
04600               2.00    -2600.00
04601              10.00    -2600.00
04602              10.00    -2400.00
04603               6.00    -2400.00
04604               2.00    -2400.00
04605               2.00    -2400.00
04606               2.00    -2200.00
04607               4.00    -2400.00
04608               6.00    -2200.00
04609               6.00    -2000.00
04610               4.00    -2000.00
04611               6.00    -2000.00
04612               2.00    -2000.00
04613               0.00    -2000.00
04614               0.00    -2000.00
04615               6.00    -1800.00
04616               8.00    -1600.00
04617               6.00    -1600.00
04618               4.00    -1600.00
04619               2.00    -1600.00
04620               2.00    -1400.00
04621               4.00    -1400.00
04622               2.00    -1400.00
04623               2.00    -1000.00
04624               0.00    -1200.00
04625               0.00    -1000.00
04626               0.00    -1000.00
04627              -2.00     -800.00
04628               0.00     -800.00
04629               0.00     -800.00
04630               6.00     -800.00
04631               2.00     -800.00
04632               2.00     -600.00
04633              -2.00     -600.00
04634              -2.00     -600.00
04635              -2.00     -600.00
04636               4.00     -400.00
04637               6.00     -400.00
04638               2.00     -400.00
04639              -6.00     -200.00
04640              -6.00        0.00
04641               0.00        0.00
04642               2.00        0.00
04643               0.00      200.00
04644               0.00      200.00
04645               0.00      200.00
04646               0.00      200.00
04647               4.00      400.00
04648              14.00      400.00
04649               8.00      400.00
04650              -6.00      600.00
04651             -10.00      400.00
04652              -6.00      800.00
04653              14.00      800.00
04654             124.00     1000.00
04655             178.00     1000.00
04656            -238.00      800.00
04657            -254.00      800.00
04658             154.00     1000.00
04659             246.00     1400.00
04660             122.00     1200.00
04661            -254.00      800.00
04662             -56.00     1400.00
04663             246.00     1600.00
04664            -118.00     1200.00
04665            -254.00     1200.00
04666             246.00     1800.00
04667             246.00     1600.00
04668            -254.00     1400.00
04669            -118.00     1800.00
04670             160.00     1800.00
04671            -122.00     1600.00
04672              46.00     1800.00
04673             162.00     2000.00
04674            -218.00     2000.00
04675             -30.00     2000.00
04676             142.00     2200.00
04677            -100.00     2200.00
04678              14.00     2200.00
04679              58.00     2600.00
04680            -176.00     2200.00
04681              96.00     2600.00
04682             138.00     2600.00
04683            -244.00     2600.00
04684               2.00     2800.00
04685             184.00     2600.00
04686            -122.00     2600.00
04687             -30.00     3000.00
04688              58.00     3000.00
04689             -88.00     2800.00
04690              32.00     3000.00
04691              22.00     2800.00
04692             -90.00     3000.00
04693              46.00     3200.00
04694               6.00     3200.00
04695             -50.00     3200.00
04696              48.00     3400.00
04697             -46.00     3400.00
04698             -50.00     3400.00
04699              58.00     3600.00
04700             -16.00     3400.00
04701             -46.00     3400.00
04702              22.00     3600.00
04703             -10.00     3600.00
04704             -26.00     3600.00
04705             -18.00     3800.00
04706             -14.00     3600.00
04707              16.00     3600.00
04708              -8.00     3800.00
04709             -32.00     3600.00
04710              -8.00     4000.00
04711             -14.00     4000.00
04712             -24.00     3800.00
04713               6.00     4000.00
04714              -2.00     4000.00
04715             -30.00     4000.00
04716             -10.00     4200.00
04717               0.00     4000.00
04718             -24.00     4000.00
04719             -20.00     4000.00
04720             -10.00     4000.00
04721             -10.00     4000.00
04722              -8.00     4000.00
04723             -22.00     4200.00
04724             -14.00     4200.00
04725             -10.00     4200.00
04726             -26.00     4200.00
04727             -10.00     4200.00
04728               2.00     4200.00
04729             -16.00     4200.00
04730             -18.00     4200.00
04731             -14.00     4400.00
04732             -20.00     4200.00
04733             -16.00     4200.00
04734              -8.00     4200.00
04735             -10.00     4400.00
04736             -16.00     4200.00
04737             -22.00     4200.00
04738             -16.00     4400.00
04739             -10.00     4200.00
04740             -14.00     4400.00
04741             -18.00     4400.00
04742             -12.00     4400.00
04743             -16.00     4200.00
04744             -18.00     4200.00
04745             -16.00     4200.00
04746             -16.00     4200.00
04747             -16.00     4400.00
04748              -8.00     4200.00
04749             -10.00     4400.00
04750             -20.00     4200.00
04751             -18.00     4400.00
04752             -14.00     4200.00
04753             -16.00     4200.00
04754             -18.00     4200.00
04755             -16.00     4200.00
04756             -10.00     4200.00
04757             -16.00     4200.00
04758             -22.00     4200.00
04759             -16.00     4200.00
04760              -8.00     4000.00
04761             -16.00     4200.00
04762             -18.00     4000.00
04763             -14.00     4200.00
04764             -14.00     4000.00
04765             -18.00     4000.00
04766             -16.00     4000.00
04767             -10.00     4000.00
04768             -12.00     4000.00
04769             -16.00     4000.00
04770             -16.00     3800.00
04771             -16.00     3800.00
04772             -16.00     3600.00
04773             -14.00     3600.00
04774             -10.00     3800.00
04775             -14.00     3600.00
04776             -18.00     3800.00
04777             -16.00     3600.00
04778             -14.00     3600.00
04779             -16.00     3600.00
04780              -8.00     3400.00
04781              -8.00     3400.00
04782             -16.00     3400.00
04783             -18.00     3400.00
04784             -16.00     3200.00
04785             -14.00     3200.00
04786             -14.00     3200.00
04787             -10.00     3200.00
04788              -8.00     3200.00
04789             -14.00     3200.00
04790             -16.00     3000.00
04791             -16.00     3000.00
04792             -10.00     2800.00
04793             -14.00     2800.00
04794             -10.00     2800.00
04795              -8.00     2800.00
04796             -12.00     2800.00
04797             -16.00     2800.00
04798             -14.00     2600.00
04799             -10.00     2600.00
04800             -10.00     2600.00
04801             -10.00     2400.00
04802              -8.00     2400.00
04803             -10.00     2400.00
04804             -14.00     2400.00
04805             -10.00     2200.00
04806              -8.00     2000.00
04807              -8.00     2000.00
04808              -6.00     1800.00
04809             -10.00     2000.00
04810             -10.00     2000.00
04811             -12.00     1800.00
04812             -10.00     1800.00
04813              -6.00     1800.00
04814              -6.00     1600.00
04815              -6.00     1600.00
04816              -8.00     1600.00
04817             -10.00     1600.00
04818             -10.00     1400.00
04819              -8.00     1200.00
04820              -6.00     1200.00
04821              -2.00     1200.00
04822              -6.00     1200.00
04823              -8.00     1000.00
04824              -6.00     1000.00
04825              -8.00      800.00
04826              -8.00      800.00
04827              -4.00     1000.00
04828               0.00      800.00
04829              -6.00      600.00
04830              -8.00      800.00
04831              -8.00      400.00
04832              -2.00      400.00
04833              -2.00      200.00
04834              -6.00      400.00
04835              -6.00      200.00
04836               0.00      200.00
04837               0.00      200.00
04838               2.00        0.00
04839               2.00      200.00
04840               6.00        0.00
04841              -2.00        0.00
04842              -8.00        0.00
04843              -4.00     -200.00
04844               2.00     -200.00
04845              22.00     -400.00
04846             114.00     -400.00
04847             136.00     -800.00
04848            -198.00     -800.00
04849            -254.00     -600.00
04850              86.00     -600.00
04851             246.00     -800.00
04852             220.00    -1000.00
04853            -254.00     -800.00
04854            -176.00     -800.00
04855             246.00    -1200.00
04856              82.00    -1000.00
04857            -254.00    -1000.00
04858              -6.00    -1400.00
04859             246.00    -1400.00
04860             -26.00    -1000.00
04861             -80.00    -1400.00
04862             -72.00    -1600.00
04863            -120.00    -1400.00
04864             162.00    -1600.00
04865             224.00    -1800.00
04866            -222.00    -1600.00
04867            -160.00    -1800.00
04868             152.00    -2000.00
04869              88.00    -2000.00
04870             -24.00    -2000.00
04871             -70.00    -2200.00
04872             -66.00    -2000.00
04873              96.00    -2200.00
04874             112.00    -2400.00
04875            -144.00    -2200.00
04876             -56.00    -2400.00
04877             122.00    -2600.00
04878              24.00    -2400.00
04879             -56.00    -2400.00
04880              -8.00    -2600.00
04881               6.00    -2600.00
04882              26.00    -2800.00
04883              30.00    -2800.00
04884             -38.00    -2800.00
04885             -12.00    -2800.00
04886              32.00    -2800.00
04887              22.00    -2800.00
04888             -10.00    -3000.00
04889             -14.00    -3000.00
04890               6.00    -3000.00
04891              32.00    -3200.00
04892              16.00    -3000.00
04893             -26.00    -3200.00
04894             -10.00    -3200.00
04895              30.00    -3400.00
04896              14.00    -3200.00
04897             -10.00    -3400.00
04898              10.00    -3200.00
04899              14.00    -3200.00
04900               0.00    -3400.00
04901               2.00    -3400.00
04902               8.00    -3600.00
04903               8.00    -3600.00
04904              10.00    -3600.00
04905               0.00    -3600.00
04906              -2.00    -3600.00
04907              10.00    -3800.00
04908              26.00    -3600.00
04909              24.00    -3800.00
04910              -6.00    -3600.00
04911             -22.00    -3800.00
04912               0.00    -3800.00
04913              32.00    -3800.00
04914              20.00    -3800.00
04915               2.00    -3800.00
04916              -2.00    -3800.00
04917               0.00    -3800.00
04918               8.00    -3800.00
04919              14.00    -3800.00
04920              10.00    -3800.00
04921               6.00    -3800.00
04922               2.00    -4000.00
04923               0.00    -4000.00
04924              10.00    -3800.00
04925              10.00    -4000.00
04926              14.00    -4000.00
04927              16.00    -4000.00
04928               4.00    -4000.00
04929              -2.00    -3800.00
04930               6.00    -4000.00
04931              14.00    -4000.00
04932              14.00    -4000.00
04933              12.00    -4000.00
04934               8.00    -4000.00
04935               6.00    -4000.00
04936               6.00    -4000.00
04937               8.00    -4000.00
04938              14.00    -4000.00
04939              16.00    -4000.00
04940               6.00    -4000.00
04941               6.00    -4000.00
04942               8.00    -3800.00
04943              10.00    -3800.00
04944              16.00    -4000.00
04945              14.00    -3800.00
04946               8.00    -4000.00
04947               8.00    -3800.00
04948               6.00    -3800.00
04949               8.00    -3800.00
04950               8.00    -3800.00
04951              14.00    -3800.00
04952              14.00    -3800.00
04953              14.00    -3800.00
04954               6.00    -3800.00
04955               6.00    -3800.00
04956               8.00    -3600.00
04957              14.00    -3800.00
04958              14.00    -3600.00
04959              12.00    -3600.00
04960               6.00    -3600.00
04961               8.00    -3600.00
04962              14.00    -3400.00
04963              14.00    -3400.00
04964               6.00    -3600.00
04965              10.00    -3200.00
04966              14.00    -3200.00
04967              14.00    -3400.00
04968               6.00    -3200.00
04969               4.00    -3200.00
04970               6.00    -3200.00
04971               8.00    -3000.00
04972              14.00    -3000.00
04973              12.00    -3000.00
04974              10.00    -3000.00
04975               6.00    -3000.00
04976               6.00    -2800.00
04977               6.00    -3000.00
04978               6.00    -2800.00
04979              10.00    -2800.00
04980              12.00    -2800.00
04981               8.00    -2800.00
04982               2.00    -2800.00
04983               0.00    -2600.00
04984               6.00    -2800.00
04985              10.00    -2400.00
04986               8.00    -2400.00
04987               2.00    -2400.00
04988               2.00    -2400.00
04989               6.00    -2200.00
04990              10.00    -2200.00
04991               8.00    -2200.00
04992               0.00    -2200.00
04993               0.00    -2200.00
04994               0.00    -2000.00
04995               6.00    -2000.00
04996               8.00    -2000.00
04997               6.00    -2000.00
04998              -2.00    -1600.00
04999              -2.00    -1600.00
05000               0.00    -1600.00
