Unit:(mV)
                     CH1         CH2
Frequency              ?           ?
00001               2.00    -2800.00
00002               0.00    -2800.00
00003              -6.00    -2800.00
00004              -6.00    -2800.00
00005              -2.00    -2400.00
00006               0.00    -2400.00
00007               0.00    -2400.00
00008               2.00    -2400.00
00009              -2.00    -2400.00
00010              -8.00    -2400.00
00011              -8.00    -2200.00
00012              -2.00    -2400.00
00013               0.00    -2000.00
00014               2.00    -2000.00
00015               2.00    -2000.00
00016              -4.00    -2000.00
00017              -6.00    -2000.00
00018              -4.00    -2000.00
00019              -2.00    -1600.00
00020               6.00    -1600.00
00021              -2.00    -1600.00
00022             -10.00    -1600.00
00023              -6.00    -1400.00
00024               0.00    -1400.00
00025              -2.00    -1200.00
00026             -10.00    -1200.00
00027               6.00    -1000.00
00028              10.00    -1200.00
00029              16.00    -1200.00
00030             -12.00     -800.00
00031             -10.00    -1000.00
00032              -8.00     -800.00
00033              -8.00     -800.00
00034              -6.00     -800.00
00035               2.00     -600.00
00036               6.00     -600.00
00037              10.00     -600.00
00038               2.00     -400.00
00039             -10.00     -600.00
00040              -8.00     -200.00
00041              -4.00     -400.00
00042               2.00     -200.00
00043               6.00     -200.00
00044              -8.00        0.00
00045             -10.00        0.00
00046               0.00        0.00
00047               4.00      200.00
00048               6.00      200.00
00049               0.00      400.00
00050              -2.00      200.00
00051              10.00      400.00
00052              10.00      400.00
00053              -2.00      400.00
00054             -14.00      600.00
00055             -10.00      600.00
00056               2.00      800.00
00057              32.00      800.00
00058             134.00      800.00
00059             144.00     1200.00
00060            -254.00      800.00
00061            -254.00      800.00
00062             246.00     1000.00
00063             246.00     1400.00
00064             -18.00     1200.00
00065            -254.00     1000.00
00066              56.00     1600.00
00067             246.00     1600.00
00068            -210.00     1200.00
00069            -254.00     1400.00
00070             246.00     1800.00
00071             246.00     1600.00
00072            -254.00     1600.00
00073             -72.00     2000.00
00074             118.00     1800.00
00075            -110.00     1800.00
00076              74.00     1800.00
00077             134.00     2000.00
00078            -214.00     2000.00
00079              -2.00     2000.00
00080             128.00     2400.00
00081             -88.00     2000.00
00082              32.00     2400.00
00083              22.00     2400.00
00084            -172.00     2400.00
00085             134.00     2600.00
00086             122.00     2400.00
00087            -238.00     2400.00
00088              26.00     2800.00
00089             158.00     2600.00
00090            -122.00     2800.00
00091              -2.00     2800.00
00092              46.00     3000.00
00093             -78.00     2800.00
00094              60.00     3200.00
00095              18.00     3200.00
00096             -86.00     3000.00
00097              40.00     3400.00
00098             -14.00     3200.00
00099             -24.00     3400.00
00100              72.00     3400.00
00101             -46.00     3400.00
00102             -50.00     3400.00
00103              50.00     3400.00
00104             -16.00     3400.00
00105             -18.00     3400.00
00106              30.00     3600.00
00107             -12.00     3400.00
00108             -12.00     3600.00
00109              -2.00     3600.00
00110              -8.00     3600.00
00111              10.00     3600.00
00112              -8.00     3800.00
00113             -16.00     3600.00
00114              16.00     4000.00
00115              -2.00     3800.00
00116             -28.00     3800.00
00117               6.00     4000.00
00118              10.00     4000.00
00119             -10.00     4000.00
00120               2.00     4000.00
00121               0.00     4000.00
00122             -24.00     4000.00
00123              -8.00     4000.00
00124              10.00     4200.00
00125               0.00     4000.00
00126              -6.00     4200.00
00127             -16.00     4200.00
00128               0.00     4200.00
00129               8.00     4200.00
00130             -18.00     4200.00
00131             -14.00     4200.00
00132               4.00     4200.00
00133              -8.00     4400.00
00134              -6.00     4000.00
00135               0.00     4200.00
00136             -14.00     4400.00
00137             -10.00     4200.00
00138               0.00     4400.00
00139               2.00     4200.00
00140              -2.00     4400.00
00141             -10.00     4400.00
00142             -14.00     4400.00
00143              -2.00     4400.00
00144              -2.00     4400.00
00145              -6.00     4400.00
00146               2.00     4400.00
00147              -4.00     4200.00
00148             -14.00     4400.00
00149              -8.00     4400.00
00150              -6.00     4400.00
00151              -8.00     4400.00
00152               0.00     4200.00
00153              -2.00     4400.00
00154              -8.00     4200.00
00155             -10.00     4200.00
00156              -8.00     4200.00
00157              -2.00     4200.00
00158               2.00     4200.00
00159               0.00     4200.00
00160              -6.00     4000.00
00161             -14.00     4200.00
00162             -16.00     4200.00
00163              -2.00     4200.00
00164               8.00     4200.00
00165               0.00     4000.00
00166              -8.00     4000.00
00167              -6.00     4000.00
00168             -10.00     4000.00
00169              -8.00     4000.00
00170               0.00     4000.00
00171               4.00     4000.00
00172              -2.00     4000.00
00173             -10.00     3800.00
00174             -10.00     4000.00
00175              -8.00     4000.00
00176              -2.00     3800.00
00177               0.00     3800.00
00178               0.00     3600.00
00179              -2.00     3800.00
00180             -10.00     3600.00
00181              -8.00     3600.00
00182              -2.00     3600.00
00183               0.00     3600.00
00184              -2.00     3400.00
00185              -2.00     3600.00
00186              -8.00     3400.00
00187              -6.00     3400.00
00188              -2.00     3200.00
00189              -2.00     3200.00
00190              -6.00     3200.00
00191              -6.00     3200.00
00192              -2.00     3200.00
00193              -4.00     3200.00
00194              -6.00     2800.00
00195              -2.00     3000.00
00196              -4.00     2800.00
00197              -6.00     2800.00
00198              -8.00     2800.00
00199              -2.00     2800.00
00200              -6.00     2800.00
00201              -6.00     2600.00
00202              -6.00     2800.00
00203              -4.00     2600.00
00204              -6.00     2600.00
00205              -6.00     2400.00
00206              -2.00     2400.00
00207              -6.00     2200.00
00208              -8.00     2200.00
00209              -6.00     2200.00
00210              -2.00     2200.00
00211              -6.00     2000.00
00212               0.00     2000.00
00213              -2.00     2000.00
00214              -8.00     1800.00
00215             -10.00     1800.00
00216              -4.00     1800.00
00217               0.00     1600.00
00218              -2.00     1600.00
00219             -10.00     1600.00
00220              -8.00     1600.00
00221              -2.00     1600.00
00222              -2.00     1400.00
00223              -2.00     1200.00
00224              -2.00     1200.00
00225              -6.00     1200.00
00226              -6.00     1000.00
00227              -2.00     1000.00
00228               0.00     1000.00
00229              -2.00      800.00
00230              -8.00     1000.00
00231              -8.00      800.00
00232               0.00      800.00
00233              -4.00      800.00
00234              -2.00      600.00
00235               2.00      800.00
00236               2.00      400.00
00237              -2.00      400.00
00238             -14.00      400.00
00239             -14.00      200.00
00240               0.00      200.00
00241              10.00      200.00
00242               2.00      200.00
00243               6.00        0.00
00244               0.00        0.00
00245              -6.00        0.00
00246              -6.00        0.00
00247               0.00        0.00
00248               0.00     -400.00
00249              18.00     -200.00
00250             114.00     -400.00
00251             122.00     -600.00
00252            -218.00     -600.00
00253            -254.00     -600.00
00254             144.00     -400.00
00255             246.00     -800.00
00256             114.00     -800.00
00257            -254.00     -800.00
00258             -88.00     -800.00
00259             246.00    -1200.00
00260               2.00    -1000.00
00261            -254.00    -1000.00
00262              22.00    -1200.00
00263             246.00    -1400.00
00264             -18.00    -1200.00
00265             -72.00    -1600.00
00266            -104.00    -1600.00
00267            -114.00    -1400.00
00268             182.00    -1600.00
00269             194.00    -1600.00
00270            -224.00    -1800.00
00271            -144.00    -2000.00
00272             146.00    -1800.00
00273              70.00    -1800.00
00274             -24.00    -2000.00
00275             -82.00    -2200.00
00276             -58.00    -2000.00
00277             106.00    -2200.00
00278              88.00    -2400.00
00279            -152.00    -2200.00
00280             -48.00    -2400.00
00281             104.00    -2400.00
00282              16.00    -2400.00
00283             -46.00    -2400.00
00284             -18.00    -2600.00
00285              -2.00    -2400.00
00286              28.00    -2600.00
00287              22.00    -2800.00
00288             -42.00    -2800.00
00289             -14.00    -2800.00
00290              24.00    -2800.00
00291              14.00    -2800.00
00292             -16.00    -3000.00
00293             -18.00    -3000.00
00294              -2.00    -3000.00
00295              18.00    -3200.00
00296               6.00    -3200.00
00297             -24.00    -3000.00
00298              -4.00    -3200.00
00299              20.00    -3200.00
00300              -6.00    -3200.00
00301             -20.00    -3200.00
00302               6.00    -3200.00
00303              14.00    -3200.00
00304               2.00    -3200.00
00305              -8.00    -3400.00
00306              -8.00    -3600.00
00307              -2.00    -3400.00
00308               6.00    -3600.00
00309               6.00    -3600.00
00310               0.00    -3600.00
00311              -8.00    -3600.00
00312              -4.00    -3800.00
00313               2.00    -3600.00
00314              -2.00    -3800.00
00315              -2.00    -3600.00
00316               8.00    -3800.00
00317               8.00    -3800.00
00318              -8.00    -3800.00
00319             -10.00    -3800.00
00320              -2.00    -3800.00
00321               0.00    -3800.00
00322               6.00    -3600.00
00323               2.00    -3800.00
00324               6.00    -4000.00
00325              -2.00    -4000.00
00326              -8.00    -4000.00
00327              -6.00    -4000.00
00328               0.00    -4000.00
00329               0.00    -3800.00
00330               6.00    -3800.00
00331               2.00    -3800.00
00332              -6.00    -4000.00
00333             -10.00    -4000.00
00334              -2.00    -3800.00
00335               2.00    -4000.00
00336               2.00    -4000.00
00337               2.00    -4000.00
00338              -2.00    -4000.00
00339              -6.00    -4000.00
00340              -2.00    -4000.00
00341              -4.00    -4000.00
00342               0.00    -4000.00
00343               2.00    -3800.00
00344               0.00    -4000.00
00345               0.00    -4000.00
00346              -4.00    -3800.00
00347              -6.00    -3800.00
00348              -2.00    -3800.00
00349               0.00    -3800.00
00350               0.00    -3800.00
00351               0.00    -3800.00
00352              -2.00    -3800.00
00353              -2.00    -3800.00
00354              -2.00    -3800.00
00355               0.00    -3800.00
00356               2.00    -3800.00
00357               2.00    -3800.00
00358               0.00    -3600.00
00359              -2.00    -3800.00
00360              -4.00    -3600.00
00361              -6.00    -3600.00
00362               2.00    -3600.00
00363               2.00    -3600.00
00364               2.00    -3600.00
00365              -2.00    -3600.00
00366               0.00    -3600.00
00367              -2.00    -3200.00
00368               0.00    -3200.00
00369               0.00    -3400.00
00370               2.00    -3200.00
00371               0.00    -3200.00
00372              -2.00    -3200.00
00373              -2.00    -3200.00
00374              -2.00    -3000.00
00375               0.00    -3200.00
00376               2.00    -3000.00
00377               2.00    -3000.00
00378               0.00    -3000.00
00379              -2.00    -3000.00
00380              -4.00    -3000.00
00381              -2.00    -2800.00
00382               0.00    -3000.00
00383               2.00    -2800.00
00384               0.00    -2800.00
00385               0.00    -2800.00
00386              -4.00    -2800.00
00387              -6.00    -2600.00
00388              -2.00    -2400.00
00389               0.00    -2600.00
00390               0.00    -2400.00
00391               0.00    -2400.00
00392              -2.00    -2400.00
00393              -8.00    -2200.00
00394              -2.00    -2200.00
00395               0.00    -2200.00
00396               0.00    -2200.00
00397               0.00    -2000.00
00398              -2.00    -2000.00
00399              -2.00    -2000.00
00400              -6.00    -2000.00
00401              -6.00    -1800.00
00402               0.00    -1600.00
00403              -2.00    -2000.00
00404              -2.00    -1600.00
00405              -2.00    -1400.00
00406              -2.00    -1600.00
00407              -4.00    -1400.00
00408              -2.00    -1400.00
00409              -2.00    -1200.00
00410               0.00    -1400.00
00411              -2.00    -1000.00
00412              -6.00    -1000.00
00413              -2.00    -1000.00
00414              -6.00    -1000.00
00415              -4.00     -800.00
00416               0.00     -800.00
00417               2.00     -800.00
00418              -2.00     -800.00
00419              -2.00     -600.00
00420              -2.00     -600.00
00421              -2.00     -400.00
00422              -2.00     -400.00
00423               0.00     -400.00
00424               0.00     -400.00
00425              -2.00     -200.00
00426              -6.00     -200.00
00427              -2.00        0.00
00428               0.00        0.00
00429              -2.00        0.00
00430              -2.00        0.00
00431              -2.00      200.00
00432               0.00      200.00
00433               0.00      200.00
00434               2.00      400.00
00435               6.00      400.00
00436               2.00      400.00
00437              -2.00      600.00
00438              -6.00      600.00
00439               0.00      600.00
00440              14.00      800.00
00441             118.00     1000.00
00442             158.00     1000.00
00443            -240.00     1000.00
00444            -254.00      800.00
00445             186.00     1200.00
00446             246.00     1400.00
00447              72.00     1200.00
00448            -254.00     1000.00
00449             -18.00     1600.00
00450             246.00     1600.00
00451            -134.00     1200.00
00452            -254.00     1400.00
00453             246.00     1800.00
00454             246.00     1600.00
00455            -254.00     1400.00
00456             -98.00     1800.00
00457             134.00     1800.00
00458            -106.00     1800.00
00459              58.00     2000.00
00460             146.00     2000.00
00461            -210.00     2000.00
00462             -24.00     2000.00
00463             136.00     2400.00
00464             -80.00     2000.00
00465              22.00     2400.00
00466              38.00     2400.00
00467            -174.00     2400.00
00468             112.00     2600.00
00469             138.00     2600.00
00470            -234.00     2600.00
00471               2.00     2800.00
00472             170.00     2800.00
00473            -108.00     2600.00
00474             -16.00     3000.00
00475              50.00     2800.00
00476             -82.00     2800.00
00477              46.00     3000.00
00478              26.00     3200.00
00479             -80.00     2800.00
00480              40.00     3200.00
00481              -8.00     3200.00
00482             -42.00     3200.00
00483              62.00     3400.00
00484             -34.00     3200.00
00485             -48.00     3200.00
00486              50.00     3400.00
00487             -14.00     3400.00
00488             -26.00     3400.00
00489              30.00     3600.00
00490             -10.00     3600.00
00491             -22.00     3600.00
00492              -8.00     3600.00
00493              -6.00     3600.00
00494              16.00     3600.00
00495              -2.00     3600.00
00496             -24.00     4000.00
00497               6.00     4000.00
00498              -4.00     3800.00
00499             -18.00     3800.00
00500              10.00     4000.00
00501               8.00     4000.00
00502             -20.00     4000.00
00503              -2.00     4200.00
00504               8.00     4000.00
00505             -16.00     4000.00
00506             -10.00     4000.00
00507               2.00     4200.00
00508               2.00     4200.00
00509               0.00     4000.00
00510             -14.00     4200.00
00511              -8.00     4000.00
00512               6.00     4200.00
00513             -10.00     4200.00
00514              -2.00     4200.00
00515              10.00     4200.00
00516             -12.00     4400.00
00517             -14.00     4200.00
00518               0.00     4400.00
00519              -6.00     4400.00
00520              -6.00     4200.00
00521               2.00     4200.00
00522              -2.00     4400.00
00523              -8.00     4200.00
00524             -14.00     4400.00
00525             -10.00     4200.00
00526               2.00     4200.00
00527               0.00     4400.00
00528              -8.00     4400.00
00529              -6.00     4400.00
00530              -8.00     4400.00
00531             -10.00     4400.00
00532              -2.00     4200.00
00533               0.00     4400.00
00534              -6.00     4200.00
00535              -6.00     4200.00
00536              -8.00     4400.00
00537             -10.00     4400.00
00538              -8.00     4200.00
00539              -6.00     4200.00
00540              -6.00     4200.00
00541              -2.00     4200.00
00542              -6.00     4000.00
00543              -6.00     4200.00
00544              -6.00     4000.00
00545             -10.00     4200.00
00546              -2.00     4200.00
00547               0.00     4200.00
00548              -8.00     4200.00
00549              -2.00     4000.00
00550               0.00     4000.00
00551              -8.00     4000.00
00552             -10.00     4000.00
00553              -6.00     4000.00
00554               0.00     3800.00
00555               0.00     4000.00
00556              -2.00     4000.00
00557              -6.00     3800.00
00558              -6.00     3600.00
00559             -10.00     3600.00
00560               0.00     3800.00
00561               2.00     3600.00
00562              -2.00     3600.00
00563              -8.00     3600.00
00564             -10.00     3600.00
00565              -6.00     3600.00
00566              -2.00     3600.00
00567               0.00     3400.00
00568              -2.00     3400.00
00569              -2.00     3600.00
00570             -10.00     3400.00
00571              -6.00     3200.00
00572               0.00     3200.00
00573              -2.00     3200.00
00574              -6.00     3200.00
00575              -2.00     3200.00
00576              -8.00     3200.00
00577              -8.00     3200.00
00578              -2.00     3000.00
00579              -2.00     3000.00
00580              -6.00     2800.00
00581              -6.00     2800.00
00582              -6.00     2800.00
00583              -2.00     2600.00
00584              -8.00     2600.00
00585              -6.00     2800.00
00586              -6.00     2600.00
00587              -2.00     2200.00
00588              -8.00     2400.00
00589              -4.00     2400.00
00590              -8.00     2400.00
00591              -8.00     2400.00
00592              -6.00     2000.00
00593              -2.00     2000.00
00594              -4.00     2000.00
00595              -4.00     2000.00
00596              -2.00     1800.00
00597              -6.00     1800.00
00598              -8.00     1800.00
00599             -10.00     1800.00
00600              -6.00     1600.00
00601              -2.00     1600.00
00602              -2.00     1600.00
00603              -6.00     1600.00
00604              -6.00     1600.00
00605              -8.00     1200.00
00606              -6.00     1200.00
00607               0.00     1200.00
00608              -2.00     1200.00
00609              -8.00     1200.00
00610              -8.00     1000.00
00611              -6.00     1000.00
00612              -2.00     1000.00
00613              -2.00     1000.00
00614              -2.00      800.00
00615               0.00      800.00
00616              -2.00      600.00
00617              -6.00      600.00
00618              -6.00      400.00
00619              -4.00      400.00
00620              -6.00      400.00
00621              -6.00      400.00
00622              -4.00      400.00
00623               2.00      200.00
00624               6.00      200.00
00625               0.00      200.00
00626               0.00        0.00
00627               4.00        0.00
00628              -2.00        0.00
00629              -8.00        0.00
00630              -2.00        0.00
00631               2.00     -400.00
00632              22.00     -200.00
00633             110.00     -400.00
00634             126.00     -600.00
00635            -202.00     -800.00
00636            -254.00     -600.00
00637             106.00     -400.00
00638             246.00     -600.00
00639             182.00    -1200.00
00640            -254.00     -800.00
00641            -152.00     -800.00
00642             246.00    -1200.00
00643              70.00    -1000.00
00644            -254.00    -1200.00
00645             -16.00    -1200.00
00646             246.00    -1400.00
00647              -8.00    -1400.00
00648             -70.00    -1600.00
00649             -90.00    -1600.00
00650            -120.00    -1400.00
00651             164.00    -1800.00
00652             208.00    -1600.00
00653            -214.00    -1600.00
00654            -160.00    -2000.00
00655             142.00    -2000.00
00656              84.00    -2000.00
00657             -18.00    -2000.00
00658             -78.00    -2200.00
00659             -70.00    -2000.00
00660              94.00    -2200.00
00661             102.00    -2400.00
00662            -144.00    -2200.00
00663             -58.00    -2200.00
00664             104.00    -2600.00
00665              24.00    -2400.00
00666             -48.00    -2400.00
00667             -22.00    -2600.00
00668              -2.00    -2800.00
00669              26.00    -2600.00
00670              22.00    -2800.00
00671             -46.00    -2800.00
00672             -16.00    -3000.00
00673              24.00    -2800.00
00674              18.00    -2800.00
00675             -14.00    -3000.00
00676             -18.00    -3000.00
00677              -6.00    -3000.00
00678              18.00    -3200.00
00679               8.00    -3200.00
00680             -24.00    -3000.00
00681              -2.00    -3200.00
00682              22.00    -3200.00
00683              -6.00    -3200.00
00684             -26.00    -3200.00
00685               0.00    -3400.00
00686              16.00    -3200.00
00687               6.00    -3400.00
00688              -4.00    -3600.00
00689             -10.00    -3600.00
00690              -6.00    -3600.00
00691               0.00    -3600.00
00692               8.00    -3600.00
00693               2.00    -3600.00
00694              -4.00    -3600.00
00695              -2.00    -3600.00
00696               2.00    -3600.00
00697              -2.00    -3600.00
00698              -8.00    -3800.00
00699               6.00    -3800.00
00700               8.00    -3800.00
00701              -2.00    -3600.00
00702              -8.00    -3800.00
00703               0.00    -3800.00
00704               0.00    -3800.00
00705               0.00    -3800.00
00706               0.00    -4000.00
00707               2.00    -3800.00
00708               0.00    -4000.00
00709              -2.00    -3800.00
00710              -2.00    -3800.00
00711               0.00    -4000.00
00712               0.00    -3800.00
00713               2.00    -4000.00
00714               2.00    -4000.00
00715              -2.00    -4000.00
00716              -8.00    -3800.00
00717              -2.00    -3800.00
00718               0.00    -4000.00
00719               0.00    -4000.00
00720               0.00    -4000.00
00721              -2.00    -4000.00
00722              -2.00    -4000.00
00723              -4.00    -4000.00
00724              -2.00    -3800.00
00725               2.00    -4000.00
00726               0.00    -4000.00
00727              -2.00    -3800.00
00728               0.00    -3800.00
00729              -2.00    -3800.00
00730              -6.00    -3800.00
00731              -2.00    -3800.00
00732               2.00    -3800.00
00733               0.00    -3800.00
00734               0.00    -3800.00
00735               0.00    -3800.00
00736              -6.00    -3600.00
00737              -6.00    -3800.00
00738               0.00    -3800.00
00739               4.00    -3600.00
00740               0.00    -3800.00
00741               0.00    -3800.00
00742              -2.00    -3800.00
00743              -2.00    -3600.00
00744              -4.00    -3600.00
00745               0.00    -3600.00
00746               2.00    -3600.00
00747               0.00    -3600.00
00748               0.00    -3400.00
00749              -2.00    -3600.00
00750              -2.00    -3600.00
00751              -2.00    -3200.00
00752               0.00    -3200.00
00753               0.00    -3200.00
00754               0.00    -3400.00
00755               0.00    -3200.00
00756              -2.00    -3200.00
00757              -2.00    -3200.00
00758              -2.00    -3000.00
00759               0.00    -3200.00
00760               2.00    -3000.00
00761               0.00    -3000.00
00762              -2.00    -3000.00
00763              -2.00    -3000.00
00764              -2.00    -3000.00
00765               0.00    -2800.00
00766               0.00    -2800.00
00767               0.00    -2800.00
00768               0.00    -2600.00
00769              -2.00    -2800.00
00770              -4.00    -2600.00
00771               0.00    -2400.00
00772               0.00    -2600.00
00773               0.00    -2400.00
00774               0.00    -2400.00
00775               0.00    -2200.00
00776              -6.00    -2200.00
00777              -6.00    -2200.00
00778              -2.00    -2200.00
00779               2.00    -2000.00
00780               0.00    -2000.00
00781              -2.00    -2000.00
00782              -6.00    -2000.00
00783              -2.00    -2000.00
00784              -2.00    -1800.00
00785              -2.00    -1800.00
00786              -6.00    -1600.00
00787              -4.00    -1600.00
00788              -2.00    -1600.00
00789               2.00    -1400.00
00790               0.00    -1400.00
00791              -2.00    -1600.00
00792              -6.00    -1200.00
00793              -6.00    -1200.00
00794               0.00    -1400.00
00795               0.00    -1000.00
00796              -2.00    -1000.00
00797              -8.00     -800.00
00798              -4.00    -1200.00
00799              -2.00     -800.00
00800               0.00     -800.00
00801               0.00     -800.00
00802              -8.00     -800.00
00803              -8.00     -600.00
00804              -6.00     -600.00
00805              -2.00     -400.00
00806               0.00     -400.00
00807               0.00     -200.00
00808              -2.00     -400.00
00809              -6.00     -200.00
00810              -6.00        0.00
00811              -6.00        0.00
00812               0.00        0.00
00813              -2.00        0.00
00814               0.00      200.00
00815               0.00        0.00
00816              -2.00      200.00
00817               0.00      400.00
00818               8.00      400.00
00819               6.00      400.00
00820              -2.00      600.00
00821              -8.00      400.00
00822              -2.00      800.00
00823              14.00      800.00
00824             110.00      800.00
00825             168.00     1000.00
00826            -208.00     1000.00
00827            -254.00     1000.00
00828             134.00     1000.00
00829             246.00     1200.00
00830             152.00     1200.00
00831            -254.00      800.00
00832             -88.00     1200.00
00833             246.00     1600.00
00834             -58.00     1200.00
00835            -254.00     1400.00
00836             206.00     1800.00
00837             246.00     1600.00
00838            -254.00     1600.00
00839            -122.00     1800.00
00840             142.00     2000.00
00841            -104.00     1800.00
00842              48.00     1800.00
00843             164.00     2000.00
00844            -198.00     2000.00
00845             -46.00     2200.00
00846             144.00     2400.00
00847             -70.00     2000.00
00848               6.00     2400.00
00849              54.00     2400.00
00850            -170.00     2400.00
00851              94.00     2600.00
00852             158.00     2600.00
00853            -230.00     2600.00
00854             -26.00     2800.00
00855             176.00     2800.00
00856             -94.00     2800.00
00857             -18.00     2800.00
00858              58.00     2800.00
00859             -90.00     2800.00
00860              24.00     3200.00
00861              40.00     3200.00
00862             -70.00     3200.00
00863              46.00     3200.00
00864              -8.00     3200.00
00865             -56.00     3200.00
00866              54.00     3400.00
00867             -24.00     3200.00
00868             -48.00     3400.00
00869              58.00     3600.00
00870             -16.00     3400.00
00871             -46.00     3400.00
00872              22.00     3600.00
00873               0.00     3400.00
00874               0.00     3600.00
00875               2.00     3800.00
00876             -18.00     3600.00
00877              -6.00     3600.00
00878             -10.00     4000.00
00879             -10.00     3800.00
00880              22.00     3800.00
00881               2.00     4000.00
00882             -26.00     3800.00
00883              -2.00     4000.00
00884               8.00     4000.00
00885             -16.00     4000.00
00886              -2.00     4000.00
00887              10.00     4200.00
00888             -12.00     4000.00
00889             -10.00     4200.00
00890               0.00     4200.00
00891              -6.00     4000.00
00892               0.00     4200.00
00893              -6.00     4200.00
00894              -2.00     4200.00
00895               2.00     4200.00
00896             -14.00     4200.00
00897             -10.00     4400.00
00898              10.00     4200.00
00899              -6.00     4200.00
00900             -10.00     4200.00
00901              -2.00     4400.00
00902             -10.00     4400.00
00903              -8.00     4200.00
00904               4.00     4400.00
00905               2.00     4400.00
00906              -6.00     4200.00
00907             -10.00     4400.00
00908             -10.00     4400.00
00909               0.00     4200.00
00910              -2.00     4200.00
00911              -8.00     4200.00
00912              -4.00     4200.00
00913              -8.00     4200.00
00914             -10.00     4200.00
00915              -2.00     4200.00
00916               2.00     4200.00
00917              -8.00     4200.00
00918              -8.00     4400.00
00919              -8.00     4200.00
00920             -10.00     4400.00
00921              -6.00     4200.00
00922              -2.00     4400.00
00923              -2.00     4200.00
00924              -2.00     4200.00
00925             -10.00     4200.00
00926             -10.00     4200.00
00927              -8.00     4000.00
00928             -10.00     4200.00
00929              -6.00     4000.00
00930              -2.00     4200.00
00931              -8.00     4000.00
00932              -8.00     4000.00
00933              -2.00     4000.00
00934              -8.00     4000.00
00935              -8.00     4000.00
00936              -2.00     4000.00
00937               0.00     4000.00
00938              -8.00     3800.00
00939             -10.00     4000.00
00940             -10.00     3800.00
00941              -2.00     3800.00
00942              -2.00     3600.00
00943              -6.00     3600.00
00944              -6.00     3600.00
00945             -10.00     3600.00
00946              -2.00     3600.00
00947              -2.00     3400.00
00948              -2.00     3600.00
00949              -8.00     3400.00
00950              -6.00     3600.00
00951               0.00     3600.00
00952              -2.00     3400.00
00953             -10.00     3200.00
00954             -10.00     3400.00
00955              -8.00     3400.00
00956              -2.00     3200.00
00957               6.00     3200.00
00958               0.00     3200.00
00959             -10.00     3000.00
00960             -10.00     3000.00
00961              -8.00     3200.00
00962              -2.00     2800.00
00963              -6.00     2800.00
00964              -6.00     2800.00
00965              -2.00     2800.00
00966               0.00     2800.00
00967              -8.00     2800.00
00968              -2.00     2800.00
00969               0.00     2400.00
00970              -2.00     2400.00
00971              -8.00     2600.00
00972              -2.00     2400.00
00973              -6.00     2400.00
00974              -6.00     2400.00
00975              -8.00     2000.00
00976              -8.00     2000.00
00977              -2.00     2000.00
00978               0.00     2000.00
00979              -2.00     1800.00
00980              -6.00     2000.00
00981             -10.00     1800.00
00982             -10.00     1600.00
00983              -2.00     1600.00
00984               0.00     1600.00
00985              -2.00     1600.00
00986              -6.00     1600.00
00987              -8.00     1600.00
00988              -8.00     1200.00
00989              -6.00     1200.00
00990              -2.00     1200.00
00991              -2.00     1200.00
00992              -8.00     1000.00
00993              -6.00     1000.00
00994              -2.00     1000.00
00995              -8.00     1000.00
00996              -8.00     1000.00
00997              -8.00      800.00
00998               2.00      600.00
00999               0.00      800.00
01000              -4.00      800.00
01001             -10.00      400.00
01002              -8.00      400.00
01003              -6.00      400.00
01004               0.00      400.00
01005              -2.00      400.00
01006               0.00      200.00
01007               0.00      200.00
01008               0.00        0.00
01009               2.00        0.00
01010               2.00        0.00
01011              -8.00        0.00
01012             -10.00        0.00
01013               0.00     -400.00
01014               8.00     -400.00
01015              24.00     -400.00
01016             102.00     -400.00
01017             130.00     -800.00
01018            -184.00     -800.00
01019            -254.00     -600.00
01020              62.00     -600.00
01021             246.00     -600.00
01022             246.00     -800.00
01023            -254.00     -800.00
01024            -214.00     -800.00
01025             246.00    -1200.00
01026             126.00    -1000.00
01027            -254.00    -1200.00
01028             -54.00    -1200.00
01029             246.00    -1400.00
01030               8.00    -1400.00
01031             -74.00    -1400.00
01032             -86.00    -1600.00
01033            -126.00    -1400.00
01034             150.00    -1600.00
01035             224.00    -1800.00
01036            -200.00    -1600.00
01037            -168.00    -2000.00
01038             134.00    -2000.00
01039              94.00    -2000.00
01040             -22.00    -2000.00
01041             -78.00    -2200.00
01042             -72.00    -2000.00
01043              92.00    -2000.00
01044             118.00    -2400.00
01045            -136.00    -2200.00
01046             -78.00    -2400.00
01047              90.00    -2400.00
01048              30.00    -2400.00
01049             -42.00    -2400.00
01050             -14.00    -2600.00
01051               0.00    -2600.00
01052              26.00    -2600.00
01053              22.00    -2800.00
01054             -46.00    -2800.00
01055             -26.00    -2800.00
01056              18.00    -3000.00
01057              18.00    -2800.00
01058             -16.00    -3000.00
01059             -16.00    -3000.00
01060              -2.00    -3000.00
01061              22.00    -3000.00
01062               6.00    -3200.00
01063             -26.00    -3000.00
01064              -8.00    -3200.00
01065              20.00    -3200.00
01066              -6.00    -3200.00
01067             -26.00    -3200.00
01068               2.00    -3200.00
01069              14.00    -3400.00
01070               0.00    -3200.00
01071              -6.00    -3400.00
01072              -6.00    -3600.00
01073              -2.00    -3400.00
01074               6.00    -3600.00
01075               2.00    -3800.00
01076              -2.00    -3600.00
01077             -10.00    -3600.00
01078              -8.00    -3600.00
01079               6.00    -3600.00
01080               0.00    -3600.00
01081              -6.00    -3600.00
01082               6.00    -3800.00
01083               8.00    -3800.00
01084              -2.00    -3800.00
01085              -6.00    -3800.00
01086              -2.00    -3800.00
01087              -2.00    -3800.00
01088              -2.00    -3800.00
01089               0.00    -3800.00
01090               6.00    -4000.00
01091               6.00    -3800.00
01092               0.00    -4000.00
01093              -4.00    -4000.00
01094              -6.00    -3800.00
01095              -4.00    -4000.00
01096               0.00    -3800.00
01097               2.00    -4000.00
01098               0.00    -4000.00
01099              -6.00    -3800.00
01100               0.00    -4000.00
01101               4.00    -3800.00
01102               2.00    -3800.00
01103               0.00    -3800.00
01104               0.00    -4000.00
01105              -2.00    -4000.00
01106              -2.00    -4000.00
01107              -2.00    -4000.00
01108               2.00    -4000.00
01109               0.00    -3800.00
01110              -2.00    -3800.00
01111               0.00    -4000.00
01112              -2.00    -4000.00
01113              -6.00    -3800.00
01114              -2.00    -3800.00
01115               0.00    -3800.00
01116              -2.00    -3800.00
01117               0.00    -3800.00
01118              -2.00    -3800.00
01119              -4.00    -3800.00
01120               0.00    -3800.00
01121               0.00    -3800.00
01122               0.00    -3800.00
01123               0.00    -3800.00
01124               0.00    -3600.00
01125              -6.00    -3800.00
01126              -8.00    -3600.00
01127              -2.00    -3800.00
01128              -2.00    -3600.00
01129               2.00    -3600.00
01130               0.00    -3600.00
01131               0.00    -3600.00
01132              -2.00    -3400.00
01133              -6.00    -3400.00
01134              -6.00    -3400.00
01135               0.00    -3400.00
01136               0.00    -3200.00
01137               0.00    -3200.00
01138              -2.00    -3200.00
01139              -2.00    -3200.00
01140              -2.00    -3200.00
01141               0.00    -3200.00
01142               0.00    -3200.00
01143               0.00    -3000.00
01144               0.00    -3000.00
01145              -2.00    -3000.00
01146              -2.00    -3000.00
01147              -2.00    -2800.00
01148              -2.00    -3000.00
01149               0.00    -2800.00
01150               4.00    -2800.00
01151               0.00    -2800.00
01152              -6.00    -2800.00
01153              -6.00    -2600.00
01154              -2.00    -2600.00
01155               6.00    -2400.00
01156               0.00    -2400.00
01157              -4.00    -2400.00
01158              -6.00    -2400.00
01159              -2.00    -2200.00
01160               2.00    -2200.00
01161               0.00    -2200.00
01162              -6.00    -2200.00
01163              -8.00    -2200.00
01164               0.00    -2000.00
01165               6.00    -2000.00
01166               0.00    -2000.00
01167              -4.00    -2000.00
01168              -8.00    -2000.00
01169              -6.00    -1600.00
01170               0.00    -1600.00
01171               0.00    -1600.00
01172               0.00    -1400.00
01173              -6.00    -1400.00
01174              -6.00    -1400.00
01175              -2.00    -1400.00
01176              -2.00    -1000.00
01177              -2.00    -1200.00
01178              -2.00    -1000.00
01179              -4.00    -1000.00
01180              -6.00     -800.00
01181              -8.00     -800.00
01182               0.00     -800.00
01183               0.00     -800.00
01184              -2.00     -800.00
01185              -4.00     -600.00
01186              -6.00     -600.00
01187              -8.00     -600.00
01188              -2.00     -400.00
01189               0.00     -400.00
01190               0.00     -400.00
01191               0.00     -200.00
01192              -6.00     -400.00
01193             -10.00     -200.00
01194              -2.00        0.00
01195               2.00        0.00
01196              -2.00      200.00
01197              -2.00      200.00
01198              -2.00      200.00
01199              -2.00      400.00
01200               2.00      400.00
01201              10.00      400.00
01202               8.00      400.00
01203              -6.00      600.00
01204             -10.00      600.00
01205              -2.00      600.00
01206              10.00      800.00
01207              98.00      800.00
01208             174.00     1000.00
01209            -176.00      800.00
01210            -254.00      800.00
01211              82.00     1200.00
01212             246.00     1200.00
01213             230.00     1200.00
01214            -254.00      800.00
01215            -156.00     1400.00
01216             246.00     1600.00
01217              10.00     1200.00
01218            -254.00     1400.00
01219             158.00     1800.00
01220             246.00     1800.00
01221            -238.00     1400.00
01222            -146.00     1800.00
01223             146.00     2000.00
01224             -96.00     1800.00
01225              30.00     2000.00
01226             170.00     2200.00
01227            -182.00     2000.00
01228             -62.00     2000.00
01229             146.00     2400.00
01230             -62.00     2200.00
01231               0.00     2400.00
01232              64.00     2400.00
01233            -168.00     2400.00
01234              72.00     2600.00
01235             174.00     2600.00
01236            -214.00     2600.00
01237             -42.00     2800.00
01238             182.00     2800.00
01239             -86.00     2600.00
01240             -40.00     3000.00
01241              64.00     3000.00
01242             -74.00     2800.00
01243              30.00     3200.00
01244              46.00     3200.00
01245             -82.00     3000.00
01246              32.00     3200.00
01247               6.00     3200.00
01248             -50.00     3200.00
01249              58.00     3400.00
01250             -22.00     3200.00
01251             -58.00     3400.00
01252              48.00     3400.00
01253              -6.00     3400.00
01254             -34.00     3400.00
01255              30.00     3600.00
01256             -10.00     3600.00
01257             -26.00     3600.00
01258             -10.00     3600.00
01259              -6.00     3600.00
01260              14.00     3600.00
01261              -2.00     3800.00
01262             -24.00     3600.00
01263               6.00     4000.00
01264               4.00     4000.00
01265             -24.00     4000.00
01266              -6.00     4000.00
01267               0.00     4000.00
01268             -16.00     4000.00
01269               6.00     4000.00
01270              22.00     4000.00
01271             -18.00     4000.00
01272             -24.00     4000.00
01273              -8.00     4200.00
01274               0.00     4000.00
01275               8.00     4200.00
01276              -2.00     4200.00
01277              -6.00     4200.00
01278              -2.00     4200.00
01279             -18.00     4200.00
01280             -10.00     4200.00
01281              12.00     4200.00
01282              -6.00     4400.00
01283             -16.00     4200.00
01284               2.00     4400.00
01285              -2.00     4400.00
01286              -8.00     4400.00
01287              -6.00     4400.00
01288              -8.00     4200.00
01289             -10.00     4200.00
01290              -4.00     4400.00
01291               0.00     4400.00
01292               6.00     4400.00
01293              -6.00     4200.00
01294             -18.00     4400.00
01295              -8.00     4200.00
01296               2.00     4400.00
01297              -2.00     4400.00
01298               0.00     4200.00
01299              -6.00     4400.00
01300             -12.00     4200.00
01301              -8.00     4200.00
01302              -2.00     4400.00
01303              -8.00     4400.00
01304              -8.00     4200.00
01305              -6.00     4200.00
01306              -2.00     4200.00
01307              -2.00     4200.00
01308              -4.00     4200.00
01309              -8.00     4200.00
01310             -10.00     4200.00
01311             -12.00     4000.00
01312              -6.00     4200.00
01313               2.00     4000.00
01314              -4.00     4000.00
01315             -10.00     4000.00
01316              -6.00     4000.00
01317              -8.00     4000.00
01318              -8.00     4000.00
01319              -2.00     4000.00
01320              -6.00     4000.00
01321              -6.00     4000.00
01322              -8.00     4000.00
01323              -6.00     3800.00
01324              -6.00     3800.00
01325             -10.00     3800.00
01326              -8.00     3600.00
01327              -2.00     3800.00
01328              -2.00     3600.00
01329              -6.00     3600.00
01330              -6.00     3600.00
01331              -8.00     3600.00
01332             -10.00     3600.00
01333              -6.00     3400.00
01334              -2.00     3600.00
01335              -2.00     3400.00
01336              -8.00     3400.00
01337              -6.00     3400.00
01338              -6.00     3400.00
01339              -8.00     3200.00
01340              -6.00     3400.00
01341               0.00     3200.00
01342              -2.00     3200.00
01343              -2.00     3000.00
01344              -8.00     3000.00
01345              -4.00     2800.00
01346              -8.00     2800.00
01347              -6.00     3200.00
01348              -2.00     2800.00
01349               0.00     2800.00
01350              -8.00     2600.00
01351              -2.00     2600.00
01352              -2.00     2600.00
01353              -2.00     2400.00
01354              -8.00     2400.00
01355              -2.00     2400.00
01356              -6.00     2400.00
01357              -2.00     2400.00
01358              -6.00     2200.00
01359              -2.00     2200.00
01360               0.00     2000.00
01361              -2.00     2000.00
01362              -6.00     1800.00
01363              -6.00     1800.00
01364              -6.00     1800.00
01365              -6.00     1800.00
01366               0.00     1800.00
01367               2.00     1800.00
01368               0.00     1600.00
01369              -6.00     1600.00
01370             -10.00     1600.00
01371             -10.00     1600.00
01372              -2.00     1200.00
01373               4.00     1200.00
01374               2.00     1200.00
01375              -8.00     1200.00
01376             -10.00     1000.00
01377              -6.00     1000.00
01378              -4.00     1000.00
01379              -2.00      800.00
01380              -2.00      800.00
01381              -2.00      800.00
01382              -2.00      800.00
01383              -8.00      600.00
01384               0.00      800.00
01385               0.00      400.00
01386              -6.00      400.00
01387              -8.00      400.00
01388              -6.00      200.00
01389               2.00      200.00
01390               6.00      200.00
01391              -2.00        0.00
01392               0.00        0.00
01393               6.00        0.00
01394               0.00     -200.00
01395             -10.00        0.00
01396             -10.00     -200.00
01397               0.00        0.00
01398              22.00     -400.00
01399             100.00     -400.00
01400             142.00     -600.00
01401            -154.00     -800.00
01402            -254.00     -600.00
01403              14.00     -600.00
01404             246.00     -800.00
01405             246.00    -1000.00
01406            -254.00     -800.00
01407            -254.00     -800.00
01408             246.00    -1200.00
01409             182.00    -1000.00
01410            -254.00    -1200.00
01411             -90.00    -1200.00
01412             246.00    -1400.00
01413              20.00    -1200.00
01414             -74.00    -1400.00
01415             -78.00    -1400.00
01416            -130.00    -1200.00
01417             132.00    -1600.00
01418             240.00    -1600.00
01419            -184.00    -1600.00
01420            -188.00    -2000.00
01421             118.00    -2000.00
01422             108.00    -2000.00
01423             -12.00    -2000.00
01424             -72.00    -2200.00
01425             -78.00    -2000.00
01426              72.00    -2200.00
01427             122.00    -2400.00
01428            -122.00    -2400.00
01429             -78.00    -2200.00
01430              96.00    -2400.00
01431              42.00    -2400.00
01432             -50.00    -2400.00
01433             -24.00    -2600.00
01434              -8.00    -2600.00
01435              24.00    -2600.00
01436              30.00    -2800.00
01437             -40.00    -2800.00
01438             -26.00    -2800.00
01439              22.00    -3000.00
01440              22.00    -3000.00
01441             -10.00    -3000.00
01442             -18.00    -3000.00
01443              -8.00    -3000.00
01444              18.00    -2800.00
01445               6.00    -3200.00
01446             -22.00    -3200.00
01447              -8.00    -3200.00
01448              22.00    -3200.00
01449               0.00    -3200.00
01450             -28.00    -3200.00
01451              -2.00    -3400.00
01452              16.00    -3600.00
01453               6.00    -3600.00
01454              -4.00    -3600.00
01455             -10.00    -3600.00
01456             -10.00    -3600.00
01457               2.00    -3600.00
01458               8.00    -3600.00
01459               2.00    -3600.00
01460              -4.00    -3600.00
01461              -6.00    -3600.00
01462               0.00    -3600.00
01463               0.00    -3600.00
01464              -8.00    -3800.00
01465               0.00    -3600.00
01466               8.00    -3800.00
01467              -2.00    -3800.00
01468              -8.00    -3800.00
01469               0.00    -3800.00
01470               0.00    -4000.00
01471               0.00    -3800.00
01472              -2.00    -3800.00
01473               2.00    -3800.00
01474               2.00    -4000.00
01475              -2.00    -4000.00
01476              -2.00    -3800.00
01477               0.00    -4000.00
01478               0.00    -3800.00
01479               0.00    -4000.00
01480               2.00    -4000.00
01481              -2.00    -4000.00
01482              -2.00    -4000.00
01483               2.00    -3800.00
01484               2.00    -4000.00
01485              -2.00    -4000.00
01486              -2.00    -3800.00
01487               0.00    -4000.00
01488               4.00    -4000.00
01489               0.00    -4200.00
01490              -2.00    -4000.00
01491              -6.00    -4000.00
01492               0.00    -3800.00
01493               6.00    -4000.00
01494               8.00    -3800.00
01495              -2.00    -3800.00
01496             -10.00    -4000.00
01497              -6.00    -4000.00
01498               6.00    -3800.00
01499               8.00    -3800.00
01500              -2.00    -4000.00
01501             -10.00    -3800.00
01502             -10.00    -3800.00
01503               0.00    -4000.00
01504               8.00    -3800.00
01505               8.00    -3800.00
01506              -6.00    -3600.00
01507             -10.00    -3800.00
01508              -2.00    -3600.00
01509               2.00    -3600.00
01510             -10.00    -3600.00
01511             -14.00    -3600.00
01512               2.00    -3600.00
01513              22.00    -3600.00
01514               2.00    -3600.00
01515             -22.00    -3600.00
01516             -24.00    -3400.00
01517               0.00    -3400.00
01518              20.00    -3400.00
01519              14.00    -3200.00
01520              -8.00    -3400.00
01521             -16.00    -3400.00
01522             -14.00    -3200.00
01523               0.00    -3200.00
01524              14.00    -3000.00
01525               8.00    -3200.00
01526               0.00    -3000.00
01527              -2.00    -3000.00
01528             -10.00    -3000.00
01529             -10.00    -3000.00
01530              -6.00    -2800.00
01531               4.00    -2800.00
01532              16.00    -2800.00
01533              14.00    -2600.00
01534             -16.00    -2800.00
01535             -22.00    -2600.00
01536              -2.00    -2800.00
01537               8.00    -2400.00
01538              10.00    -2400.00
01539              -6.00    -2400.00
01540             -10.00    -2400.00
01541               2.00    -2400.00
01542               8.00    -2200.00
01543              -4.00    -2200.00
01544              -2.00    -2000.00
01545              -2.00    -2200.00
01546               0.00    -2200.00
01547               0.00    -2000.00
01548              -2.00    -2000.00
01549              -2.00    -2000.00
01550               0.00    -1800.00
01551              -6.00    -1600.00
01552              -2.00    -1600.00
01553               2.00    -1400.00
01554               2.00    -1600.00
01555               4.00    -1600.00
01556               0.00    -1400.00
01557              -2.00    -1400.00
01558              -6.00    -1400.00
01559              -2.00    -1000.00
01560              -2.00    -1200.00
01561               4.00    -1000.00
01562               6.00    -1000.00
01563              -2.00    -1000.00
01564              -2.00     -800.00
01565              -6.00     -800.00
01566              -8.00     -800.00
01567              -2.00     -800.00
01568               2.00     -600.00
01569               0.00     -600.00
01570               0.00     -400.00
01571              -4.00     -600.00
01572              -8.00     -400.00
01573              -2.00     -400.00
01574              -2.00     -400.00
01575              -6.00     -400.00
01576              -2.00        0.00
01577              -6.00        0.00
01578              -2.00        0.00
01579              -8.00        0.00
01580              -6.00        0.00
01581               4.00      200.00
01582               8.00      200.00
01583               0.00      400.00
01584               4.00      400.00
01585               2.00      400.00
01586               0.00      600.00
01587              -6.00      400.00
01588              -2.00      600.00
01589               4.00      800.00
01590              94.00      800.00
01591             182.00     1000.00
01592            -144.00     1000.00
01593            -254.00      800.00
01594              34.00     1000.00
01595             246.00     1200.00
01596             246.00     1200.00
01597            -254.00      800.00
01598            -222.00     1200.00
01599             246.00     1600.00
01600              88.00     1200.00
01601            -254.00     1200.00
01602             106.00     1600.00
01603             246.00     1600.00
01604            -214.00     1400.00
01605            -168.00     2000.00
01606             150.00     1800.00
01607             -90.00     1600.00
01608              14.00     2000.00
01609             176.00     2000.00
01610            -168.00     2000.00
01611             -80.00     2000.00
01612             146.00     2000.00
01613             -48.00     2200.00
01614              -8.00     2400.00
01615              78.00     2400.00
01616            -162.00     2400.00
01617              48.00     2600.00
01618             184.00     2800.00
01619            -200.00     2400.00
01620             -64.00     2800.00
01621             192.00     2800.00
01622             -74.00     2600.00
01623             -52.00     2800.00
01624              66.00     3000.00
01625             -74.00     2800.00
01626              18.00     3200.00
01627              56.00     3200.00
01628             -82.00     3200.00
01629              26.00     3200.00
01630              10.00     3200.00
01631             -54.00     3200.00
01632              54.00     3200.00
01633             -10.00     3400.00
01634             -64.00     3200.00
01635              46.00     3400.00
01636               0.00     3400.00
01637             -40.00     3200.00
01638              24.00     3600.00
01639              -6.00     3400.00
01640             -24.00     3600.00
01641              -6.00     3600.00
01642              -6.00     3600.00
01643              14.00     3600.00
01644               0.00     3600.00
01645             -32.00     3800.00
01646              -2.00     4000.00
01647               0.00     3800.00
01648             -16.00     3800.00
01649               6.00     4000.00
01650              10.00     4000.00
01651             -22.00     4000.00
01652             -10.00     4000.00
01653               8.00     4000.00
01654             -14.00     4000.00
01655             -10.00     4000.00
01656               2.00     4000.00
01657              -2.00     4200.00
01658              -2.00     4000.00
01659             -10.00     4200.00
01660             -10.00     4200.00
01661               6.00     4200.00
01662             -10.00     4200.00
01663             -10.00     4200.00
01664               8.00     4200.00
01665              -8.00     4200.00
01666             -14.00     4200.00
01667               0.00     4400.00
01668              -2.00     4200.00
01669             -10.00     4200.00
01670               0.00     4400.00
01671              -2.00     4400.00
01672              -6.00     4400.00
01673              -8.00     4400.00
01674              -8.00     4400.00
01675              -2.00     4200.00
01676               0.00     4400.00
01677              -6.00     4400.00
01678               0.00     4400.00
01679              -2.00     4400.00
01680             -14.00     4400.00
01681              -8.00     4400.00
01682              -2.00     4200.00
01683              -2.00     4200.00
01684               0.00     4400.00
01685              -2.00     4400.00
01686             -10.00     4200.00
01687             -10.00     4400.00
01688              -6.00     4400.00
01689              -2.00     4200.00
01690               2.00     4200.00
01691              -6.00     4200.00
01692              -8.00     4200.00
01693              -8.00     4200.00
01694             -10.00     4000.00
01695              -6.00     4200.00
01696               2.00     4200.00
01697              -6.00     4000.00
01698              -8.00     4000.00
01699              -6.00     4200.00
01700              -8.00     4000.00
01701              -6.00     4000.00
01702              -2.00     4000.00
01703              -2.00     4000.00
01704              -8.00     4000.00
01705             -10.00     3800.00
01706              -6.00     4000.00
01707              -2.00     3800.00
01708              -8.00     4000.00
01709              -6.00     3600.00
01710               0.00     3600.00
01711              -6.00     3800.00
01712              -6.00     3600.00
01713              -8.00     3600.00
01714              -6.00     3600.00
01715              -8.00     3400.00
01716              -2.00     3400.00
01717              -4.00     3200.00
01718              -4.00     3400.00
01719              -8.00     3400.00
01720              -8.00     3400.00
01721              -4.00     3200.00
01722              -4.00     3200.00
01723              -2.00     3200.00
01724               0.00     3200.00
01725              -2.00     3200.00
01726             -10.00     3200.00
01727              -6.00     3200.00
01728              -8.00     2800.00
01729              -8.00     2800.00
01730              -6.00     2800.00
01731              -2.00     2800.00
01732              -2.00     2600.00
01733              -6.00     2600.00
01734              -6.00     2600.00
01735               0.00     2600.00
01736              -2.00     2600.00
01737              -6.00     2600.00
01738              -2.00     2600.00
01739              -6.00     2400.00
01740              -4.00     2400.00
01741              -6.00     2400.00
01742              -2.00     2400.00
01743              -4.00     2000.00
01744               0.00     2000.00
01745              -2.00     2000.00
01746              -2.00     2000.00
01747              -2.00     1800.00
01748              -4.00     1800.00
01749              -6.00     1800.00
01750               0.00     1600.00
01751              -6.00     1600.00
01752              -6.00     1600.00
01753              -2.00     1400.00
01754              -2.00     1200.00
01755              -2.00     1200.00
01756              -2.00     1200.00
01757               2.00     1200.00
01758              -2.00     1200.00
01759              -6.00     1200.00
01760              -6.00     1000.00
01761              -6.00     1000.00
01762              -8.00      800.00
01763              -6.00      800.00
01764               0.00      800.00
01765              -2.00      800.00
01766              -6.00      800.00
01767              -6.00      600.00
01768              -4.00      400.00
01769              -2.00      400.00
01770              -6.00      400.00
01771              -8.00      200.00
01772              -2.00      200.00
01773               0.00      200.00
01774              -2.00      200.00
01775               0.00        0.00
01776               8.00        0.00
01777               0.00        0.00
01778              -8.00        0.00
01779              -8.00     -200.00
01780              -2.00     -400.00
01781              16.00     -400.00
01782              90.00     -400.00
01783             144.00     -600.00
01784            -128.00     -800.00
01785            -254.00     -800.00
01786             -32.00     -400.00
01787             246.00     -800.00
01788             246.00     -800.00
01789            -254.00     -800.00
01790            -254.00     -600.00
01791             246.00    -1200.00
01792             242.00    -1000.00
01793            -254.00    -1000.00
01794            -130.00    -1400.00
01795             246.00    -1400.00
01796              38.00    -1400.00
01797             -78.00    -1400.00
01798             -74.00    -1600.00
01799            -134.00    -1400.00
01800             114.00    -1800.00
01801             246.00    -1600.00
01802            -162.00    -1600.00
01803            -198.00    -1800.00
01804             104.00    -2000.00
01805             118.00    -1800.00
01806             -10.00    -2000.00
01807             -66.00    -2200.00
01808             -82.00    -2000.00
01809              64.00    -2000.00
01810             130.00    -2400.00
01811            -114.00    -2200.00
01812             -88.00    -2200.00
01813              94.00    -2400.00
01814              54.00    -2400.00
01815             -52.00    -2400.00
01816             -26.00    -2400.00
01817              -2.00    -2400.00
01818              26.00    -2800.00
01819              24.00    -2800.00
01820             -40.00    -2800.00
01821             -30.00    -2800.00
01822              22.00    -3000.00
01823              30.00    -3000.00
01824              -8.00    -3000.00
01825             -12.00    -3000.00
01826              -8.00    -3000.00
01827              10.00    -3000.00
01828              -2.00    -3200.00
01829             -26.00    -3200.00
01830              -2.00    -3200.00
01831              38.00    -3200.00
01832               8.00    -3200.00
01833             -46.00    -3200.00
01834             -18.00    -3400.00
01835              24.00    -3200.00
01836              30.00    -3400.00
01837               0.00    -3600.00
01838             -30.00    -3400.00
01839             -26.00    -3600.00
01840               6.00    -3600.00
01841              16.00    -3600.00
01842               8.00    -3600.00
01843               0.00    -3600.00
01844              -6.00    -3600.00
01845              -2.00    -3600.00
01846              -6.00    -3600.00
01847              -8.00    -3800.00
01848               8.00    -3800.00
01849              14.00    -3600.00
01850              -6.00    -3800.00
01851             -16.00    -3800.00
01852              -8.00    -3800.00
01853               6.00    -3800.00
01854              10.00    -3800.00
01855               6.00    -3800.00
01856             -10.00    -3800.00
01857             -14.00    -4000.00
01858              -8.00    -4000.00
01859               2.00    -4000.00
01860               8.00    -3800.00
01861               2.00    -4000.00
01862              -2.00    -3800.00
01863               2.00    -3800.00
01864              -2.00    -3800.00
01865             -10.00    -4000.00
01866              -6.00    -3800.00
01867               2.00    -3800.00
01868              10.00    -3800.00
01869               6.00    -4000.00
01870              -2.00    -4000.00
01871             -10.00    -4000.00
01872              -6.00    -4000.00
01873               2.00    -3800.00
01874              14.00    -3800.00
01875               8.00    -4000.00
01876              -2.00    -4000.00
01877              -8.00    -3800.00
01878              -8.00    -4000.00
01879              -2.00    -3800.00
01880               8.00    -3800.00
01881              10.00    -3800.00
01882               2.00    -3800.00
01883              -2.00    -3800.00
01884              -8.00    -3800.00
01885             -10.00    -3800.00
01886              -2.00    -3800.00
01887               6.00    -3600.00
01888              14.00    -3800.00
01889               2.00    -3600.00
01890              -6.00    -3800.00
01891              -8.00    -3800.00
01892              -6.00    -3600.00
01893               0.00    -3600.00
01894               6.00    -3600.00
01895               6.00    -3600.00
01896               0.00    -3600.00
01897              -8.00    -3600.00
01898             -10.00    -3400.00
01899              -2.00    -3400.00
01900               0.00    -3200.00
01901               4.00    -3200.00
01902               6.00    -3200.00
01903              -2.00    -3200.00
01904              -8.00    -3200.00
01905              -8.00    -3000.00
01906              -2.00    -3200.00
01907               0.00    -3200.00
01908               0.00    -3200.00
01909               0.00    -3000.00
01910               0.00    -3000.00
01911               0.00    -3000.00
01912              -2.00    -3000.00
01913              -4.00    -3000.00
01914              -6.00    -2800.00
01915              -2.00    -2800.00
01916               4.00    -2800.00
01917               0.00    -2800.00
01918              -6.00    -2800.00
01919              -6.00    -2800.00
01920              -2.00    -2400.00
01921               0.00    -2400.00
01922              -6.00    -2400.00
01923              -4.00    -2400.00
01924               6.00    -2400.00
01925               8.00    -2400.00
01926               0.00    -2200.00
01927             -10.00    -2200.00
01928              -8.00    -2200.00
01929               2.00    -2000.00
01930               6.00    -2000.00
01931               0.00    -2000.00
01932              -2.00    -1800.00
01933               0.00    -2000.00
01934               2.00    -1800.00
01935              -2.00    -1600.00
01936              -6.00    -1600.00
01937              -6.00    -1400.00
01938               0.00    -1600.00
01939               8.00    -1400.00
01940               6.00    -1400.00
01941              -6.00    -1400.00
01942             -12.00    -1400.00
01943              -8.00    -1000.00
01944               6.00    -1000.00
01945               8.00    -1000.00
01946              -2.00     -800.00
01947              -6.00     -800.00
01948              -2.00     -800.00
01949               2.00     -800.00
01950              -2.00     -600.00
01951              -8.00     -800.00
01952               0.00     -600.00
01953               0.00     -400.00
01954               0.00     -400.00
01955               0.00     -400.00
01956              -2.00     -200.00
01957              -8.00     -400.00
01958              -8.00        0.00
01959              -6.00        0.00
01960               2.00        0.00
01961               0.00      200.00
01962              -2.00        0.00
01963               0.00        0.00
01964              -2.00      200.00
01965              -6.00      400.00
01966              -6.00      200.00
01967               2.00      400.00
01968              14.00      400.00
01969               6.00      400.00
01970             -10.00      600.00
01971             -10.00      600.00
01972              -2.00      800.00
01973              86.00      800.00
01974             186.00     1000.00
01975            -114.00      800.00
01976            -254.00      800.00
01977             -18.00     1000.00
01978             246.00     1200.00
01979             246.00     1600.00
01980            -254.00      800.00
01981            -254.00     1200.00
01982             246.00     1600.00
01983             154.00     1400.00
01984            -254.00     1200.00
01985              56.00     1800.00
01986             246.00     1600.00
01987            -192.00     1600.00
01988            -194.00     1800.00
01989             152.00     1800.00
01990             -80.00     1600.00
01991              -2.00     1800.00
01992             182.00     2200.00
01993            -154.00     2000.00
01994             -98.00     2000.00
01995             150.00     2400.00
01996             -34.00     2000.00
01997             -24.00     2400.00
01998              78.00     2400.00
01999            -160.00     2400.00
02000              30.00     2600.00
02001             198.00     2600.00
02002            -186.00     2400.00
02003             -88.00     2600.00
02004             196.00     2800.00
02005             -54.00     2800.00
02006             -66.00     2800.00
02007              62.00     3000.00
02008             -74.00     2800.00
02009              14.00     2800.00
02010              74.00     3200.00
02011             -74.00     2800.00
02012              10.00     3200.00
02013               6.00     3200.00
02014             -56.00     3200.00
02015              62.00     3400.00
02016               6.00     3200.00
02017             -72.00     3400.00
02018              36.00     3400.00
02019               6.00     3600.00
02020             -38.00     3400.00
02021              32.00     3400.00
02022              -2.00     3400.00
02023             -32.00     3600.00
02024             -10.00     3600.00
02025              -6.00     3600.00
02026              16.00     3800.00
02027               6.00     3800.00
02028             -32.00     3600.00
02029               0.00     3800.00
02030               6.00     4000.00
02031             -22.00     3800.00
02032               0.00     4000.00
02033              10.00     4000.00
02034             -16.00     4000.00
02035             -10.00     4000.00
02036               6.00     4000.00
02037             -18.00     4000.00
02038             -16.00     4000.00
02039               8.00     4200.00
02040               2.00     4200.00
02041              -2.00     4200.00
02042             -14.00     4200.00
02043             -16.00     4200.00
02044               0.00     4200.00
02045             -10.00     4200.00
02046             -10.00     4200.00
02047               8.00     4200.00
02048              -6.00     4200.00
02049             -14.00     4400.00
02050              -2.00     4400.00
02051              -8.00     4200.00
02052             -10.00     4400.00
02053               0.00     4400.00
02054               0.00     4400.00
02055              -2.00     4400.00
02056             -10.00     4400.00
02057             -14.00     4200.00
02058              -4.00     4400.00
02059               0.00     4400.00
02060              -6.00     4400.00
02061               2.00     4400.00
02062              -2.00     4200.00
02063             -14.00     4400.00
02064              -8.00     4400.00
02065              -2.00     4400.00
02066              -6.00     4400.00
02067              -2.00     4200.00
02068              -2.00     4200.00
02069              -8.00     4200.00
02070             -10.00     4400.00
02071              -6.00     4200.00
02072               0.00     4200.00
02073              -2.00     4400.00
02074              -6.00     4200.00
02075              -8.00     4400.00
02076              -6.00     4200.00
02077              -8.00     4200.00
02078              -2.00     4200.00
02079               2.00     4000.00
02080              -8.00     4200.00
02081             -10.00     4200.00
02082              -6.00     4000.00
02083              -4.00     4000.00
02084              -4.00     4000.00
02085              -2.00     4000.00
02086              -6.00     4000.00
02087              -8.00     3800.00
02088              -8.00     4000.00
02089              -6.00     3800.00
02090              -6.00     4000.00
02091             -10.00     3600.00
02092              -8.00     3800.00
02093              -2.00     3600.00
02094               0.00     3800.00
02095              -6.00     3600.00
02096              -6.00     3600.00
02097             -10.00     3600.00
02098              -8.00     3400.00
02099              -2.00     3400.00
02100               0.00     3400.00
02101              -6.00     3400.00
02102             -10.00     3400.00
02103             -10.00     3400.00
02104              -2.00     3400.00
02105              -2.00     3200.00
02106              -2.00     3200.00
02107              -2.00     3200.00
02108              -8.00     3200.00
02109              -8.00     3000.00
02110              -6.00     3000.00
02111              -4.00     3000.00
02112              -4.00     3000.00
02113              -6.00     2800.00
02114              -6.00     2800.00
02115              -6.00     2800.00
02116             -10.00     2800.00
02117              -2.00     2600.00
02118               0.00     2600.00
02119              -2.00     2600.00
02120              -6.00     2400.00
02121              -6.00     2200.00
02122              -6.00     2400.00
02123              -6.00     2000.00
02124              -6.00     2200.00
02125              -2.00     2000.00
02126              -6.00     2200.00
02127              -2.00     2000.00
02128              -4.00     2000.00
02129               0.00     1800.00
02130              -6.00     1800.00
02131              -6.00     1600.00
02132               0.00     1600.00
02133              -2.00     1600.00
02134              -2.00     1600.00
02135              -2.00     1600.00
02136              -2.00     1400.00
02137              -6.00     1400.00
02138              -6.00     1400.00
02139               0.00     1200.00
02140               2.00     1200.00
02141               0.00     1000.00
02142              -6.00     1000.00
02143              -8.00     1000.00
02144              -6.00      800.00
02145              -6.00     1000.00
02146               0.00      800.00
02147               2.00      800.00
02148              -2.00      600.00
02149              -6.00      800.00
02150              -6.00      400.00
02151              -6.00      400.00
02152               0.00      400.00
02153               0.00      200.00
02154              -6.00      400.00
02155              -2.00      200.00
02156              -4.00        0.00
02157              -2.00      200.00
02158               4.00        0.00
02159               8.00        0.00
02160               2.00        0.00
02161             -10.00        0.00
02162             -10.00     -200.00
02163               0.00     -400.00
02164              18.00     -400.00
02165              86.00     -400.00
02166             146.00     -600.00
02167            -106.00     -800.00
02168            -254.00     -600.00
02169             -80.00     -400.00
02170             246.00     -800.00
02171             246.00    -1000.00
02172            -254.00     -800.00
02173            -254.00     -800.00
02174             246.00    -1200.00
02175             246.00    -1000.00
02176            -254.00    -1200.00
02177            -166.00    -1200.00
02178             246.00    -1400.00
02179              58.00    -1200.00
02180             -82.00    -1400.00
02181             -78.00    -1600.00
02182            -138.00    -1400.00
02183              98.00    -1600.00
02184             246.00    -1600.00
02185            -146.00    -1600.00
02186            -218.00    -2000.00
02187              90.00    -2000.00
02188             136.00    -1600.00
02189              -2.00    -2000.00
02190             -68.00    -2200.00
02191             -94.00    -2200.00
02192              50.00    -2200.00
02193             142.00    -2200.00
02194             -94.00    -2200.00
02195             -96.00    -2200.00
02196              80.00    -2600.00
02197              54.00    -2400.00
02198             -54.00    -2400.00
02199             -18.00    -2600.00
02200              -2.00    -2600.00
02201              24.00    -2800.00
02202              30.00    -2800.00
02203             -38.00    -2800.00
02204             -32.00    -2800.00
02205              22.00    -3000.00
02206              30.00    -2800.00
02207              -8.00    -2800.00
02208             -22.00    -3000.00
02209             -14.00    -3000.00
02210              18.00    -3000.00
02211              14.00    -3200.00
02212             -14.00    -3000.00
02213             -14.00    -3200.00
02214              18.00    -3200.00
02215               2.00    -3200.00
02216             -26.00    -3200.00
02217              -2.00    -3200.00
02218              16.00    -3400.00
02219               8.00    -3400.00
02220              -6.00    -3400.00
02221             -16.00    -3600.00
02222             -14.00    -3600.00
02223               4.00    -3600.00
02224              10.00    -3600.00
02225               6.00    -3600.00
02226              -8.00    -3600.00
02227             -10.00    -3600.00
02228               0.00    -3600.00
02229              -2.00    -3800.00
02230             -10.00    -3800.00
02231               0.00    -3600.00
02232              10.00    -3800.00
02233               0.00    -3800.00
02234             -10.00    -3800.00
02235              -2.00    -4000.00
02236               0.00    -3800.00
02237               0.00    -4000.00
02238              -2.00    -3800.00
02239               0.00    -4000.00
02240               0.00    -4000.00
02241              -4.00    -4000.00
02242              -6.00    -4000.00
02243              -2.00    -3800.00
02244               0.00    -4000.00
02245               0.00    -4000.00
02246               0.00    -3800.00
02247               0.00    -4000.00
02248              -6.00    -3800.00
02249               0.00    -4000.00
02250               0.00    -4000.00
02251               0.00    -4000.00
02252              -2.00    -4000.00
02253               0.00    -4000.00
02254               0.00    -4000.00
02255              -2.00    -3800.00
02256               0.00    -4000.00
02257               2.00    -4000.00
02258               2.00    -4000.00
02259              -2.00    -3800.00
02260              -2.00    -3800.00
02261              -2.00    -4000.00
02262              -2.00    -3800.00
02263               2.00    -4000.00
02264               6.00    -3800.00
02265               0.00    -3800.00
02266              -2.00    -3800.00
02267              -4.00    -3800.00
02268              -6.00    -3800.00
02269              -2.00    -3800.00
02270               2.00    -3600.00
02271               8.00    -3600.00
02272               2.00    -3800.00
02273              -2.00    -3600.00
02274              -6.00    -3600.00
02275              -6.00    -3600.00
02276               0.00    -3600.00
02277               6.00    -3600.00
02278               6.00    -3600.00
02279               2.00    -3600.00
02280              -6.00    -3600.00
02281              -6.00    -3400.00
02282              -2.00    -3400.00
02283              -2.00    -3400.00
02284              -2.00    -3400.00
02285               0.00    -3200.00
02286               0.00    -3400.00
02287              -2.00    -3200.00
02288              -2.00    -3200.00
02289              -6.00    -3200.00
02290              -2.00    -3000.00
02291               0.00    -3200.00
02292               2.00    -3000.00
02293               0.00    -3000.00
02294              -2.00    -3000.00
02295              -6.00    -3000.00
02296              -6.00    -2800.00
02297              -2.00    -2800.00
02298               0.00    -2800.00
02299               0.00    -2800.00
02300              -2.00    -2800.00
02301              -6.00    -2800.00
02302              -2.00    -2600.00
02303              -2.00    -2600.00
02304              -2.00    -2400.00
02305               0.00    -2400.00
02306               0.00    -2400.00
02307              -2.00    -2400.00
02308              -2.00    -2200.00
02309              -2.00    -2200.00
02310               0.00    -2200.00
02311               0.00    -2200.00
02312               0.00    -2000.00
02313               0.00    -2000.00
02314              -2.00    -2200.00
02315              -2.00    -1800.00
02316              -2.00    -1800.00
02317               0.00    -1800.00
02318              -2.00    -1600.00
02319              -2.00    -1600.00
02320              -2.00    -1600.00
02321               0.00    -1400.00
02322              -2.00    -1400.00
02323              -2.00    -1400.00
02324               0.00    -1000.00
02325               2.00    -1200.00
02326               0.00    -1200.00
02327               0.00    -1000.00
02328              -6.00    -1000.00
02329              -6.00     -800.00
02330              -2.00     -800.00
02331              -2.00     -800.00
02332               2.00     -800.00
02333               4.00     -600.00
02334              -2.00     -600.00
02335              -6.00     -600.00
02336              -6.00     -600.00
02337              -6.00     -400.00
02338               2.00     -400.00
02339               2.00     -400.00
02340               2.00     -200.00
02341              -6.00     -200.00
02342             -10.00        0.00
02343              -2.00        0.00
02344               0.00      200.00
02345              -2.00        0.00
02346              -2.00        0.00
02347               0.00      200.00
02348               0.00      200.00
02349               0.00      400.00
02350               6.00      400.00
02351               6.00      400.00
02352              -2.00      600.00
02353              -8.00      400.00
02354              -6.00      600.00
02355               6.00      600.00
02356              80.00      800.00
02357             186.00     1000.00
02358             -90.00     1000.00
02359            -254.00      800.00
02360             -64.00     1000.00
02361             246.00     1200.00
02362             246.00     1200.00
02363            -254.00      800.00
02364            -254.00     1200.00
02365             246.00     1600.00
02366             226.00     1600.00
02367            -254.00     1200.00
02368               4.00     1600.00
02369             246.00     1600.00
02370            -158.00     1200.00
02371            -218.00     1800.00
02372             144.00     2000.00
02373             -70.00     1800.00
02374             -14.00     1800.00
02375             184.00     2000.00
02376            -130.00     2000.00
02377            -118.00     2000.00
02378             144.00     2400.00
02379             -28.00     2000.00
02380             -36.00     2400.00
02381              82.00     2400.00
02382            -152.00     2400.00
02383               8.00     2600.00
02384             206.00     2800.00
02385            -166.00     2600.00
02386            -106.00     2800.00
02387             192.00     2800.00
02388             -42.00     2600.00
02389             -78.00     2800.00
02390              72.00     3000.00
02391             -58.00     2800.00
02392               0.00     3200.00
02393              70.00     3200.00
02394             -80.00     3000.00
02395              10.00     3200.00
02396              26.00     3200.00
02397             -58.00     3200.00
02398              50.00     3400.00
02399               8.00     3400.00
02400             -70.00     3400.00
02401              38.00     3400.00
02402              10.00     3600.00
02403             -42.00     3400.00
02404              26.00     3600.00
02405               6.00     3600.00
02406             -22.00     3600.00
02407              -6.00     3800.00
02408              -8.00     3600.00
02409              12.00     3600.00
02410               8.00     3800.00
02411             -26.00     3800.00
02412              -6.00     3800.00
02413               6.00     3800.00
02414             -22.00     3800.00
02415              -2.00     4000.00
02416              14.00     4000.00
02417             -16.00     4000.00
02418             -14.00     4000.00
02419              10.00     4000.00
02420             -10.00     4000.00
02421             -14.00     4000.00
02422               0.00     4200.00
02423              -2.00     4000.00
02424               0.00     4200.00
02425              -8.00     4200.00
02426             -16.00     4200.00
02427               2.00     4000.00
02428             -10.00     4200.00
02429              -8.00     4200.00
02430               6.00     4400.00
02431              -6.00     4200.00
02432             -22.00     4200.00
02433              -4.00     4400.00
02434              -2.00     4400.00
02435              -6.00     4200.00
02436               0.00     4200.00
02437              -6.00     4200.00
02438              -8.00     4200.00
02439              -6.00     4400.00
02440              -4.00     4200.00
02441              -2.00     4400.00
02442              -4.00     4400.00
02443             -10.00     4400.00
02444              -2.00     4400.00
02445               0.00     4400.00
02446             -10.00     4400.00
02447              -8.00     4400.00
02448              -2.00     4400.00
02449              -6.00     4400.00
02450              -2.00     4200.00
02451               0.00     4800.00
02452              -8.00     4200.00
02453             -10.00     4200.00
02454              -8.00     4400.00
02455              -2.00     4200.00
02456               0.00     4200.00
02457              -2.00     4200.00
02458              -2.00     4200.00
02459              -8.00     4200.00
02460             -12.00     4200.00
02461              -8.00     4200.00
02462               0.00     4200.00
02463               0.00     4000.00
02464              -6.00     4200.00
02465              -6.00     4000.00
02466             -10.00     4000.00
02467              -8.00     4000.00
02468              -2.00     4000.00
02469               0.00     4000.00
02470              -2.00     4000.00
02471              -8.00     4000.00
02472              -8.00     4000.00
02473              -6.00     3800.00
02474              -6.00     4000.00
02475              -6.00     3600.00
02476               0.00     3600.00
02477              -6.00     3600.00
02478              -8.00     3600.00
02479              -6.00     3600.00
02480              -6.00     3600.00
02481              -8.00     3400.00
02482              -2.00     3600.00
02483               0.00     3400.00
02484              -2.00     3400.00
02485              -8.00     3400.00
02486              -8.00     3400.00
02487              -8.00     3200.00
02488              -4.00     3200.00
02489              -2.00     3200.00
02490               0.00     3200.00
02491              -8.00     3200.00
02492             -10.00     3000.00
02493              -8.00     3000.00
02494              -2.00     2800.00
02495              -6.00     2800.00
02496              -8.00     2800.00
02497              -6.00     2800.00
02498              -4.00     2600.00
02499              -8.00     2600.00
02500              -8.00     2600.00
02501              -2.00     2600.00
02502              -2.00     2400.00
02503              -4.00     2400.00
02504              -2.00     2400.00
02505              -2.00     2400.00
02506              -6.00     2200.00
02507              -6.00     2400.00
02508              -2.00     2400.00
02509              -6.00     2000.00
02510              -4.00     2000.00
02511              -6.00     1800.00
02512              -6.00     1800.00
02513              -6.00     1800.00
02514              -6.00     1800.00
02515              -2.00     1800.00
02516              -2.00     1600.00
02517              -6.00     1800.00
02518              -6.00     1600.00
02519              -2.00     1200.00
02520              -6.00     1400.00
02521              -6.00     1200.00
02522              -2.00     1200.00
02523              -2.00     1000.00
02524              -2.00     1200.00
02525              -6.00     1200.00
02526              -2.00     1000.00
02527              -2.00     1000.00
02528              -4.00     1000.00
02529              -2.00      800.00
02530               0.00      800.00
02531              -2.00      800.00
02532              -4.00      800.00
02533              -6.00      600.00
02534              -2.00      600.00
02535               0.00      400.00
02536              -2.00      400.00
02537              -6.00      200.00
02538               0.00      200.00
02539               2.00      200.00
02540               0.00      200.00
02541               0.00        0.00
02542               6.00        0.00
02543               0.00        0.00
02544              -8.00     -200.00
02545              -8.00     -400.00
02546               0.00     -200.00
02547              14.00     -400.00
02548              76.00     -400.00
02549             150.00     -600.00
02550             -80.00     -800.00
02551            -254.00     -800.00
02552            -126.00     -600.00
02553             246.00     -600.00
02554             246.00     -800.00
02555            -254.00    -1200.00
02556            -254.00     -600.00
02557             246.00    -1200.00
02558             246.00    -1000.00
02559            -254.00    -1200.00
02560            -208.00    -1000.00
02561             246.00    -1400.00
02562              74.00    -1200.00
02563             -82.00    -1400.00
02564             -66.00    -1600.00
02565            -138.00    -1400.00
02566              76.00    -1600.00
02567             246.00    -1600.00
02568            -122.00    -1600.00
02569            -224.00    -1600.00
02570              72.00    -2000.00
02571             136.00    -2000.00
02572              -6.00    -2000.00
02573             -58.00    -2200.00
02574             -88.00    -2000.00
02575              46.00    -2000.00
02576             142.00    -2400.00
02577             -94.00    -2400.00
02578            -110.00    -2400.00
02579              76.00    -2400.00
02580              66.00    -2400.00
02581             -46.00    -2400.00
02582             -22.00    -2600.00
02583              -8.00    -2400.00
02584              16.00    -2800.00
02585              32.00    -2800.00
02586             -30.00    -2800.00
02587             -34.00    -2800.00
02588              18.00    -2800.00
02589              30.00    -2800.00
02590              -8.00    -2800.00
02591             -18.00    -3000.00
02592             -14.00    -3000.00
02593              18.00    -3000.00
02594              12.00    -3200.00
02595             -18.00    -3200.00
02596             -14.00    -3000.00
02597              22.00    -3200.00
02598               8.00    -3200.00
02599             -24.00    -3200.00
02600              -6.00    -3200.00
02601              16.00    -3400.00
02602               6.00    -3400.00
02603              -2.00    -3400.00
02604              -8.00    -3600.00
02605             -10.00    -3600.00
02606               2.00    -3600.00
02607               6.00    -3600.00
02608               2.00    -3600.00
02609              -2.00    -3600.00
02610              -6.00    -3800.00
02611               6.00    -3600.00
02612               0.00    -3600.00
02613             -10.00    -3600.00
02614               0.00    -3800.00
02615               8.00    -3800.00
02616               0.00    -3800.00
02617              -8.00    -3800.00
02618              -6.00    -3800.00
02619               0.00    -3800.00
02620               0.00    -4000.00
02621               0.00    -3800.00
02622               2.00    -4000.00
02623               0.00    -4000.00
02624              -6.00    -4000.00
02625              -4.00    -4000.00
02626              -2.00    -3800.00
02627               2.00    -3800.00
02628               4.00    -4000.00
02629               4.00    -4000.00
02630              -6.00    -4000.00
02631             -10.00    -4000.00
02632              -2.00    -4000.00
02633               4.00    -4000.00
02634               2.00    -3800.00
02635               0.00    -3800.00
02636              -2.00    -4200.00
02637              -2.00    -4000.00
02638               0.00    -4000.00
02639               0.00    -3800.00
02640               0.00    -4000.00
02641               0.00    -4000.00
02642               0.00    -4000.00
02643               0.00    -3800.00
02644               0.00    -4000.00
02645              -6.00    -3800.00
02646              -2.00    -3800.00
02647               2.00    -3800.00
02648               2.00    -3800.00
02649               2.00    -3800.00
02650               0.00    -3800.00
02651              -2.00    -3800.00
02652              -6.00    -3800.00
02653               0.00    -3600.00
02654               6.00    -3600.00
02655               0.00    -3600.00
02656               0.00    -3600.00
02657               6.00    -3800.00
02658               0.00    -3600.00
02659              -6.00    -3800.00
02660               0.00    -3600.00
02661               6.00    -3600.00
02662               4.00    -3600.00
02663               0.00    -3600.00
02664              -6.00    -3600.00
02665              -8.00    -3600.00
02666              -2.00    -3400.00
02667               6.00    -3400.00
02668              14.00    -3200.00
02669               2.00    -3200.00
02670             -14.00    -3200.00
02671             -14.00    -3200.00
02672               0.00    -3200.00
02673              10.00    -3200.00
02674               8.00    -3000.00
02675              -6.00    -3200.00
02676              -8.00    -3000.00
02677             -10.00    -3000.00
02678              -2.00    -3000.00
02679               6.00    -3000.00
02680               2.00    -2800.00
02681              -6.00    -2800.00
02682             -10.00    -2800.00
02683             -10.00    -2800.00
02684               4.00    -2800.00
02685              14.00    -2600.00
02686              10.00    -2600.00
02687             -14.00    -2600.00
02688             -26.00    -2400.00
02689             -14.00    -2400.00
02690              10.00    -2400.00
02691              16.00    -2200.00
02692              -2.00    -2200.00
02693             -16.00    -2200.00
02694             -14.00    -2200.00
02695               0.00    -2200.00
02696               8.00    -2000.00
02697               2.00    -2000.00
02698              -2.00    -2000.00
02699              -2.00    -1800.00
02700              -8.00    -1600.00
02701              -6.00    -1600.00
02702              -2.00    -1600.00
02703               4.00    -1600.00
02704               4.00    -1400.00
02705              -6.00    -1400.00
02706              -8.00    -1400.00
02707              -2.00    -1400.00
02708               2.00    -1000.00
02709               2.00    -1000.00
02710              -4.00    -1000.00
02711             -10.00    -1200.00
02712              -6.00    -1000.00
02713              -2.00     -800.00
02714               0.00     -800.00
02715               6.00    -1000.00
02716               0.00     -600.00
02717              -2.00     -800.00
02718              -8.00     -600.00
02719              -6.00     -600.00
02720               0.00     -400.00
02721               6.00     -400.00
02722               4.00     -400.00
02723              -6.00     -200.00
02724             -10.00     -200.00
02725              -8.00        0.00
02726               2.00        0.00
02727               6.00        0.00
02728               0.00        0.00
02729              -6.00      200.00
02730              -2.00      200.00
02731               0.00      200.00
02732               0.00      400.00
02733               8.00      400.00
02734              12.00      400.00
02735               0.00      400.00
02736             -10.00      800.00
02737              -8.00      600.00
02738               6.00      600.00
02739              70.00      800.00
02740             186.00     1000.00
02741             -64.00     1000.00
02742            -254.00      800.00
02743            -116.00     1000.00
02744             246.00     1200.00
02745             246.00     1400.00
02746            -254.00      800.00
02747            -254.00     1400.00
02748             246.00     1800.00
02749             246.00     1400.00
02750            -254.00     1200.00
02751             -48.00     1800.00
02752             246.00     1800.00
02753            -128.00     1400.00
02754            -240.00     1800.00
02755             142.00     2000.00
02756             -54.00     1600.00
02757             -30.00     1800.00
02758             184.00     2000.00
02759            -114.00     1800.00
02760            -136.00     2000.00
02761             138.00     2200.00
02762             -16.00     2000.00
02763             -46.00     2200.00
02764              92.00     2400.00
02765            -138.00     2200.00
02766             -14.00     2600.00
02767             210.00     2600.00
02768            -144.00     2400.00
02769            -128.00     2600.00
02770             190.00     2800.00
02771             -26.00     2600.00
02772             -88.00     2800.00
02773              72.00     3000.00
02774             -54.00     2800.00
02775             -14.00     2800.00
02776              74.00     3200.00
02777             -72.00     3200.00
02778               8.00     3000.00
02779              32.00     3200.00
02780             -60.00     3200.00
02781              40.00     3400.00
02782              18.00     3400.00
02783             -70.00     3200.00
02784              32.00     3400.00
02785              14.00     3600.00
02786             -46.00     3400.00
02787              26.00     3600.00
02788              14.00     3600.00
02789             -24.00     3600.00
02790             -14.00     3800.00
02791             -10.00     3600.00
02792              16.00     3600.00
02793              16.00     3800.00
02794             -22.00     3600.00
02795             -10.00     3800.00
02796              -2.00     4000.00
02797             -16.00     4000.00
02798               6.00     4000.00
02799              22.00     4000.00
02800             -12.00     4000.00
02801             -16.00     4000.00
02802               8.00     4200.00
02803             -10.00     4000.00
02804             -14.00     4000.00
02805               6.00     4200.00
02806              -2.00     4000.00
02807              -2.00     4000.00
02808             -10.00     4000.00
02809             -10.00     4000.00
02810               2.00     4200.00
02811             -12.00     4200.00
02812             -16.00     4200.00
02813              10.00     4400.00
02814               2.00     4200.00
02815             -14.00     4200.00
02816              -6.00     4200.00
02817             -10.00     4200.00
02818             -16.00     4200.00
02819               0.00     4200.00
02820               6.00     4200.00
02821              -2.00     4200.00
02822             -10.00     4200.00
02823             -16.00     4400.00
02824              -8.00     4200.00
02825               0.00     4400.00
02826              -6.00     4200.00
02827              -2.00     4200.00
02828               0.00     4400.00
02829             -10.00     4400.00
02830             -10.00     4400.00
02831              -2.00     4400.00
02832              -8.00     4200.00
02833              -6.00     4400.00
02834               0.00     4400.00
02835              -6.00     4400.00
02836              -6.00     4400.00
02837              -8.00     4200.00
02838              -8.00     4200.00
02839              -2.00     4200.00
02840              -2.00     4200.00
02841              -2.00     4200.00
02842              -2.00     4200.00
02843              -8.00     4200.00
02844              -8.00     4000.00
02845               0.00     4200.00
02846              -6.00     4200.00
02847              -6.00     4200.00
02848              -2.00     4000.00
02849              -2.00     4000.00
02850              -8.00     4000.00
02851              -2.00     4000.00
02852               0.00     4000.00
02853              -4.00     3800.00
02854              -8.00     4000.00
02855             -10.00     3800.00
02856              -6.00     3800.00
02857              -4.00     4000.00
02858              -2.00     3600.00
02859               6.00     3600.00
02860              -2.00     3800.00
02861             -10.00     3600.00
02862             -10.00     3600.00
02863              -6.00     3600.00
02864              -2.00     3600.00
02865               0.00     3400.00
02866               0.00     3400.00
02867              -8.00     3400.00
02868             -10.00     3400.00
02869             -10.00     3200.00
02870              -8.00     3200.00
02871              -2.00     3200.00
02872              -2.00     3200.00
02873               0.00     3200.00
02874              -6.00     3000.00
02875              -8.00     3000.00
02876             -10.00     3000.00
02877              -4.00     2800.00
02878              -6.00     2800.00
02879              -2.00     2800.00
02880               0.00     2800.00
02881              -2.00     2800.00
02882             -10.00     2600.00
02883             -10.00     2600.00
02884              -8.00     2400.00
02885               0.00     2600.00
02886              -2.00     2400.00
02887               0.00     2400.00
02888             -10.00     2200.00
02889             -10.00     2200.00
02890             -10.00     2200.00
02891              -4.00     2000.00
02892               2.00     2200.00
02893              -2.00     2000.00
02894              -2.00     2000.00
02895              -8.00     1800.00
02896             -10.00     1800.00
02897              -6.00     1800.00
02898              -2.00     1600.00
02899              -2.00     1600.00
02900              -2.00     1600.00
02901              -6.00     1600.00
02902              -2.00     1400.00
02903              -6.00     1400.00
02904              -8.00     1200.00
02905              -2.00     1200.00
02906              -2.00     1200.00
02907              -2.00     1200.00
02908              -6.00     1000.00
02909              -6.00      800.00
02910              -2.00     1000.00
02911              -4.00      800.00
02912              -2.00      800.00
02913               0.00      800.00
02914               0.00      600.00
02915              -4.00      600.00
02916              -8.00      600.00
02917              -8.00      400.00
02918              -2.00      400.00
02919              -2.00      400.00
02920              -2.00      400.00
02921               0.00      200.00
02922               0.00      200.00
02923              -2.00        0.00
02924               0.00      200.00
02925              14.00        0.00
02926               8.00      200.00
02927              -4.00        0.00
02928             -10.00     -200.00
02929              -4.00     -400.00
02930              12.00     -400.00
02931              74.00     -400.00
02932             158.00     -600.00
02933             -56.00     -800.00
02934            -254.00     -800.00
02935            -170.00     -400.00
02936             246.00     -800.00
02937             246.00     -800.00
02938            -254.00    -1000.00
02939            -254.00     -800.00
02940             246.00    -1200.00
02941             246.00    -1000.00
02942            -254.00    -1200.00
02943            -244.00    -1400.00
02944             246.00    -1400.00
02945              94.00    -1400.00
02946             -84.00    -1400.00
02947             -64.00    -1600.00
02948            -142.00    -1400.00
02949              58.00    -1600.00
02950             246.00    -1600.00
02951             -98.00    -1600.00
02952            -230.00    -1800.00
02953              56.00    -2000.00
02954             142.00    -1800.00
02955              -6.00    -2000.00
02956             -56.00    -2200.00
02957             -92.00    -2200.00
02958              36.00    -2000.00
02959             146.00    -2400.00
02960             -76.00    -2400.00
02961            -120.00    -2200.00
02962              70.00    -2400.00
02963              78.00    -2400.00
02964             -46.00    -2400.00
02965             -24.00    -2600.00
02966             -10.00    -2800.00
02967              16.00    -2800.00
02968              30.00    -2800.00
02969             -24.00    -2800.00
02970             -34.00    -2800.00
02971              18.00    -3000.00
02972              30.00    -2800.00
02973             -10.00    -3000.00
02974             -22.00    -2800.00
02975             -14.00    -3000.00
02976              20.00    -3000.00
02977              16.00    -3200.00
02978             -14.00    -3000.00
02979             -16.00    -3200.00
02980              16.00    -3200.00
02981               8.00    -3200.00
02982             -22.00    -3200.00
02983              -8.00    -3200.00
02984              14.00    -3200.00
02985               8.00    -3400.00
02986              -2.00    -3400.00
02987              -4.00    -3400.00
02988              -8.00    -3600.00
02989               2.00    -3600.00
02990               8.00    -3600.00
02991               6.00    -3600.00
02992              -2.00    -3600.00
02993              -4.00    -3800.00
02994               6.00    -3800.00
02995               0.00    -3600.00
02996              -8.00    -3600.00
02997              -2.00    -3800.00
02998               8.00    -3800.00
02999               4.00    -3800.00
03000              -8.00    -3800.00
03001              -6.00    -3800.00
03002               0.00    -3800.00
03003              -2.00    -3800.00
03004              -4.00    -3800.00
03005               2.00    -4000.00
03006               2.00    -4000.00
03007              -2.00    -4000.00
03008              -6.00    -3800.00
03009              -4.00    -3800.00
03010               0.00    -3800.00
03011               0.00    -4000.00
03012               2.00    -4000.00
03013               0.00    -4000.00
03014             -10.00    -4000.00
03015              -6.00    -4000.00
03016               0.00    -3800.00
03017               0.00    -4000.00
03018               0.00    -4000.00
03019               6.00    -4000.00
03020              -2.00    -4000.00
03021              -8.00    -4000.00
03022              -8.00    -4000.00
03023               0.00    -3800.00
03024               4.00    -4000.00
03025               0.00    -4000.00
03026               0.00    -4000.00
03027              -2.00    -4000.00
03028              -8.00    -3800.00
03029              -4.00    -3800.00
03030               2.00    -3800.00
03031               2.00    -3800.00
03032               2.00    -3800.00
03033              -2.00    -3800.00
03034              -6.00    -3800.00
03035              -6.00    -3800.00
03036              -2.00    -3800.00
03037               2.00    -3600.00
03038               2.00    -3800.00
03039               0.00    -3600.00
03040              -2.00    -3800.00
03041              -2.00    -3800.00
03042              -2.00    -3600.00
03043              -2.00    -3600.00
03044               2.00    -3600.00
03045               4.00    -3400.00
03046               0.00    -3400.00
03047               0.00    -3400.00
03048              -2.00    -3400.00
03049              -2.00    -3400.00
03050              -2.00    -3600.00
03051               4.00    -3400.00
03052               0.00    -3200.00
03053               0.00    -3200.00
03054              -6.00    -3200.00
03055              -2.00    -3200.00
03056              -2.00    -3200.00
03057               6.00    -3200.00
03058               2.00    -3000.00
03059               2.00    -3000.00
03060              -2.00    -3000.00
03061              -4.00    -2800.00
03062              -2.00    -2800.00
03063               0.00    -2800.00
03064               0.00    -2800.00
03065               4.00    -2800.00
03066               0.00    -2800.00
03067              -8.00    -2600.00
03068              -8.00    -2600.00
03069              -4.00    -2600.00
03070               0.00    -2600.00
03071               2.00    -2600.00
03072               0.00    -2400.00
03073              -6.00    -2400.00
03074              -6.00    -2400.00
03075              -2.00    -2200.00
03076               0.00    -2200.00
03077              -2.00    -2200.00
03078              -6.00    -2000.00
03079              -2.00    -2000.00
03080               2.00    -2000.00
03081              -2.00    -2000.00
03082              -6.00    -1800.00
03083              -8.00    -2000.00
03084              -4.00    -1600.00
03085               6.00    -1600.00
03086               6.00    -1600.00
03087              -2.00    -1400.00
03088             -10.00    -1600.00
03089             -10.00    -1400.00
03090              -6.00    -1000.00
03091               4.00    -1200.00
03092               2.00    -1000.00
03093               0.00    -1200.00
03094              -6.00    -1000.00
03095              -6.00    -1000.00
03096              -4.00     -800.00
03097              -2.00     -600.00
03098               0.00     -800.00
03099              -2.00     -800.00
03100              -6.00     -800.00
03101              -6.00     -600.00
03102              -2.00     -600.00
03103               2.00     -400.00
03104               2.00     -400.00
03105               0.00     -200.00
03106              -2.00     -400.00
03107              -8.00     -200.00
03108              -6.00        0.00
03109               0.00        0.00
03110               0.00        0.00
03111              -2.00        0.00
03112              -2.00        0.00
03113               0.00      200.00
03114               2.00      400.00
03115               2.00      400.00
03116               6.00      400.00
03117               6.00      400.00
03118              -2.00      400.00
03119              -8.00      400.00
03120              -2.00      800.00
03121               6.00      600.00
03122              64.00      800.00
03123             184.00      800.00
03124             -38.00     1000.00
03125            -254.00      800.00
03126            -162.00      800.00
03127             246.00     1200.00
03128             246.00     1400.00
03129            -254.00     1000.00
03130            -254.00     1200.00
03131             246.00     1600.00
03132             246.00     1400.00
03133            -254.00     1200.00
03134            -102.00     1800.00
03135             246.00     1600.00
03136             -94.00     1600.00
03137            -254.00     1800.00
03138             132.00     2000.00
03139             -42.00     1800.00
03140             -42.00     1800.00
03141             184.00     2000.00
03142             -90.00     2000.00
03143            -152.00     2000.00
03144             136.00     2400.00
03145               0.00     2200.00
03146             -56.00     2200.00
03147              94.00     2400.00
03148            -130.00     2200.00
03149             -34.00     2600.00
03150             218.00     2600.00
03151            -128.00     2400.00
03152            -150.00     2600.00
03153             184.00     2800.00
03154             -10.00     2600.00
03155             -98.00     2800.00
03156              70.00     3200.00
03157             -46.00     2800.00
03158             -22.00     3000.00
03159              78.00     3200.00
03160             -72.00     3000.00
03161              -2.00     3200.00
03162              38.00     3200.00
03163             -56.00     3200.00
03164              36.00     3200.00
03165              22.00     3400.00
03166             -78.00     3200.00
03167              30.00     3400.00
03168              24.00     3400.00
03169             -46.00     3600.00
03170              16.00     3600.00
03171              12.00     3600.00
03172             -24.00     3600.00
03173              -8.00     3600.00
03174              -8.00     3600.00
03175              10.00     3600.00
03176              10.00     3800.00
03177             -24.00     3600.00
03178              -8.00     3800.00
03179               8.00     4000.00
03180             -16.00     3800.00
03181              -2.00     4000.00
03182              16.00     4000.00
03183             -14.00     4000.00
03184             -18.00     4000.00
03185              14.00     4200.00
03186              -6.00     4000.00
03187             -16.00     4200.00
03188               6.00     4000.00
03189               0.00     4200.00
03190              -2.00     4200.00
03191             -10.00     4200.00
03192             -14.00     4200.00
03193               6.00     4200.00
03194              -6.00     4200.00
03195             -18.00     4200.00
03196               4.00     4200.00
03197               2.00     4200.00
03198             -16.00     4200.00
03199              -4.00     4200.00
03200              -6.00     4400.00
03201             -10.00     4200.00
03202               4.00     4400.00
03203               6.00     4400.00
03204             -10.00     4200.00
03205             -22.00     4400.00
03206             -24.00     4200.00
03207               2.00     4400.00
03208              16.00     4200.00
03209               4.00     4400.00
03210              -8.00     4200.00
03211             -14.00     4400.00
03212             -24.00     4400.00
03213             -10.00     4400.00
03214               6.00     4400.00
03215               4.00     4200.00
03216              -2.00     4200.00
03217              -6.00     4200.00
03218             -14.00     4200.00
03219              -8.00     4200.00
03220              -6.00     4200.00
03221              -6.00     4200.00
03222              -2.00     4200.00
03223              -2.00     4200.00
03224               0.00     4200.00
03225              -2.00     4200.00
03226             -14.00     4200.00
03227             -16.00     4200.00
03228              -6.00     4200.00
03229               2.00     4200.00
03230               6.00     4000.00
03231               2.00     4000.00
03232             -14.00     4000.00
03233             -22.00     4000.00
03234             -10.00     4000.00
03235               6.00     4000.00
03236               8.00     4000.00
03237              -2.00     4000.00
03238             -10.00     3800.00
03239             -10.00     3800.00
03240              -8.00     3600.00
03241              -2.00     3800.00
03242               0.00     3600.00
03243              -2.00     3600.00
03244              -6.00     3600.00
03245              -4.00     3600.00
03246              -4.00     3600.00
03247              -8.00     3600.00
03248              -6.00     3600.00
03249              -2.00     3400.00
03250              -4.00     3400.00
03251              -6.00     3400.00
03252              -6.00     3400.00
03253              -2.00     3200.00
03254              -2.00     3200.00
03255              -6.00     3200.00
03256              -2.00     3200.00
03257              -6.00     3200.00
03258              -6.00     3200.00
03259              -6.00     2800.00
03260              -6.00     3000.00
03261              -6.00     2800.00
03262              -6.00     2800.00
03263              -4.00     2800.00
03264              -6.00     2600.00
03265             -10.00     2800.00
03266              -6.00     2600.00
03267              -2.00     2600.00
03268               0.00     2600.00
03269              -2.00     2400.00
03270              -8.00     2400.00
03271              -8.00     2400.00
03272              -8.00     2400.00
03273              -8.00     2200.00
03274              -4.00     2200.00
03275              -2.00     2000.00
03276              -2.00     1800.00
03277               0.00     2000.00
03278              -6.00     1800.00
03279             -12.00     2000.00
03280             -10.00     1600.00
03281              -2.00     1600.00
03282               0.00     1600.00
03283               0.00     1600.00
03284              -6.00     1600.00
03285              -6.00     1600.00
03286             -10.00     1400.00
03287             -10.00     1400.00
03288              -6.00     1200.00
03289               4.00     1200.00
03290               6.00     1200.00
03291              -6.00     1000.00
03292             -10.00     1200.00
03293             -10.00      800.00
03294              -8.00      800.00
03295              -2.00     1000.00
03296               2.00     1000.00
03297               2.00      800.00
03298              -4.00      600.00
03299              -8.00      600.00
03300              -2.00      600.00
03301               2.00      400.00
03302               0.00      200.00
03303             -10.00      200.00
03304              -4.00      200.00
03305               0.00      200.00
03306               6.00      200.00
03307               2.00        0.00
03308               8.00        0.00
03309               0.00        0.00
03310              -2.00     -200.00
03311              -6.00        0.00
03312              -2.00     -200.00
03313               8.00     -200.00
03314              64.00     -400.00
03315             154.00     -600.00
03316             -32.00     -800.00
03317            -254.00     -800.00
03318            -214.00     -600.00
03319             246.00     -800.00
03320             246.00     -800.00
03321            -254.00    -1000.00
03322            -254.00     -800.00
03323             246.00    -1000.00
03324             246.00    -1200.00
03325            -254.00    -1000.00
03326            -254.00    -1200.00
03327             246.00    -1400.00
03328             122.00    -1400.00
03329             -78.00    -1400.00
03330             -62.00    -1600.00
03331            -144.00    -1400.00
03332              34.00    -1600.00
03333             246.00    -1600.00
03334             -66.00    -1600.00
03335            -240.00    -1600.00
03336              36.00    -2000.00
03337             150.00    -2000.00
03338               2.00    -2000.00
03339             -48.00    -2200.00
03340             -90.00    -2200.00
03341              22.00    -2000.00
03342             144.00    -2200.00
03343             -66.00    -2400.00
03344            -128.00    -2200.00
03345              62.00    -2400.00
03346              84.00    -2600.00
03347             -42.00    -2400.00
03348             -26.00    -2600.00
03349             -16.00    -2600.00
03350              10.00    -2600.00
03351              32.00    -2600.00
03352             -18.00    -2800.00
03353             -32.00    -2800.00
03354              14.00    -2800.00
03355              22.00    -2800.00
03356             -12.00    -2800.00
03357             -18.00    -3000.00
03358              -4.00    -3000.00
03359              30.00    -3000.00
03360              14.00    -3200.00
03361             -30.00    -3200.00
03362             -24.00    -3200.00
03363              22.00    -3200.00
03364              20.00    -3200.00
03365             -22.00    -3200.00
03366             -20.00    -3200.00
03367              16.00    -3400.00
03368              16.00    -3200.00
03369              -6.00    -3600.00
03370              -8.00    -3400.00
03371              -8.00    -3600.00
03372               6.00    -3600.00
03373               6.00    -3600.00
03374               0.00    -3600.00
03375              -8.00    -3600.00
03376               0.00    -3600.00
03377               6.00    -3600.00
03378              -2.00    -3600.00
03379             -14.00    -3800.00
03380              -6.00    -3800.00
03381               8.00    -3800.00
03382              10.00    -3800.00
03383               0.00    -3800.00
03384              -8.00    -3800.00
03385              -6.00    -3800.00
03386              -2.00    -3800.00
03387               2.00    -4000.00
03388               8.00    -3800.00
03389               0.00    -4000.00
03390              -2.00    -3800.00
03391              -4.00    -4000.00
03392              -8.00    -4000.00
03393             -10.00    -3800.00
03394              -2.00    -4000.00
03395               6.00    -3800.00
03396               6.00    -4000.00
03397              -2.00    -3800.00
03398              -8.00    -4000.00
03399              -6.00    -4000.00
03400              -2.00    -4000.00
03401              -2.00    -4000.00
03402               2.00    -4000.00
03403               2.00    -3800.00
03404              -6.00    -4000.00
03405              -6.00    -3800.00
03406               0.00    -4000.00
03407               0.00    -4000.00
03408               0.00    -4000.00
03409               0.00    -4000.00
03410              -6.00    -3800.00
03411              -8.00    -3800.00
03412              -2.00    -3800.00
03413               8.00    -3800.00
03414              10.00    -3800.00
03415              -6.00    -3800.00
03416             -10.00    -3800.00
03417              -8.00    -3800.00
03418               2.00    -3800.00
03419               8.00    -3600.00
03420               8.00    -3800.00
03421              -8.00    -3600.00
03422             -10.00    -3600.00
03423               2.00    -3800.00
03424               6.00    -3600.00
03425             -10.00    -3600.00
03426             -14.00    -3600.00
03427               6.00    -3600.00
03428              22.00    -3600.00
03429               6.00    -3600.00
03430             -18.00    -3600.00
03431             -22.00    -3200.00
03432               0.00    -3200.00
03433              18.00    -3200.00
03434              16.00    -3200.00
03435              -2.00    -3200.00
03436             -16.00    -3200.00
03437             -16.00    -3200.00
03438               0.00    -3200.00
03439              10.00    -3200.00
03440              10.00    -3000.00
03441               2.00    -3000.00
03442              -6.00    -3000.00
03443              -8.00    -3000.00
03444             -10.00    -3000.00
03445              -6.00    -3000.00
03446               6.00    -2800.00
03447              14.00    -2800.00
03448               6.00    -2800.00
03449              -6.00    -2800.00
03450             -10.00    -2800.00
03451              -2.00    -2800.00
03452               4.00    -2400.00
03453               0.00    -2400.00
03454              -6.00    -2400.00
03455              -2.00    -2400.00
03456               2.00    -2400.00
03457               2.00    -2200.00
03458              -2.00    -2400.00
03459              -4.00    -2200.00
03460              -2.00    -2200.00
03461              -2.00    -2000.00
03462              -2.00    -2000.00
03463               2.00    -2000.00
03464               0.00    -2000.00
03465              -2.00    -2000.00
03466              -6.00    -2000.00
03467              -2.00    -1600.00
03468               0.00    -1400.00
03469               0.00    -1600.00
03470              -2.00    -1400.00
03471              -8.00    -1600.00
03472              -8.00    -1400.00
03473              -2.00    -1400.00
03474               0.00    -1400.00
03475              -2.00    -1200.00
03476              -6.00    -1000.00
03477              -2.00    -1000.00
03478               0.00    -1000.00
03479              -2.00    -1200.00
03480              -6.00     -800.00
03481              -2.00     -800.00
03482              -2.00     -800.00
03483              -2.00     -600.00
03484               0.00     -600.00
03485              -2.00     -400.00
03486              -2.00     -600.00
03487              -2.00     -400.00
03488               0.00     -400.00
03489               0.00     -200.00
03490              -4.00     -400.00
03491              -8.00        0.00
03492              -2.00     -200.00
03493               2.00        0.00
03494              -2.00        0.00
03495              -2.00        0.00
03496               0.00        0.00
03497               2.00      200.00
03498               0.00      400.00
03499               6.00      400.00
03500              10.00      400.00
03501               0.00      600.00
03502              -6.00      400.00
03503             -10.00      600.00
03504               2.00      800.00
03505              58.00      800.00
03506             186.00     1000.00
03507             -10.00     1000.00
03508            -254.00      800.00
03509            -216.00     1000.00
03510             246.00     1400.00
03511             246.00     1200.00
03512            -254.00     1000.00
03513            -254.00     1200.00
03514             246.00     1600.00
03515             246.00     1600.00
03516            -254.00     1200.00
03517            -158.00     1600.00
03518             246.00     1800.00
03519             -54.00     1400.00
03520            -254.00     1600.00
03521             122.00     2000.00
03522             -26.00     1600.00
03523             -56.00     1800.00
03524             178.00     2000.00
03525             -66.00     2000.00
03526            -162.00     2000.00
03527             130.00     2000.00
03528              16.00     2200.00
03529             -66.00     2400.00
03530              90.00     2400.00
03531            -114.00     2200.00
03532             -54.00     2600.00
03533             218.00     2400.00
03534            -106.00     2600.00
03535            -170.00     2600.00
03536             176.00     2800.00
03537              12.00     2800.00
03538            -106.00     2600.00
03539              68.00     3200.00
03540             -42.00     2800.00
03541             -32.00     3000.00
03542              80.00     3200.00
03543             -64.00     3000.00
03544             -14.00     3200.00
03545              40.00     3200.00
03546             -58.00     3200.00
03547              30.00     3400.00
03548              30.00     3200.00
03549             -74.00     3200.00
03550              26.00     3400.00
03551              30.00     3600.00
03552             -48.00     3400.00
03553              12.00     3600.00
03554              14.00     3600.00
03555             -26.00     3600.00
03556              -6.00     3600.00
03557              -8.00     3800.00
03558               6.00     3600.00
03559              14.00     4000.00
03560             -24.00     3600.00
03561              -8.00     3800.00
03562              10.00     3800.00
03563             -16.00     4000.00
03564              -6.00     3800.00
03565              16.00     4000.00
03566             -14.00     4000.00
03567             -16.00     4000.00
03568              12.00     4200.00
03569              -6.00     4000.00
03570             -16.00     4000.00
03571               0.00     4200.00
03572               0.00     4200.00
03573               0.00     4200.00
03574              -6.00     4000.00
03575             -10.00     4200.00
03576               2.00     4200.00
03577              -2.00     4200.00
03578             -14.00     4200.00
03579               8.00     4200.00
03580               2.00     4200.00
03581             -16.00     4200.00
03582              -2.00     4400.00
03583              -2.00     4200.00
03584              -8.00     4400.00
03585               2.00     4400.00
03586               0.00     4200.00
03587              -6.00     4400.00
03588             -10.00     4400.00
03589             -10.00     4200.00
03590               0.00     4400.00
03591               0.00     4200.00
03592              -8.00     4200.00
03593              -8.00     4200.00
03594              -2.00     4200.00
03595              -8.00     4200.00
03596              -6.00     4400.00
03597               0.00     4200.00
03598              -8.00     4200.00
03599              -6.00     4200.00
03600              -6.00     4400.00
03601              -6.00     4200.00
03602              -8.00     4200.00
03603              -8.00     4200.00
03604              -8.00     4200.00
03605              -2.00     4200.00
03606              -6.00     4200.00
03607              -6.00     4200.00
03608              -6.00     4200.00
03609             -10.00     4200.00
03610              -8.00     4200.00
03611              -2.00     4000.00
03612              -2.00     4000.00
03613              -8.00     4000.00
03614              -6.00     4000.00
03615              -8.00     4000.00
03616              -8.00     4000.00
03617              -2.00     4000.00
03618               0.00     4000.00
03619              -2.00     4000.00
03620              -6.00     3800.00
03621              -6.00     3800.00
03622              -6.00     3800.00
03623              -6.00     3800.00
03624              -6.00     3600.00
03625              -2.00     3600.00
03626              -2.00     3600.00
03627              -6.00     3600.00
03628              -8.00     3600.00
03629              -6.00     3600.00
03630              -6.00     3400.00
03631              -4.00     3400.00
03632               0.00     3600.00
03633              -2.00     3200.00
03634              -8.00     3400.00
03635              -8.00     3200.00
03636              -6.00     3200.00
03637              -4.00     3200.00
03638              -4.00     3200.00
03639              -2.00     3200.00
03640              -2.00     3000.00
03641              -6.00     3200.00
03642              -8.00     2800.00
03643              -6.00     2800.00
03644              -2.00     2800.00
03645              -6.00     2800.00
03646              -2.00     2800.00
03647              -2.00     2800.00
03648              -6.00     2600.00
03649              -8.00     2600.00
03650              -2.00     2400.00
03651               0.00     2600.00
03652              -2.00     2400.00
03653              -6.00     2600.00
03654              -6.00     2400.00
03655              -8.00     2200.00
03656              -8.00     2200.00
03657              -6.00     2200.00
03658              -2.00     2000.00
03659              -2.00     2000.00
03660              -2.00     2000.00
03661              -4.00     1800.00
03662              -6.00     1800.00
03663              -6.00     1800.00
03664              -6.00     1600.00
03665               0.00     1600.00
03666              -2.00     1600.00
03667              -4.00     1600.00
03668              -4.00     1400.00
03669              -6.00     1400.00
03670              -6.00     1400.00
03671              -2.00     1200.00
03672              -2.00     1200.00
03673              -4.00     1000.00
03674              -2.00     1000.00
03675              -8.00      800.00
03676              -6.00     1000.00
03677              -6.00     1000.00
03678              -6.00      800.00
03679               0.00      800.00
03680               0.00      800.00
03681              -2.00      800.00
03682              -6.00      600.00
03683              -2.00      400.00
03684               0.00      400.00
03685              -2.00      400.00
03686              -8.00      400.00
03687               0.00      200.00
03688               0.00      200.00
03689              -2.00        0.00
03690               6.00        0.00
03691              14.00        0.00
03692               2.00        0.00
03693             -10.00     -200.00
03694             -12.00     -200.00
03695               0.00     -400.00
03696              16.00     -400.00
03697              62.00     -400.00
03698             160.00     -400.00
03699              -6.00     -600.00
03700            -254.00     -800.00
03701            -254.00     -600.00
03702             246.00     -600.00
03703             246.00     -800.00
03704            -254.00    -1000.00
03705            -254.00     -800.00
03706             246.00    -1200.00
03707             246.00    -1000.00
03708            -254.00    -1000.00
03709            -254.00    -1000.00
03710             246.00    -1200.00
03711             128.00    -1200.00
03712             -98.00    -1400.00
03713             -62.00    -1600.00
03714            -130.00    -1400.00
03715              24.00    -1600.00
03716             246.00    -1600.00
03717             -42.00    -1600.00
03718            -254.00    -1600.00
03719              14.00    -2000.00
03720             160.00    -1800.00
03721              14.00    -2000.00
03722             -46.00    -2200.00
03723             -96.00    -2200.00
03724               4.00    -2000.00
03725             144.00    -2400.00
03726             -46.00    -2400.00
03727            -126.00    -2200.00
03728              58.00    -2400.00
03729              82.00    -2600.00
03730             -56.00    -2400.00
03731             -34.00    -2400.00
03732              -8.00    -2600.00
03733              24.00    -2400.00
03734              36.00    -2800.00
03735             -18.00    -2800.00
03736             -46.00    -2800.00
03737               6.00    -2800.00
03738              26.00    -2800.00
03739              -6.00    -3000.00
03740             -16.00    -3000.00
03741             -10.00    -3000.00
03742              14.00    -3000.00
03743              10.00    -3200.00
03744             -18.00    -3200.00
03745             -22.00    -3200.00
03746              18.00    -3200.00
03747              18.00    -3200.00
03748             -18.00    -3200.00
03749             -10.00    -3200.00
03750               6.00    -3200.00
03751               0.00    -3200.00
03752              -6.00    -3400.00
03753              -2.00    -3600.00
03754               0.00    -3400.00
03755               6.00    -3200.00
03756               6.00    -3400.00
03757              -2.00    -3600.00
03758             -10.00    -3600.00
03759              -8.00    -3600.00
03760               6.00    -3600.00
03761              12.00    -3600.00
03762              -6.00    -3800.00
03763              -8.00    -3600.00
03764               2.00    -3800.00
03765               0.00    -3600.00
03766              -6.00    -3800.00
03767               2.00    -3800.00
03768               4.00    -4000.00
03769               0.00    -3800.00
03770              -2.00    -3800.00
03771              -2.00    -4000.00
03772               0.00    -4000.00
03773               0.00    -3800.00
03774               0.00    -3800.00
03775               2.00    -4000.00
03776               0.00    -3800.00
03777              -2.00    -4000.00
03778               0.00    -4000.00
03779              -2.00    -4000.00
03780              -6.00    -3800.00
03781              -8.00    -4000.00
03782               2.00    -4000.00
03783               0.00    -4000.00
03784               0.00    -4000.00
03785               2.00    -3800.00
03786              -2.00    -4000.00
03787              -8.00    -4000.00
03788             -10.00    -3800.00
03789              -2.00    -4000.00
03790               2.00    -4000.00
03791               6.00    -3800.00
03792               2.00    -4000.00
03793              -6.00    -4000.00
03794             -10.00    -4000.00
03795              -6.00    -3800.00
03796               0.00    -3600.00
03797               0.00    -3800.00
03798               0.00    -4000.00
03799               2.00    -3800.00
03800               0.00    -3800.00
03801             -10.00    -3800.00
03802             -10.00    -3800.00
03803               0.00    -3800.00
03804              10.00    -3600.00
03805               6.00    -3600.00
03806              -6.00    -3600.00
03807              -2.00    -3800.00
03808              -2.00    -3600.00
03809               0.00    -3600.00
03810              -2.00    -3600.00
03811              -2.00    -3600.00
03812              -6.00    -3600.00
03813               6.00    -3600.00
03814              10.00    -3400.00
03815               2.00    -3400.00
03816             -10.00    -3400.00
03817             -16.00    -3400.00
03818              -6.00    -3400.00
03819              14.00    -3200.00
03820               8.00    -3200.00
03821               0.00    -3200.00
03822              -8.00    -3200.00
03823              -2.00    -3200.00
03824               0.00    -3200.00
03825               0.00    -3000.00
03826              -2.00    -3000.00
03827               2.00    -3000.00
03828               2.00    -2800.00
03829               0.00    -3000.00
03830              -2.00    -2800.00
03831              -2.00    -2800.00
03832              -6.00    -2800.00
03833              -6.00    -2800.00
03834               0.00    -2600.00
03835               6.00    -2600.00
03836               0.00    -2400.00
03837               0.00    -2400.00
03838               0.00    -2600.00
03839               0.00    -2400.00
03840              -8.00    -2400.00
03841             -10.00    -2000.00
03842               2.00    -2200.00
03843              14.00    -2000.00
03844              10.00    -2000.00
03845              -4.00    -2000.00
03846             -16.00    -2000.00
03847             -10.00    -2000.00
03848               2.00    -1800.00
03849              14.00    -1800.00
03850               6.00    -1600.00
03851              -8.00    -1600.00
03852             -10.00    -1600.00
03853              -8.00    -1600.00
03854              -2.00    -1400.00
03855               0.00    -1400.00
03856               0.00    -1400.00
03857               0.00    -1200.00
03858               0.00    -1400.00
03859              -6.00    -1000.00
03860              -2.00    -1000.00
03861              -8.00    -1000.00
03862              -2.00     -800.00
03863               2.00     -800.00
03864               2.00     -800.00
03865              -4.00     -800.00
03866             -10.00     -600.00
03867              -8.00     -800.00
03868               0.00     -600.00
03869               4.00     -400.00
03870               0.00     -400.00
03871              -4.00     -400.00
03872              -6.00     -400.00
03873              -2.00     -200.00
03874              -2.00     -200.00
03875              -2.00        0.00
03876              -2.00        0.00
03877              -2.00        0.00
03878              -2.00      200.00
03879               6.00      200.00
03880               4.00      400.00
03881              -2.00      200.00
03882              -2.00      400.00
03883               2.00      400.00
03884               2.00      400.00
03885              -2.00      400.00
03886              -2.00      800.00
03887               0.00      600.00
03888              48.00      800.00
03889             180.00      800.00
03890              16.00     1000.00
03891            -254.00      800.00
03892            -254.00      800.00
03893             246.00     1200.00
03894             246.00     1600.00
03895            -254.00     1000.00
03896            -254.00     1200.00
03897             246.00     1600.00
03898             246.00     1600.00
03899            -254.00     1200.00
03900            -212.00     1600.00
03901             246.00     1800.00
03902             -14.00     1600.00
03903            -254.00     1600.00
03904             112.00     2000.00
03905              -8.00     1800.00
03906             -66.00     2000.00
03907             170.00     2000.00
03908             -42.00     2000.00
03909            -176.00     2000.00
03910             120.00     2200.00
03911              30.00     2000.00
03912             -78.00     2400.00
03913              94.00     2400.00
03914            -102.00     2400.00
03915             -74.00     2600.00
03916             216.00     2600.00
03917             -80.00     2600.00
03918            -186.00     2600.00
03919             168.00     2800.00
03920              26.00     2600.00
03921            -118.00     2800.00
03922              66.00     3000.00
03923             -30.00     2800.00
03924             -34.00     3000.00
03925              82.00     3200.00
03926             -62.00     2800.00
03927             -24.00     3200.00
03928              46.00     3200.00
03929             -54.00     3200.00
03930              24.00     3400.00
03931              32.00     3400.00
03932             -78.00     3200.00
03933              16.00     3400.00
03934              32.00     3600.00
03935             -42.00     3400.00
03936              10.00     3600.00
03937              12.00     3600.00
03938             -30.00     3400.00
03939             -10.00     3800.00
03940              -2.00     3600.00
03941              10.00     3600.00
03942              14.00     4000.00
03943             -26.00     3800.00
03944             -16.00     3800.00
03945               8.00     4000.00
03946             -10.00     3800.00
03947              -6.00     4000.00
03948              14.00     4000.00
03949             -10.00     4000.00
03950             -16.00     4000.00
03951              10.00     4200.00
03952              -4.00     4000.00
03953             -18.00     4000.00
03954               0.00     4200.00
03955               2.00     4000.00
03956               0.00     4200.00
03957             -10.00     4200.00
03958             -18.00     4400.00
03959               0.00     4000.00
03960               2.00     4200.00
03961             -10.00     4200.00
03962               6.00     4400.00
03963              -2.00     4200.00
03964             -16.00     4200.00
03965              -2.00     4200.00
03966               2.00     4400.00
03967              -8.00     4200.00
03968              -2.00     4400.00
03969               0.00     4400.00
03970              -2.00     4200.00
03971             -10.00     4400.00
03972             -10.00     4400.00
03973              -2.00     4200.00
03974               0.00     4400.00
03975              -8.00     4200.00
03976              -8.00     4400.00
03977               0.00     4400.00
03978              -8.00     4400.00
03979              -6.00     4400.00
03980              -2.00     4200.00
03981              -8.00     4200.00
03982             -10.00     4200.00
03983              -2.00     4400.00
03984              -4.00     4200.00
03985              -6.00     4200.00
03986              -8.00     4400.00
03987             -10.00     4200.00
03988              -8.00     4200.00
03989              -4.00     4200.00
03990              -2.00     4200.00
03991              -6.00     4200.00
03992             -10.00     4200.00
03993              -8.00     4200.00
03994               0.00     4000.00
03995              -2.00     4000.00
03996             -10.00     4000.00
03997              -4.00     4000.00
03998              -6.00     4000.00
03999             -10.00     4000.00
04000              -6.00     4000.00
04001              -2.00     4000.00
04002              -6.00     3800.00
04003              -6.00     3800.00
04004              -6.00     3600.00
04005              -6.00     3800.00
04006              -8.00     3800.00
04007              -6.00     3800.00
04008               0.00     3600.00
04009              -2.00     3600.00
04010              -8.00     3600.00
04011              -8.00     3600.00
04012              -6.00     3600.00
04013              -4.00     3400.00
04014              -2.00     3400.00
04015               0.00     3400.00
04016              -2.00     3600.00
04017              -8.00     3200.00
04018              -8.00     3400.00
04019              -6.00     3400.00
04020              -2.00     3200.00
04021              -2.00     3200.00
04022               0.00     3200.00
04023              -4.00     3200.00
04024              -8.00     3200.00
04025              -6.00     3000.00
04026              -2.00     3000.00
04027               0.00     2800.00
04028              -6.00     2800.00
04029              -2.00     2800.00
04030              -6.00     2800.00
04031              -6.00     2800.00
04032              -6.00     2800.00
04033               0.00     2600.00
04034               0.00     2600.00
04035              -2.00     2600.00
04036              -8.00     2400.00
04037              -6.00     2400.00
04038              -2.00     2400.00
04039              -2.00     2200.00
04040              -2.00     2200.00
04041              -6.00     2000.00
04042              -6.00     2000.00
04043              -2.00     2000.00
04044               0.00     1800.00
04045              -8.00     1800.00
04046             -10.00     1800.00
04047              -6.00     1600.00
04048               0.00     1800.00
04049              -2.00     1600.00
04050              -2.00     1600.00
04051              -6.00     1400.00
04052              -6.00     1400.00
04053              -8.00     1200.00
04054              -4.00     1200.00
04055               0.00     1200.00
04056               0.00     1200.00
04057              -6.00     1000.00
04058              -6.00     1000.00
04059              -8.00     1000.00
04060              -8.00     1000.00
04061              -2.00      800.00
04062               2.00      800.00
04063               0.00      600.00
04064              -6.00      600.00
04065             -10.00      400.00
04066             -10.00      400.00
04067              -2.00      400.00
04068               0.00      400.00
04069               0.00      400.00
04070              -2.00      200.00
04071              -2.00      200.00
04072              -2.00      200.00
04073               0.00        0.00
04074              10.00        0.00
04075               6.00        0.00
04076              -8.00        0.00
04077             -14.00     -400.00
04078              -2.00     -200.00
04079              14.00     -200.00
04080              56.00     -400.00
04081             152.00     -600.00
04082               2.00     -800.00
04083            -254.00     -800.00
04084            -254.00     -600.00
04085             246.00     -600.00
04086             246.00     -800.00
04087            -254.00    -1200.00
04088            -254.00     -800.00
04089             246.00    -1000.00
04090             246.00    -1200.00
04091            -254.00    -1000.00
04092            -254.00    -1000.00
04093             246.00    -1200.00
04094             168.00    -1000.00
04095             -80.00    -1400.00
04096             -66.00    -1600.00
04097            -138.00    -1400.00
04098               8.00    -1600.00
04099             246.00    -1600.00
04100             -16.00    -1600.00
04101            -254.00    -1600.00
04102               6.00    -2000.00
04103             176.00    -2000.00
04104              16.00    -2000.00
04105             -48.00    -2000.00
04106            -102.00    -2000.00
04107              -2.00    -2000.00
04108             152.00    -2200.00
04109             -24.00    -2200.00
04110            -138.00    -2200.00
04111              34.00    -2400.00
04112              88.00    -2600.00
04113             -42.00    -2400.00
04114             -30.00    -2600.00
04115              -8.00    -2800.00
04116              14.00    -2600.00
04117              30.00    -2600.00
04118             -14.00    -2800.00
04119             -46.00    -2800.00
04120               8.00    -2800.00
04121              30.00    -2800.00
04122              -2.00    -3000.00
04123             -20.00    -3000.00
04124             -20.00    -3000.00
04125              14.00    -3000.00
04126              16.00    -3000.00
04127             -14.00    -3000.00
04128             -22.00    -3200.00
04129              18.00    -3200.00
04130              14.00    -3200.00
04131             -24.00    -3200.00
04132             -18.00    -3200.00
04133              10.00    -3200.00
04134              10.00    -3200.00
04135               0.00    -3600.00
04136              -6.00    -3600.00
04137             -10.00    -3600.00
04138              -4.00    -3600.00
04139               0.00    -3600.00
04140               2.00    -3600.00
04141               2.00    -3600.00
04142              -2.00    -3800.00
04143               0.00    -3800.00
04144               0.00    -3600.00
04145              -8.00    -3800.00
04146              -2.00    -3600.00
04147               6.00    -3800.00
04148              -2.00    -3600.00
04149             -10.00    -3800.00
04150              -2.00    -3800.00
04151               0.00    -3800.00
04152               2.00    -3800.00
04153               2.00    -4000.00
04154               6.00    -3800.00
04155               0.00    -4000.00
04156              -6.00    -4000.00
04157              -6.00    -3800.00
04158              -2.00    -4000.00
04159               2.00    -3800.00
04160               2.00    -4000.00
04161               6.00    -3800.00
04162               2.00    -4000.00
04163              -8.00    -3800.00
04164              -8.00    -4000.00
04165              -2.00    -3800.00
04166               6.00    -4000.00
04167               6.00    -3800.00
04168               2.00    -4000.00
04169              -6.00    -4000.00
04170              -8.00    -4000.00
04171              -6.00    -4000.00
04172               2.00    -3800.00
04173               8.00    -4000.00
04174               2.00    -4000.00
04175               0.00    -4000.00
04176              -6.00    -3800.00
04177              -8.00    -4000.00
04178              -2.00    -3800.00
04179               2.00    -3800.00
04180               4.00    -3800.00
04181               2.00    -3800.00
04182               0.00    -3800.00
04183              -6.00    -3800.00
04184              -8.00    -3800.00
04185              -2.00    -3800.00
04186               2.00    -3800.00
04187               2.00    -3800.00
04188               0.00    -3800.00
04189               0.00    -3800.00
04190              -6.00    -3600.00
04191              -2.00    -3600.00
04192              -4.00    -3600.00
04193               0.00    -3600.00
04194               2.00    -3600.00
04195               2.00    -3600.00
04196               0.00    -3600.00
04197              -6.00    -3600.00
04198              -8.00    -3400.00
04199              -6.00    -3200.00
04200               0.00    -3200.00
04201               4.00    -3400.00
04202               0.00    -3200.00
04203              -2.00    -3200.00
04204               0.00    -3200.00
04205              -2.00    -3200.00
04206               0.00    -3000.00
04207               0.00    -3000.00
04208               0.00    -3000.00
04209              -2.00    -3000.00
04210              -2.00    -3000.00
04211              -2.00    -2800.00
04212               0.00    -2800.00
04213              -2.00    -2800.00
04214               0.00    -2800.00
04215               0.00    -2800.00
04216              -4.00    -2800.00
04217              -2.00    -2600.00
04218              -2.00    -2600.00
04219              -2.00    -2400.00
04220               2.00    -2400.00
04221               2.00    -2400.00
04222              -2.00    -2200.00
04223              -2.00    -2200.00
04224               0.00    -2200.00
04225               0.00    -2200.00
04226               0.00    -2200.00
04227               0.00    -2000.00
04228               0.00    -2200.00
04229               0.00    -2000.00
04230              -2.00    -2000.00
04231              -2.00    -1600.00
04232              -2.00    -1800.00
04233               0.00    -1800.00
04234               0.00    -1600.00
04235               0.00    -1600.00
04236               0.00    -1600.00
04237              -2.00    -1400.00
04238              -2.00    -1600.00
04239              -2.00    -1400.00
04240              -2.00    -1000.00
04241               2.00    -1200.00
04242              -2.00    -1200.00
04243              -2.00    -1200.00
04244              -2.00    -1000.00
04245              -6.00     -800.00
04246              -2.00    -1000.00
04247               0.00     -800.00
04248               0.00     -800.00
04249              -2.00     -600.00
04250              -6.00     -600.00
04251              -6.00     -600.00
04252              -6.00     -400.00
04253              -2.00     -400.00
04254               0.00     -400.00
04255               0.00     -400.00
04256              -2.00     -400.00
04257              -6.00     -200.00
04258              -6.00     -200.00
04259              -4.00        0.00
04260              -2.00        0.00
04261              -6.00        0.00
04262              -2.00        0.00
04263               2.00      200.00
04264              -2.00      200.00
04265               0.00      400.00
04266               8.00      400.00
04267               0.00      400.00
04268              -6.00      400.00
04269              -6.00      400.00
04270               0.00      600.00
04271              46.00     1000.00
04272             176.00     1000.00
04273              38.00     1000.00
04274            -254.00      800.00
04275            -254.00      800.00
04276             246.00     1200.00
04277             246.00     1200.00
04278            -254.00      800.00
04279            -254.00     1200.00
04280             246.00     1600.00
04281             246.00     1600.00
04282            -254.00     1200.00
04283            -254.00     1600.00
04284             246.00     1800.00
04285              32.00     1400.00
04286            -254.00     1600.00
04287              94.00     2000.00
04288              12.00     1800.00
04289             -76.00     1800.00
04290             166.00     2000.00
04291             -16.00     2000.00
04292            -192.00     2000.00
04293             106.00     2400.00
04294              46.00     2400.00
04295             -82.00     2400.00
04296              94.00     2400.00
04297             -82.00     2400.00
04298             -90.00     2400.00
04299             214.00     2600.00
04300             -54.00     2400.00
04301            -202.00     2800.00
04302             158.00     2800.00
04303              54.00     2800.00
04304            -122.00     2800.00
04305              56.00     3000.00
04306             -24.00     2800.00
04307             -48.00     2800.00
04308              86.00     3200.00
04309             -46.00     3000.00
04310             -32.00     2800.00
04311              46.00     3200.00
04312             -54.00     3200.00
04313              16.00     3200.00
04314              42.00     3200.00
04315             -74.00     3400.00
04316               8.00     3400.00
04317              32.00     3400.00
04318             -46.00     3400.00
04319               8.00     3600.00
04320              18.00     3600.00
04321             -26.00     3600.00
04322             -10.00     3600.00
04323              -8.00     3600.00
04324               4.00     3600.00
04325              16.00     3600.00
04326             -24.00     3800.00
04327             -16.00     3800.00
04328               6.00     4000.00
04329             -14.00     3800.00
04330              -6.00     3800.00
04331              18.00     4000.00
04332             -10.00     4000.00
04333             -24.00     4000.00
04334               8.00     4200.00
04335               0.00     4000.00
04336             -16.00     4000.00
04337               2.00     4200.00
04338               0.00     4200.00
04339              -2.00     4000.00
04340              -8.00     4200.00
04341             -14.00     4200.00
04342               0.00     4200.00
04343               0.00     4200.00
04344             -14.00     4000.00
04345               6.00     4200.00
04346               0.00     4400.00
04347             -16.00     4200.00
04348              -2.00     4400.00
04349               2.00     4400.00
04350             -10.00     4200.00
04351              -2.00     4200.00
04352               0.00     4400.00
04353              -4.00     4400.00
04354              -4.00     4400.00
04355             -10.00     4400.00
04356              -6.00     4200.00
04357               0.00     4400.00
04358              -2.00     4200.00
04359              -6.00     4400.00
04360               0.00     4400.00
04361             -10.00     4200.00
04362             -10.00     4400.00
04363               0.00     4200.00
04364               0.00     4400.00
04365              -2.00     4200.00
04366              -2.00     4200.00
04367              -6.00     4200.00
04368              -6.00     4400.00
04369              -4.00     4200.00
04370              -2.00     4200.00
04371              -2.00     4200.00
04372              -6.00     4200.00
04373              -8.00     4200.00
04374              -6.00     4200.00
04375              -8.00     4000.00
04376              -8.00     4000.00
04377               0.00     4000.00
04378              -2.00     4000.00
04379              -8.00     4000.00
04380              -4.00     4000.00
04381              -6.00     4000.00
04382              -8.00     4000.00
04383              -8.00     4000.00
04384              -4.00     4000.00
04385              -4.00     4000.00
04386              -6.00     4000.00
04387              -6.00     3800.00
04388              -6.00     3800.00
04389              -8.00     3600.00
04390             -10.00     3600.00
04391              -2.00     3600.00
04392              -2.00     3600.00
04393              -6.00     3600.00
04394              -8.00     3600.00
04395              -6.00     3600.00
04396              -6.00     3400.00
04397              -6.00     3400.00
04398              -2.00     3400.00
04399              -6.00     3400.00
04400              -6.00     3400.00
04401              -8.00     3400.00
04402              -6.00     3200.00
04403              -4.00     3400.00
04404              -6.00     3200.00
04405              -2.00     3200.00
04406              -6.00     3200.00
04407              -6.00     3200.00
04408              -4.00     3000.00
04409              -2.00     3000.00
04410               0.00     2800.00
04411              -6.00     2800.00
04412              -2.00     2600.00
04413              -2.00     2600.00
04414              -4.00     2800.00
04415              -8.00     2800.00
04416              -4.00     2600.00
04417              -2.00     2600.00
04418              -2.00     2400.00
04419              -6.00     2400.00
04420              -2.00     2400.00
04421              -6.00     2400.00
04422              -6.00     2200.00
04423              -6.00     2000.00
04424              -2.00     2000.00
04425              -6.00     2000.00
04426              -2.00     2000.00
04427              -6.00     1800.00
04428              -6.00     1800.00
04429              -8.00     1800.00
04430              -2.00     1600.00
04431              -2.00     1600.00
04432              -2.00     1600.00
04433              -6.00     1400.00
04434              -4.00     1400.00
04435              -6.00     1400.00
04436              -4.00     1400.00
04437              -6.00     1200.00
04438               0.00     1200.00
04439              -2.00     1000.00
04440              -4.00     1000.00
04441              -6.00     1000.00
04442              -4.00     1000.00
04443              -6.00     1000.00
04444              -6.00     1000.00
04445               0.00      800.00
04446               0.00      800.00
04447              -8.00      800.00
04448              -8.00      400.00
04449              -6.00      400.00
04450              -2.00      400.00
04451              -2.00      400.00
04452              -8.00      200.00
04453              -2.00      200.00
04454               0.00      200.00
04455               0.00        0.00
04456               0.00        0.00
04457               8.00        0.00
04458               0.00        0.00
04459              -6.00        0.00
04460             -10.00        0.00
04461              -4.00     -200.00
04462               8.00     -400.00
04463              50.00     -400.00
04464             150.00     -400.00
04465              28.00     -800.00
04466            -254.00     -800.00
04467            -254.00     -400.00
04468             246.00     -600.00
04469             246.00     -800.00
04470            -254.00    -1200.00
04471            -254.00     -800.00
04472             246.00    -1200.00
04473             246.00    -1000.00
04474            -254.00    -1200.00
04475            -254.00    -1000.00
04476             246.00    -1200.00
04477             182.00    -1200.00
04478             -74.00    -1400.00
04479             -54.00    -1600.00
04480            -138.00    -1400.00
04481             -20.00    -1600.00
04482             246.00    -1600.00
04483              16.00    -1600.00
04484            -254.00    -1800.00
04485             -18.00    -2000.00
04486             166.00    -2000.00
04487              16.00    -1600.00
04488             -38.00    -2200.00
04489             -88.00    -2000.00
04490              -4.00    -2000.00
04491             142.00    -2200.00
04492             -24.00    -2400.00
04493            -146.00    -2200.00
04494              42.00    -2400.00
04495             110.00    -2600.00
04496             -38.00    -2400.00
04497             -40.00    -2400.00
04498             -18.00    -2600.00
04499              14.00    -2600.00
04500              40.00    -2800.00
04501              -2.00    -2600.00
04502             -48.00    -2800.00
04503              -6.00    -3000.00
04504              18.00    -2800.00
04505               4.00    -3000.00
04506               0.00    -3000.00
04507               0.00    -3000.00
04508               2.00    -3000.00
04509              -8.00    -3200.00
04510             -24.00    -3200.00
04511             -14.00    -3200.00
04512              30.00    -3200.00
04513              22.00    -3200.00
04514             -26.00    -3200.00
04515             -22.00    -3200.00
04516              12.00    -3200.00
04517              16.00    -3200.00
04518               0.00    -3600.00
04519              -8.00    -3400.00
04520              -6.00    -3600.00
04521              -2.00    -3600.00
04522               0.00    -3600.00
04523               0.00    -3600.00
04524              -6.00    -3600.00
04525               0.00    -3600.00
04526               6.00    -3600.00
04527               2.00    -3600.00
04528             -10.00    -3800.00
04529              -2.00    -3600.00
04530               8.00    -3800.00
04531               6.00    -3800.00
04532              -8.00    -3800.00
04533              -4.00    -3800.00
04534              -2.00    -3800.00
04535              -6.00    -3800.00
04536               0.00    -3800.00
04537               8.00    -4000.00
04538              10.00    -3800.00
04539              -2.00    -4000.00
04540             -14.00    -3800.00
04541              -2.00    -4000.00
04542               8.00    -3800.00
04543               6.00    -3800.00
04544               0.00    -4000.00
04545              -8.00    -4000.00
04546             -10.00    -4000.00
04547               0.00    -3800.00
04548               8.00    -4000.00
04549               8.00    -3800.00
04550              -2.00    -3800.00
04551              -2.00    -4000.00
04552              -4.00    -4000.00
04553               0.00    -4000.00
04554               0.00    -4000.00
04555               2.00    -4000.00
04556               4.00    -3800.00
04557              -2.00    -4000.00
04558               0.00    -3800.00
04559               2.00    -4000.00
04560              -2.00    -3800.00
04561              -6.00    -3800.00
04562               0.00    -3800.00
04563               0.00    -3800.00
04564               2.00    -4000.00
04565               0.00    -3800.00
04566               0.00    -4000.00
04567              -2.00    -3800.00
04568              -2.00    -3800.00
04569              -4.00    -3600.00
04570               0.00    -3800.00
04571               6.00    -3600.00
04572               6.00    -3800.00
04573               0.00    -3800.00
04574              -8.00    -3600.00
04575              -6.00    -3600.00
04576               2.00    -3600.00
04577               6.00    -3600.00
04578               0.00    -3600.00
04579              -2.00    -3400.00
04580              -6.00    -3400.00
04581              -4.00    -3400.00
04582               0.00    -3400.00
04583               2.00    -3400.00
04584               0.00    -3200.00
04585               0.00    -3200.00
04586              -6.00    -3200.00
04587              -2.00    -3000.00
04588              -2.00    -3200.00
04589               0.00    -3200.00
04590              -2.00    -3000.00
04591               0.00    -3000.00
04592              -2.00    -3000.00
04593              -2.00    -3000.00
04594               0.00    -3000.00
04595               0.00    -3000.00
04596              -2.00    -2800.00
04597               0.00    -2800.00
04598               2.00    -3000.00
04599               0.00    -2800.00
04600              -2.00    -2800.00
04601              -2.00    -2600.00
04602               0.00    -2400.00
04603               0.00    -2400.00
04604               2.00    -2400.00
04605               0.00    -2400.00
04606              -4.00    -2400.00
04607              -2.00    -2200.00
04608               0.00    -2200.00
04609               6.00    -2200.00
04610               0.00    -2200.00
04611              -2.00    -2000.00
04612              -2.00    -2000.00
04613              -2.00    -2000.00
04614              -2.00    -2000.00
04615               0.00    -1600.00
04616               0.00    -1600.00
04617              -2.00    -1600.00
04618              -2.00    -1600.00
04619               0.00    -1400.00
04620              -2.00    -1600.00
04621               0.00    -1400.00
04622              -2.00    -1400.00
04623               0.00    -1200.00
04624               2.00    -1200.00
04625              -2.00    -1200.00
04626              -6.00    -1000.00
04627               0.00    -1200.00
04628              -2.00    -1000.00
04629               0.00     -800.00
04630               2.00     -800.00
04631               0.00     -800.00
04632              -6.00     -600.00
04633              -4.00     -800.00
04634              -4.00     -600.00
04635              -2.00     -600.00
04636              -4.00     -600.00
04637               0.00     -400.00
04638               0.00     -200.00
04639              -2.00        0.00
04640              -8.00        0.00
04641              -6.00        0.00
04642               0.00        0.00
04643              -2.00      200.00
04644              -8.00        0.00
04645              -2.00      200.00
04646               0.00      200.00
04647               0.00      200.00
04648               2.00      400.00
04649               4.00      400.00
04650              -2.00      400.00
04651              -4.00      400.00
04652              -2.00      600.00
04653               0.00      600.00
04654              34.00      800.00
04655             166.00     1000.00
04656              58.00     1000.00
04657            -254.00      800.00
04658            -254.00     1000.00
04659             246.00     1200.00
04660             246.00     1200.00
04661            -254.00     1000.00
04662            -254.00     1200.00
04663             246.00     1600.00
04664             246.00     1400.00
04665            -254.00     1200.00
04666            -254.00     1600.00
04667             246.00     1800.00
04668              82.00     1600.00
04669            -254.00     1600.00
04670              66.00     2000.00
04671              24.00     1800.00
04672             -82.00     1800.00
04673             162.00     2000.00
04674              12.00     2000.00
04675            -208.00     2000.00
04676              94.00     2400.00
04677              60.00     2200.00
04678             -86.00     2400.00
04679              90.00     2400.00
04680             -66.00     2400.00
04681            -112.00     2400.00
04682             208.00     2600.00
04683             -24.00     2600.00
04684            -212.00     2600.00
04685             142.00     2800.00
04686              64.00     2800.00
04687            -124.00     2800.00
04688              62.00     3200.00
04689              -6.00     2800.00
04690             -54.00     2800.00
04691              78.00     3200.00
04692             -44.00     3000.00
04693             -40.00     3200.00
04694              54.00     3200.00
04695             -42.00     3200.00
04696               8.00     3400.00
04697              46.00     3200.00
04698             -80.00     3200.00
04699               0.00     3400.00
04700              42.00     3600.00
04701             -40.00     3400.00
04702               0.00     3400.00
04703              22.00     3600.00
04704             -24.00     3600.00
04705             -10.00     3600.00
04706              -8.00     3800.00
04707               2.00     3600.00
04708              16.00     3600.00
04709             -16.00     3800.00
04710             -12.00     3600.00
04711               8.00     3800.00
04712             -16.00     4000.00
04713             -14.00     4000.00
04714              16.00     4000.00
04715              -6.00     4000.00
04716             -22.00     4000.00
04717               6.00     4200.00
04718               0.00     4000.00
04719             -20.00     4000.00
04720               0.00     4200.00
04721               0.00     4000.00
04722              -2.00     4200.00
04723              -4.00     4200.00
04724             -10.00     4000.00
04725               2.00     4200.00
04726              -2.00     4200.00
04727             -16.00     4200.00
04728               2.00     4200.00
04729               2.00     4400.00
04730             -16.00     4200.00
04731              -6.00     4400.00
04732              -2.00     4200.00
04733              -8.00     4400.00
04734              -2.00     4400.00
04735               0.00     4200.00
04736              -6.00     4400.00
04737              -8.00     4400.00
04738              -8.00     4400.00
04739              -6.00     4200.00
04740               0.00     4400.00
04741              -6.00     4400.00
04742              -4.00     4200.00
04743               0.00     4400.00
04744             -10.00     4400.00
04745             -10.00     4400.00
04746              -2.00     4400.00
04747               0.00     4400.00
04748               0.00     4200.00
04749              -2.00     4400.00
04750              -8.00     4400.00
04751             -10.00     4200.00
04752              -6.00     4200.00
04753              -2.00     4400.00
04754               0.00     4200.00
04755              -2.00     4200.00
04756              -6.00     4200.00
04757              -6.00     4200.00
04758             -10.00     4200.00
04759              -8.00     4200.00
04760               0.00     4200.00
04761               0.00     4000.00
04762              -6.00     4000.00
04763              -6.00     4200.00
04764              -8.00     4000.00
04765             -10.00     4000.00
04766              -6.00     4000.00
04767               0.00     4000.00
04768              -2.00     4000.00
04769              -6.00     4000.00
04770              -8.00     3800.00
04771              -6.00     3800.00
04772              -8.00     3800.00
04773              -8.00     3600.00
04774              -2.00     3800.00
04775              -2.00     3600.00
04776             -10.00     3600.00
04777              -8.00     3600.00
04778              -6.00     3400.00
04779               0.00     3600.00
04780              -2.00     3400.00
04781              -2.00     3400.00
04782              -6.00     3600.00
04783             -10.00     3400.00
04784             -10.00     3200.00
04785              -2.00     3400.00
04786              -2.00     3200.00
04787              -4.00     3200.00
04788              -6.00     3200.00
04789              -8.00     3200.00
04790              -8.00     3000.00
04791              -6.00     3000.00
04792              -6.00     3000.00
04793              -2.00     2800.00
04794              -6.00     2800.00
04795              -2.00     2800.00
04796              -2.00     2800.00
04797              -6.00     2600.00
04798             -10.00     2600.00
04799              -2.00     2600.00
04800              -2.00     2600.00
04801               0.00     2600.00
04802              -2.00     2400.00
04803              -2.00     2400.00
04804              -8.00     2400.00
04805             -10.00     2200.00
04806              -6.00     2400.00
04807               0.00     2000.00
04808               0.00     2000.00
04809              -2.00     2000.00
04810              -4.00     2000.00
04811              -8.00     1800.00
04812              -6.00     1800.00
04813               0.00     1600.00
04814               0.00     1600.00
04815              -2.00     1600.00
04816              -6.00     1600.00
04817              -6.00     1400.00
04818              -6.00     1400.00
04819              -2.00     1200.00
04820              -2.00     1400.00
04821              -2.00     1200.00
04822              -2.00     1200.00
04823              -2.00     1200.00
04824              -2.00     1200.00
04825              -2.00     1000.00
04826              -8.00     1000.00
04827              -8.00      800.00
04828              -2.00      800.00
04829               0.00      800.00
04830              -2.00      800.00
04831              -6.00      600.00
04832              -6.00      400.00
04833               0.00      400.00
04834              -2.00      400.00
04835              -6.00      400.00
04836              -6.00      200.00
04837               0.00      200.00
04838               0.00        0.00
04839               2.00        0.00
04840               2.00        0.00
04841               0.00        0.00
04842             -10.00        0.00
04843              -6.00     -400.00
04844               0.00     -200.00
04845              10.00     -400.00
04846              38.00     -400.00
04847             142.00     -600.00
04848              42.00     -800.00
04849            -254.00     -800.00
04850            -254.00     -600.00
04851             246.00     -600.00
04852             246.00     -800.00
04853            -254.00    -1200.00
04854            -254.00     -800.00
04855             246.00    -1000.00
04856             246.00    -1000.00
04857            -254.00    -1200.00
04858            -254.00    -1000.00
04859             230.00    -1400.00
04860             212.00    -1200.00
04861             -72.00    -1400.00
04862             -64.00    -1600.00
04863            -134.00    -1600.00
04864             -36.00    -1400.00
04865             246.00    -1800.00
04866              48.00    -1600.00
04867            -254.00    -1600.00
04868             -38.00    -2000.00
04869             170.00    -1800.00
04870              26.00    -2000.00
04871             -32.00    -2000.00
04872             -94.00    -2000.00
04873             -18.00    -2000.00
04874             142.00    -2200.00
04875               6.00    -2400.00
04876            -150.00    -2200.00
04877              22.00    -2400.00
04878             106.00    -2400.00
04879             -30.00    -2400.00
04880             -36.00    -2400.00
04881             -14.00    -2600.00
04882              10.00    -2600.00
04883              36.00    -2600.00
04884               0.00    -2800.00
04885             -48.00    -2800.00
04886               0.00    -2800.00
04887              30.00    -2800.00
04888               8.00    -3000.00
04889             -10.00    -3000.00
04890             -16.00    -2800.00
04891               6.00    -3000.00
04892              16.00    -3200.00
04893              -8.00    -3200.00
04894             -22.00    -3200.00
04895              10.00    -3200.00
04896              16.00    -3200.00
04897             -22.00    -3200.00
04898             -16.00    -3200.00
04899              14.00    -3400.00
04900              14.00    -3200.00
04901              -2.00    -3200.00
04902             -10.00    -3600.00
04903             -10.00    -3600.00
04904              -2.00    -3400.00
04905               8.00    -3600.00
04906               8.00    -3600.00
04907              -2.00    -3600.00
04908             -10.00    -3600.00
04909              -2.00    -3600.00
04910               4.00    -3800.00
04911              -6.00    -3600.00
04912              -2.00    -3800.00
04913               8.00    -3800.00
04914               6.00    -3800.00
04915              -8.00    -3800.00
04916              -6.00    -3800.00
04917               0.00    -3800.00
04918               0.00    -3800.00
04919               0.00    -4000.00
04920               0.00    -3800.00
04921               2.00    -3800.00
04922              -4.00    -3800.00
04923              -2.00    -3800.00
04924               0.00    -4000.00
04925               6.00    -3800.00
04926               2.00    -4000.00
04927               0.00    -3800.00
04928               0.00    -4000.00
04929              -8.00    -4000.00
04930              -2.00    -4000.00
04931               2.00    -4000.00
04932               2.00    -3800.00
04933               2.00    -3800.00
04934               0.00    -4000.00
04935               0.00    -4000.00
04936               0.00    -3800.00
04937              -2.00    -4000.00
04938               0.00    -4000.00
04939               2.00    -4000.00
04940               0.00    -3800.00
04941               0.00    -4000.00
04942               0.00    -4000.00
04943              -2.00    -3800.00
04944              -2.00    -4000.00
04945               2.00    -3800.00
04946               4.00    -3800.00
04947               0.00    -3800.00
04948               0.00    -3800.00
04949              -2.00    -3800.00
04950              -2.00    -3800.00
04951               0.00    -3600.00
04952               2.00    -3800.00
04953               2.00    -3600.00
04954              -2.00    -3800.00
04955              -4.00    -3800.00
04956              -2.00    -3600.00
04957              -2.00    -3600.00
04958              -2.00    -3600.00
04959               0.00    -3600.00
04960               0.00    -3600.00
04961               0.00    -3400.00
04962              -2.00    -3600.00
04963              -2.00    -3600.00
04964              -2.00    -3400.00
04965              -2.00    -3400.00
04966               2.00    -3400.00
04967               0.00    -3200.00
04968              -2.00    -3200.00
04969              -4.00    -3200.00
04970              -4.00    -3200.00
04971              -2.00    -3200.00
04972               0.00    -3000.00
04973               0.00    -3000.00
04974               2.00    -3000.00
04975              -2.00    -3000.00
04976              -6.00    -3000.00
04977              -2.00    -2800.00
04978              -2.00    -2800.00
04979               0.00    -2800.00
04980               0.00    -2800.00
04981               0.00    -2800.00
04982              -4.00    -2800.00
04983              -2.00    -2600.00
04984              -2.00    -2600.00
04985               0.00    -2600.00
04986               0.00    -2400.00
04987               0.00    -2400.00
04988              -2.00    -2200.00
04989              -2.00    -2400.00
04990              -2.00    -2200.00
04991              -2.00    -2200.00
04992               0.00    -2200.00
04993               0.00    -2000.00
04994               2.00    -2000.00
04995               0.00    -2000.00
04996              -2.00    -1600.00
04997              -6.00    -1800.00
04998              -2.00    -1800.00
04999               0.00    -1600.00
05000               0.00    -1600.00
