Unit:(mV)
                     CH1         CH2
Frequency              ? 257.723 kHz
00001               0.00    -2600.00
00002               2.00    -2400.00
00003               8.00    -2400.00
00004               8.00    -2400.00
00005               6.00    -2400.00
00006               6.00    -2200.00
00007               0.00    -2200.00
00008               6.00    -2000.00
00009               6.00    -2200.00
00010               2.00    -2000.00
00011               6.00    -2000.00
00012               6.00    -2000.00
00013               4.00    -2000.00
00014               0.00    -1800.00
00015               2.00    -1600.00
00016               4.00    -1600.00
00017               6.00    -1600.00
00018               2.00    -1600.00
00019               0.00    -1600.00
00020               0.00    -1600.00
00021               4.00    -1400.00
00022               6.00    -1400.00
00023               8.00    -1200.00
00024               0.00    -1000.00
00025              -2.00    -1000.00
00026               0.00    -1000.00
00027               0.00     -800.00
00028               2.00    -1000.00
00029               8.00     -800.00
00030               6.00     -800.00
00031              -2.00     -600.00
00032              -6.00     -800.00
00033              -6.00     -600.00
00034               0.00     -400.00
00035               2.00     -600.00
00036               0.00     -400.00
00037               0.00     -400.00
00038              -2.00     -400.00
00039              -2.00        0.00
00040              -6.00     -200.00
00041              -2.00        0.00
00042               0.00        0.00
00043               0.00        0.00
00044              -6.00        0.00
00045              -2.00      200.00
00046               0.00      200.00
00047               0.00      400.00
00048               0.00      200.00
00049               6.00      400.00
00050               0.00      400.00
00051              -6.00      600.00
00052              -8.00      600.00
00053              -2.00      800.00
00054              40.00      800.00
00055             182.00     1000.00
00056              62.00     1000.00
00057            -254.00      800.00
00058            -254.00      800.00
00059             246.00     1200.00
00060             246.00     1400.00
00061            -254.00     1000.00
00062            -254.00     1000.00
00063             246.00     1600.00
00064             246.00     1600.00
00065            -254.00     1200.00
00066            -254.00     1600.00
00067             246.00     1800.00
00068             142.00     1600.00
00069            -254.00     1600.00
00070              56.00     2000.00
00071             -16.00     1800.00
00072            -106.00     1800.00
00073             198.00     2000.00
00074              34.00     2000.00
00075            -242.00     2000.00
00076              74.00     2400.00
00077              72.00     2400.00
00078             -80.00     2200.00
00079              96.00     2400.00
00080             -82.00     2400.00
00081            -138.00     2600.00
00082             228.00     2600.00
00083             -16.00     2600.00
00084            -240.00     2600.00
00085             142.00     2800.00
00086              80.00     2800.00
00087            -136.00     2800.00
00088              48.00     3000.00
00089             -20.00     3000.00
00090             -64.00     2800.00
00091              90.00     3200.00
00092             -42.00     3200.00
00093             -48.00     3200.00
00094              46.00     3200.00
00095             -56.00     3200.00
00096               6.00     3200.00
00097              50.00     3400.00
00098             -84.00     3400.00
00099             -10.00     3400.00
00100              38.00     3400.00
00101             -48.00     3400.00
00102              -6.00     3600.00
00103              16.00     3600.00
00104             -26.00     3600.00
00105             -18.00     3800.00
00106             -16.00     3600.00
00107              -2.00     3600.00
00108               8.00     3800.00
00109             -26.00     3800.00
00110             -16.00     3800.00
00111               0.00     4000.00
00112             -24.00     4000.00
00113             -16.00     4000.00
00114               8.00     4000.00
00115             -16.00     4000.00
00116             -26.00     4000.00
00117               2.00     4000.00
00118             -10.00     4000.00
00119             -26.00     4000.00
00120             -10.00     4200.00
00121              -8.00     4200.00
00122              -6.00     4000.00
00123             -14.00     4200.00
00124             -24.00     4200.00
00125              -8.00     4200.00
00126             -10.00     4200.00
00127             -26.00     4200.00
00128              -2.00     4400.00
00129              -8.00     4200.00
00130             -26.00     4400.00
00131             -12.00     4200.00
00132              -6.00     4400.00
00133             -14.00     4400.00
00134             -14.00     4200.00
00135             -18.00     4400.00
00136             -18.00     4400.00
00137             -14.00     4400.00
00138             -10.00     4400.00
00139              -8.00     4400.00
00140              -8.00     4400.00
00141             -22.00     4200.00
00142             -16.00     4400.00
00143              -8.00     4400.00
00144             -16.00     4400.00
00145             -14.00     4400.00
00146             -10.00     4400.00
00147             -18.00     4200.00
00148             -12.00     4200.00
00149              -6.00     4200.00
00150             -16.00     4400.00
00151             -18.00     4200.00
00152             -18.00     4400.00
00153              -8.00     4200.00
00154              -8.00     4400.00
00155             -16.00     4200.00
00156             -16.00     4400.00
00157             -14.00     4200.00
00158             -16.00     4200.00
00159             -16.00     4200.00
00160              -8.00     4000.00
00161             -10.00     4000.00
00162             -16.00     4200.00
00163             -18.00     4000.00
00164             -14.00     4000.00
00165             -16.00     4000.00
00166             -16.00     4000.00
00167             -10.00     4000.00
00168             -10.00     4000.00
00169             -14.00     4000.00
00170             -22.00     3800.00
00171             -18.00     3800.00
00172             -18.00     3800.00
00173             -14.00     3800.00
00174             -10.00     3600.00
00175             -10.00     3800.00
00176             -16.00     3600.00
00177             -22.00     3600.00
00178             -16.00     3600.00
00179             -16.00     3600.00
00180             -10.00     3600.00
00181             -10.00     3400.00
00182             -14.00     3400.00
00183             -18.00     3400.00
00184             -22.00     3400.00
00185             -10.00     3200.00
00186             -10.00     3200.00
00187             -10.00     3200.00
00188             -14.00     3200.00
00189             -14.00     3200.00
00190             -16.00     3200.00
00191             -14.00     3200.00
00192             -10.00     2800.00
00193              -8.00     2800.00
00194             -16.00     2800.00
00195             -14.00     2800.00
00196             -10.00     2800.00
00197             -10.00     2800.00
00198             -12.00     2600.00
00199              -8.00     2600.00
00200             -10.00     2600.00
00201              -8.00     2400.00
00202             -10.00     2400.00
00203             -10.00     2400.00
00204             -10.00     2400.00
00205             -10.00     2200.00
00206              -8.00     2200.00
00207              -8.00     2400.00
00208             -10.00     2000.00
00209             -10.00     2000.00
00210              -8.00     2000.00
00211              -8.00     1800.00
00212             -10.00     2000.00
00213              -8.00     1800.00
00214              -6.00     1600.00
00215              -8.00     1600.00
00216              -8.00     1600.00
00217              -6.00     1600.00
00218              -6.00     1600.00
00219             -10.00     1400.00
00220              -8.00     1400.00
00221              -4.00     1200.00
00222              -4.00     1000.00
00223              -8.00     1200.00
00224              -8.00     1000.00
00225              -8.00     1000.00
00226              -6.00      800.00
00227              -8.00     1000.00
00228              -2.00      800.00
00229              -4.00      800.00
00230              -8.00      600.00
00231              -8.00      600.00
00232              -8.00      600.00
00233              -2.00      400.00
00234              -6.00      400.00
00235              -8.00      400.00
00236              -8.00      200.00
00237               0.00        0.00
00238               0.00        0.00
00239              -2.00      200.00
00240               6.00        0.00
00241               0.00        0.00
00242              -2.00        0.00
00243             -10.00     -400.00
00244              -2.00     -200.00
00245               6.00     -400.00
00246              46.00     -400.00
00247             158.00     -400.00
00248              48.00     -800.00
00249            -254.00     -800.00
00250            -254.00     -600.00
00251             246.00     -600.00
00252             246.00     -800.00
00253            -254.00    -1000.00
00254            -254.00     -800.00
00255             246.00    -1000.00
00256             246.00    -1200.00
00257            -254.00    -1000.00
00258            -254.00    -1000.00
00259             182.00    -1200.00
00260             246.00    -1000.00
00261             -22.00    -1400.00
00262             -62.00    -1600.00
00263            -176.00    -1400.00
00264             -60.00    -1400.00
00265             246.00    -1600.00
00266              80.00    -1600.00
00267            -254.00    -1800.00
00268             -70.00    -2000.00
00269             186.00    -1600.00
00270              54.00    -1800.00
00271             -30.00    -2200.00
00272            -120.00    -2200.00
00273             -26.00    -2000.00
00274             176.00    -2200.00
00275              30.00    -2400.00
00276            -180.00    -2000.00
00277              -6.00    -2400.00
00278             120.00    -2600.00
00279               0.00    -2600.00
00280             -18.00    -2600.00
00281             -22.00    -2400.00
00282              -6.00    -2600.00
00283              38.00    -2800.00
00284              14.00    -2800.00
00285             -40.00    -2800.00
00286               8.00    -2800.00
00287              38.00    -3000.00
00288              -2.00    -2800.00
00289             -24.00    -2800.00
00290              -8.00    -3000.00
00291              32.00    -3000.00
00292              40.00    -3000.00
00293             -10.00    -3200.00
00294             -50.00    -3000.00
00295               8.00    -3200.00
00296              40.00    -3200.00
00297              -2.00    -3200.00
00298             -14.00    -3400.00
00299               8.00    -3600.00
00300               8.00    -3600.00
00301              10.00    -3600.00
00302               6.00    -3400.00
00303              -6.00    -3600.00
00304               0.00    -3600.00
00305              10.00    -3600.00
00306               8.00    -3600.00
00307               2.00    -3600.00
00308               0.00    -3600.00
00309              10.00    -3800.00
00310              14.00    -3800.00
00311              -4.00    -3800.00
00312              -6.00    -3800.00
00313              16.00    -3800.00
00314              10.00    -3800.00
00315              -2.00    -3800.00
00316               0.00    -3800.00
00317               8.00    -3800.00
00318               8.00    -4000.00
00319               8.00    -3800.00
00320               6.00    -4000.00
00321              10.00    -3800.00
00322               2.00    -3800.00
00323              -4.00    -4000.00
00324               8.00    -4000.00
00325              14.00    -3800.00
00326              14.00    -3800.00
00327              16.00    -3800.00
00328              10.00    -4000.00
00329               0.00    -3800.00
00330               2.00    -3800.00
00331               8.00    -4000.00
00332               8.00    -4000.00
00333              10.00    -4000.00
00334               8.00    -4000.00
00335               6.00    -4000.00
00336               8.00    -4000.00
00337               6.00    -4000.00
00338              14.00    -4000.00
00339              18.00    -3800.00
00340              18.00    -3800.00
00341              16.00    -4000.00
00342               6.00    -3800.00
00343             -12.00    -4000.00
00344              -4.00    -4000.00
00345               6.00    -3800.00
00346              16.00    -3800.00
00347              20.00    -3800.00
00348              16.00    -3800.00
00349              14.00    -3800.00
00350              16.00    -3800.00
00351               6.00    -3800.00
00352               6.00    -3800.00
00353               6.00    -3600.00
00354               0.00    -3800.00
00355               6.00    -3600.00
00356              14.00    -3600.00
00357              14.00    -3800.00
00358              16.00    -3600.00
00359               8.00    -3600.00
00360              10.00    -3600.00
00361              14.00    -3600.00
00362               6.00    -3400.00
00363               0.00    -3600.00
00364              -2.00    -3600.00
00365               0.00    -3400.00
00366               8.00    -3400.00
00367              10.00    -3400.00
00368               8.00    -3200.00
00369              16.00    -3200.00
00370              14.00    -3200.00
00371               8.00    -3200.00
00372               0.00    -3200.00
00373               0.00    -3200.00
00374               6.00    -3000.00
00375               8.00    -3200.00
00376               0.00    -3000.00
00377              -2.00    -2800.00
00378               0.00    -2800.00
00379              16.00    -3000.00
00380              24.00    -2800.00
00381              14.00    -2800.00
00382             -12.00    -2800.00
00383             -16.00    -2600.00
00384              -2.00    -2600.00
00385              14.00    -2600.00
00386              16.00    -2400.00
00387               6.00    -2400.00
00388               0.00    -2400.00
00389               2.00    -2400.00
00390               8.00    -2400.00
00391              14.00    -2200.00
00392               2.00    -2200.00
00393              -4.00    -2200.00
00394              -4.00    -2200.00
00395               2.00    -2000.00
00396               6.00    -2000.00
00397               6.00    -2000.00
00398               6.00    -1600.00
00399               6.00    -1800.00
00400               0.00    -1600.00
00401               0.00    -1600.00
00402               2.00    -1600.00
00403               0.00    -1600.00
00404              -2.00    -1400.00
00405               0.00    -1400.00
00406               2.00    -1000.00
00407               2.00    -1200.00
00408               6.00    -1000.00
00409               0.00    -1000.00
00410               0.00    -1000.00
00411              -2.00     -800.00
00412              -2.00     -800.00
00413               4.00     -800.00
00414               0.00     -800.00
00415               2.00     -600.00
00416               0.00     -600.00
00417              -2.00     -600.00
00418               0.00     -400.00
00419              -2.00     -400.00
00420               2.00     -400.00
00421               4.00     -400.00
00422              -2.00     -200.00
00423              -6.00        0.00
00424              -8.00        0.00
00425              -2.00        0.00
00426               2.00        0.00
00427               0.00      200.00
00428               2.00      200.00
00429               2.00      200.00
00430              -2.00      400.00
00431               0.00      400.00
00432               6.00      400.00
00433               2.00      400.00
00434              -4.00      600.00
00435              -8.00      400.00
00436               0.00      800.00
00437              32.00      800.00
00438             176.00     1000.00
00439              94.00     1000.00
00440            -254.00      800.00
00441            -254.00      800.00
00442             246.00     1200.00
00443             246.00     1400.00
00444            -254.00     1000.00
00445            -254.00     1000.00
00446             246.00     1600.00
00447             246.00     1600.00
00448            -254.00     1200.00
00449            -254.00     1600.00
00450             246.00     1800.00
00451             200.00     1400.00
00452            -254.00     1600.00
00453              26.00     2000.00
00454               8.00     1800.00
00455            -120.00     1600.00
00456             182.00     2000.00
00457              74.00     2000.00
00458            -254.00     2000.00
00459              50.00     2200.00
00460              88.00     2400.00
00461             -86.00     2200.00
00462              86.00     2400.00
00463             -64.00     2400.00
00464            -156.00     2400.00
00465             216.00     2800.00
00466              24.00     2400.00
00467            -254.00     2600.00
00468             112.00     2800.00
00469             104.00     2800.00
00470            -138.00     2800.00
00471              40.00     3000.00
00472              -6.00     2800.00
00473             -74.00     2800.00
00474              82.00     3200.00
00475             -30.00     3200.00
00476             -58.00     3200.00
00477              48.00     3200.00
00478             -50.00     3200.00
00479              -8.00     3200.00
00480              58.00     3400.00
00481             -74.00     3200.00
00482             -16.00     3400.00
00483              38.00     3600.00
00484             -46.00     3600.00
00485             -10.00     3600.00
00486              22.00     3800.00
00487             -24.00     3600.00
00488             -22.00     3600.00
00489             -18.00     3800.00
00490               0.00     3800.00
00491              10.00     4000.00
00492             -30.00     3800.00
00493             -24.00     3800.00
00494               0.00     4000.00
00495             -24.00     4000.00
00496             -16.00     3800.00
00497              12.00     4200.00
00498             -12.00     4000.00
00499             -30.00     4000.00
00500              -2.00     4000.00
00501              -8.00     4000.00
00502             -24.00     4000.00
00503             -14.00     4000.00
00504              -8.00     4000.00
00505              -6.00     4000.00
00506             -14.00     4200.00
00507             -24.00     4200.00
00508              -6.00     4200.00
00509             -10.00     4000.00
00510             -26.00     4200.00
00511              -8.00     4200.00
00512              -2.00     4400.00
00513             -18.00     4200.00
00514             -14.00     4200.00
00515             -14.00     4200.00
00516             -22.00     4400.00
00517             -10.00     4400.00
00518              -6.00     4400.00
00519              -8.00     4400.00
00520             -16.00     4400.00
00521             -26.00     4400.00
00522             -16.00     4200.00
00523              -8.00     4400.00
00524             -14.00     4400.00
00525             -10.00     4200.00
00526             -10.00     4400.00
00527             -20.00     4200.00
00528             -16.00     4400.00
00529             -14.00     4200.00
00530             -16.00     4200.00
00531             -14.00     4400.00
00532              -6.00     4400.00
00533             -10.00     4400.00
00534             -22.00     4400.00
00535             -20.00     4200.00
00536             -14.00     4200.00
00537             -10.00     4200.00
00538             -10.00     4200.00
00539             -14.00     4200.00
00540             -10.00     4200.00
00541             -20.00     4200.00
00542             -22.00     4200.00
00543             -10.00     4000.00
00544              -6.00     4000.00
00545             -16.00     4200.00
00546             -18.00     4000.00
00547             -10.00     4200.00
00548             -16.00     4000.00
00549             -16.00     4000.00
00550             -10.00     4000.00
00551             -10.00     4000.00
00552             -16.00     4000.00
00553             -18.00     4000.00
00554             -14.00     3800.00
00555              -8.00     3800.00
00556             -12.00     3800.00
00557             -18.00     3800.00
00558             -16.00     3600.00
00559             -12.00     3800.00
00560             -14.00     3600.00
00561             -16.00     3600.00
00562             -22.00     3600.00
00563             -14.00     3600.00
00564              -2.00     3400.00
00565             -14.00     3400.00
00566             -22.00     3400.00
00567             -14.00     3400.00
00568             -10.00     3200.00
00569             -10.00     3400.00
00570             -16.00     3200.00
00571             -16.00     3200.00
00572             -10.00     3200.00
00573             -14.00     3000.00
00574             -16.00     3200.00
00575             -16.00     2800.00
00576             -16.00     3200.00
00577             -16.00     2800.00
00578              -6.00     2800.00
00579              -6.00     2800.00
00580             -16.00     2800.00
00581             -24.00     2600.00
00582             -16.00     2600.00
00583             -10.00     2600.00
00584              -2.00     2600.00
00585              -8.00     2400.00
00586              -8.00     2400.00
00587             -10.00     2400.00
00588             -16.00     2200.00
00589             -14.00     2000.00
00590              -6.00     2200.00
00591              -6.00     2000.00
00592              -2.00     2000.00
00593              -8.00     2000.00
00594             -14.00     1800.00
00595             -16.00     1800.00
00596             -10.00     1800.00
00597              -2.00     1800.00
00598              -2.00     1600.00
00599              -8.00     1600.00
00600             -14.00     1600.00
00601             -10.00     1400.00
00602              -8.00     1200.00
00603              -8.00     1400.00
00604              -2.00     1200.00
00605              -4.00     1200.00
00606              -8.00     1200.00
00607              -8.00     1000.00
00608              -2.00     1000.00
00609              -2.00     1000.00
00610              -8.00     1000.00
00611              -6.00      800.00
00612              -4.00      800.00
00613              -4.00      800.00
00614              -4.00      800.00
00615              -6.00      400.00
00616              -2.00      400.00
00617              -4.00      400.00
00618              -8.00      200.00
00619              -6.00      400.00
00620               2.00      200.00
00621               2.00      200.00
00622              -2.00        0.00
00623               2.00        0.00
00624               0.00        0.00
00625              -8.00        0.00
00626             -10.00     -200.00
00627              -6.00     -400.00
00628               6.00     -400.00
00629              40.00     -400.00
00630             152.00     -600.00
00631              72.00     -600.00
00632            -254.00     -800.00
00633            -254.00     -400.00
00634             246.00     -600.00
00635             246.00     -800.00
00636            -222.00    -1200.00
00637            -254.00     -800.00
00638             158.00    -1000.00
00639             246.00    -1200.00
00640            -188.00    -1000.00
00641            -254.00    -1200.00
00642             130.00    -1400.00
00643             246.00    -1200.00
00644              -8.00    -1400.00
00645             -56.00    -1600.00
00646            -170.00    -1400.00
00647             -90.00    -1400.00
00648             246.00    -1600.00
00649             126.00    -1600.00
00650            -254.00    -1600.00
00651             -98.00    -2000.00
00652             184.00    -2000.00
00653              64.00    -2000.00
00654             -22.00    -2000.00
00655            -114.00    -2200.00
00656             -48.00    -2000.00
00657             162.00    -2200.00
00658              54.00    -2400.00
00659            -170.00    -2200.00
00660              -8.00    -2400.00
00661             126.00    -2400.00
00662              -6.00    -2400.00
00663             -32.00    -2400.00
00664             -22.00    -2800.00
00665               2.00    -2400.00
00666              46.00    -2800.00
00667              18.00    -2800.00
00668             -50.00    -2800.00
00669              -2.00    -2800.00
00670              38.00    -2800.00
00671              16.00    -3000.00
00672              -8.00    -3000.00
00673             -16.00    -3000.00
00674               6.00    -3000.00
00675              30.00    -3000.00
00676               6.00    -3200.00
00677             -26.00    -3000.00
00678              14.00    -3200.00
00679              30.00    -3200.00
00680              -8.00    -3200.00
00681             -16.00    -3200.00
00682              18.00    -3200.00
00683              16.00    -3200.00
00684               8.00    -3200.00
00685               0.00    -3600.00
00686              -6.00    -3600.00
00687               0.00    -3600.00
00688              12.00    -3600.00
00689              12.00    -3600.00
00690               2.00    -3600.00
00691               0.00    -3600.00
00692               6.00    -3800.00
00693              12.00    -3600.00
00694               0.00    -3800.00
00695               0.00    -3600.00
00696              16.00    -3800.00
00697              12.00    -3800.00
00698               0.00    -3800.00
00699               0.00    -3800.00
00700               6.00    -3800.00
00701               6.00    -3800.00
00702               6.00    -3800.00
00703               8.00    -3800.00
00704               8.00    -4000.00
00705               6.00    -4000.00
00706               0.00    -3800.00
00707               6.00    -3800.00
00708               6.00    -4000.00
00709               6.00    -3800.00
00710              10.00    -4000.00
00711              14.00    -3800.00
00712               2.00    -3800.00
00713               0.00    -4000.00
00714               8.00    -3800.00
00715              14.00    -4000.00
00716              10.00    -4000.00
00717               8.00    -4000.00
00718              10.00    -3800.00
00719               6.00    -3800.00
00720               6.00    -4000.00
00721               8.00    -3800.00
00722              10.00    -3800.00
00723              10.00    -4000.00
00724               8.00    -3800.00
00725               8.00    -4000.00
00726               6.00    -3800.00
00727               6.00    -3800.00
00728              10.00    -3800.00
00729              14.00    -3600.00
00730              12.00    -3800.00
00731               8.00    -3800.00
00732               6.00    -3800.00
00733               6.00    -3800.00
00734               8.00    -3800.00
00735              14.00    -3600.00
00736              14.00    -3600.00
00737              10.00    -3800.00
00738               8.00    -3800.00
00739               6.00    -3600.00
00740               6.00    -3600.00
00741               8.00    -3600.00
00742              10.00    -3600.00
00743              14.00    -3400.00
00744               8.00    -3400.00
00745               6.00    -3600.00
00746               8.00    -3400.00
00747               6.00    -3200.00
00748               8.00    -3400.00
00749              10.00    -3600.00
00750               8.00    -3200.00
00751               8.00    -3200.00
00752               6.00    -3400.00
00753               6.00    -3200.00
00754               6.00    -3200.00
00755               8.00    -3000.00
00756               8.00    -3200.00
00757               6.00    -3000.00
00758               4.00    -3000.00
00759               2.00    -3000.00
00760               2.00    -2800.00
00761               6.00    -2800.00
00762               6.00    -2800.00
00763               8.00    -2800.00
00764               6.00    -2800.00
00765               2.00    -2800.00
00766               0.00    -2600.00
00767               6.00    -2600.00
00768               2.00    -2600.00
00769               2.00    -2400.00
00770               6.00    -2600.00
00771              10.00    -2400.00
00772               2.00    -2200.00
00773              -4.00    -2200.00
00774               0.00    -2200.00
00775               8.00    -2000.00
00776               0.00    -2000.00
00777               6.00    -2200.00
00778               8.00    -2000.00
00779               2.00    -1800.00
00780              -2.00    -2000.00
00781              -2.00    -1800.00
00782              -2.00    -1600.00
00783               6.00    -1600.00
00784              10.00    -1600.00
00785              14.00    -1400.00
00786              -6.00    -1600.00
00787             -22.00    -1400.00
00788              -2.00    -1400.00
00789              26.00    -1400.00
00790              24.00    -1000.00
00791             -10.00    -1000.00
00792             -16.00    -1000.00
00793              -6.00    -1000.00
00794               6.00    -1000.00
00795               8.00     -800.00
00796               4.00     -800.00
00797              -2.00     -800.00
00798               0.00     -600.00
00799              -2.00     -800.00
00800               0.00     -600.00
00801               2.00     -400.00
00802               2.00     -400.00
00803               2.00     -400.00
00804              -2.00     -400.00
00805             -10.00     -200.00
00806              -2.00     -200.00
00807               8.00        0.00
00808               4.00     -200.00
00809              -6.00        0.00
00810             -12.00      200.00
00811               0.00        0.00
00812               8.00      400.00
00813               2.00      200.00
00814              -2.00      400.00
00815               8.00      400.00
00816               6.00      600.00
00817              -2.00      400.00
00818             -14.00      600.00
00819             -14.00      600.00
00820              22.00      800.00
00821             170.00      800.00
00822             128.00     1000.00
00823            -254.00      800.00
00824            -254.00      800.00
00825             246.00     1200.00
00826             246.00     1400.00
00827            -254.00     1200.00
00828            -254.00     1000.00
00829             224.00     1600.00
00830             246.00     1600.00
00831            -254.00     1200.00
00832            -254.00     1600.00
00833             246.00     1800.00
00834             246.00     1400.00
00835            -254.00     1600.00
00836              -8.00     2000.00
00837              30.00     1800.00
00838            -136.00     1800.00
00839             158.00     2000.00
00840             112.00     2000.00
00841            -254.00     1800.00
00842              30.00     2200.00
00843             104.00     2400.00
00844             -94.00     2000.00
00845              70.00     2600.00
00846             -34.00     2400.00
00847            -170.00     2400.00
00848             200.00     2600.00
00849              62.00     2800.00
00850            -254.00     2600.00
00851              80.00     2800.00
00852             130.00     2800.00
00853            -130.00     2800.00
00854              32.00     3000.00
00855               6.00     2800.00
00856             -86.00     3000.00
00857              76.00     3200.00
00858             -14.00     3000.00
00859             -66.00     3200.00
00860              52.00     3200.00
00861             -42.00     3200.00
00862             -18.00     3400.00
00863              62.00     3400.00
00864             -66.00     3200.00
00865             -24.00     3600.00
00866              48.00     3400.00
00867             -42.00     3600.00
00868             -22.00     3600.00
00869              22.00     3600.00
00870             -22.00     3600.00
00871             -16.00     3600.00
00872             -16.00     3800.00
00873              -8.00     3600.00
00874              14.00     3800.00
00875             -18.00     4000.00
00876             -24.00     4000.00
00877               6.00     4000.00
00878             -18.00     4000.00
00879             -24.00     4000.00
00880               8.00     4000.00
00881              -8.00     4000.00
00882             -30.00     3800.00
00883              -2.00     4200.00
00884              -6.00     4200.00
00885             -24.00     4000.00
00886             -10.00     4200.00
00887              -8.00     4000.00
00888              -6.00     4200.00
00889             -10.00     4200.00
00890             -26.00     4200.00
00891             -10.00     4200.00
00892              -8.00     4200.00
00893             -26.00     4200.00
00894              -4.00     4200.00
00895               0.00     4400.00
00896             -22.00     4200.00
00897             -16.00     4400.00
00898             -14.00     4400.00
00899             -16.00     4400.00
00900             -10.00     4400.00
00901             -10.00     4200.00
00902             -14.00     4400.00
00903             -16.00     4400.00
00904             -24.00     4400.00
00905             -16.00     4400.00
00906              -8.00     4400.00
00907             -14.00     4200.00
00908             -14.00     4400.00
00909             -10.00     4400.00
00910             -16.00     4400.00
00911             -18.00     4200.00
00912             -10.00     4400.00
00913             -16.00     4200.00
00914             -10.00     4200.00
00915              -6.00     4400.00
00916             -16.00     4400.00
00917             -24.00     4200.00
00918             -22.00     4200.00
00919             -14.00     4200.00
00920             -10.00     4200.00
00921             -14.00     4200.00
00922             -12.00     4200.00
00923             -14.00     4400.00
00924             -20.00     4200.00
00925             -22.00     4200.00
00926             -10.00     4200.00
00927             -10.00     4000.00
00928             -16.00     4000.00
00929             -14.00     4200.00
00930             -14.00     4200.00
00931             -18.00     4000.00
00932             -18.00     4000.00
00933             -14.00     4000.00
00934              -8.00     4000.00
00935             -12.00     4000.00
00936             -16.00     4000.00
00937             -18.00     3800.00
00938             -14.00     4000.00
00939             -16.00     3800.00
00940             -10.00     3800.00
00941             -10.00     3800.00
00942             -16.00     3800.00
00943             -16.00     3600.00
00944             -12.00     3600.00
00945             -14.00     3600.00
00946             -16.00     3600.00
00947             -14.00     3600.00
00948             -10.00     3400.00
00949             -16.00     3200.00
00950             -16.00     3200.00
00951             -14.00     3200.00
00952             -16.00     3200.00
00953             -16.00     3200.00
00954             -14.00     3200.00
00955              -8.00     3000.00
00956             -10.00     3200.00
00957             -16.00     3000.00
00958             -16.00     2800.00
00959             -10.00     3000.00
00960             -10.00     2800.00
00961             -10.00     2800.00
00962             -14.00     2800.00
00963             -16.00     2800.00
00964             -14.00     2600.00
00965              -6.00     2600.00
00966              -6.00     2600.00
00967             -16.00     2400.00
00968             -18.00     2400.00
00969              -6.00     2600.00
00970              -6.00     2200.00
00971             -14.00     2400.00
00972             -16.00     2000.00
00973             -14.00     2200.00
00974             -10.00     2000.00
00975              -6.00     2000.00
00976              -2.00     2000.00
00977              -6.00     2000.00
00978             -14.00     1800.00
00979             -14.00     1600.00
00980              -6.00     1600.00
00981              -6.00     1600.00
00982              -8.00     1600.00
00983             -10.00     1600.00
00984              -6.00     1600.00
00985             -10.00     1600.00
00986             -10.00     1200.00
00987              -6.00     1200.00
00988               0.00     1200.00
00989              -2.00     1200.00
00990              -6.00     1000.00
00991             -10.00     1000.00
00992             -16.00     1000.00
00993              -8.00      800.00
00994               4.00      800.00
00995               6.00      800.00
00996              -8.00      800.00
00997             -16.00      800.00
00998              -8.00      400.00
00999               2.00      400.00
01000               6.00      400.00
01001              -6.00      400.00
01002             -10.00      200.00
01003              -6.00      200.00
01004               0.00      200.00
01005               6.00        0.00
01006              14.00      200.00
01007               6.00        0.00
01008             -14.00        0.00
01009             -12.00        0.00
01010              -2.00     -200.00
01011               8.00     -400.00
01012              38.00     -400.00
01013             144.00     -400.00
01014              94.00     -800.00
01015            -254.00     -800.00
01016            -254.00     -600.00
01017             246.00     -600.00
01018             246.00     -800.00
01019            -104.00    -1000.00
01020            -254.00     -800.00
01021              58.00     -800.00
01022             246.00    -1200.00
01023            -104.00    -1000.00
01024            -254.00    -1200.00
01025              78.00    -1200.00
01026             246.00    -1400.00
01027               6.00    -1200.00
01028             -50.00    -1600.00
01029            -162.00    -1600.00
01030            -110.00    -1400.00
01031             246.00    -1600.00
01032             166.00    -2000.00
01033            -254.00    -1600.00
01034            -126.00    -2000.00
01035             182.00    -2000.00
01036              80.00    -2000.00
01037             -14.00    -2000.00
01038            -112.00    -2000.00
01039             -66.00    -2000.00
01040             150.00    -2200.00
01041              80.00    -2200.00
01042            -164.00    -2200.00
01043             -24.00    -2400.00
01044             120.00    -2400.00
01045               0.00    -2400.00
01046             -34.00    -2400.00
01047             -18.00    -2600.00
01048               2.00    -2600.00
01049              42.00    -2800.00
01050              22.00    -2800.00
01051             -52.00    -2800.00
01052              -6.00    -2800.00
01053              34.00    -2800.00
01054              18.00    -2800.00
01055              -8.00    -3000.00
01056             -10.00    -3000.00
01057               2.00    -3000.00
01058              26.00    -3000.00
01059               6.00    -3200.00
01060             -26.00    -3200.00
01061              14.00    -3200.00
01062              32.00    -3200.00
01063              -8.00    -3200.00
01064             -18.00    -3200.00
01065              16.00    -3200.00
01066              18.00    -3200.00
01067               8.00    -3600.00
01068               0.00    -3400.00
01069              -8.00    -3600.00
01070               0.00    -3600.00
01071              16.00    -3600.00
01072              16.00    -3600.00
01073               6.00    -3600.00
01074              -2.00    -3600.00
01075               2.00    -3600.00
01076              14.00    -3600.00
01077               4.00    -3600.00
01078              -2.00    -3800.00
01079              14.00    -3800.00
01080              14.00    -3800.00
01081               0.00    -3800.00
01082               0.00    -3800.00
01083               6.00    -3800.00
01084               8.00    -4000.00
01085               6.00    -3800.00
01086              10.00    -4000.00
01087              10.00    -3800.00
01088               6.00    -3800.00
01089              -2.00    -4000.00
01090               2.00    -3800.00
01091               8.00    -4000.00
01092               8.00    -4000.00
01093              14.00    -4000.00
01094              10.00    -4000.00
01095               0.00    -4000.00
01096              -2.00    -4000.00
01097               6.00    -4000.00
01098              10.00    -4000.00
01099              12.00    -4000.00
01100               8.00    -4000.00
01101               6.00    -4000.00
01102               4.00    -4000.00
01103               2.00    -4000.00
01104               6.00    -4000.00
01105              14.00    -3800.00
01106              10.00    -3800.00
01107              10.00    -4000.00
01108               8.00    -4000.00
01109               2.00    -4000.00
01110               2.00    -3800.00
01111              10.00    -3800.00
01112              12.00    -3800.00
01113              10.00    -3800.00
01114               8.00    -3600.00
01115               6.00    -3800.00
01116               4.00    -3800.00
01117               8.00    -3800.00
01118              10.00    -3800.00
01119              14.00    -3800.00
01120              14.00    -3800.00
01121               6.00    -3600.00
01122               4.00    -3600.00
01123               6.00    -3600.00
01124               8.00    -3800.00
01125              10.00    -3600.00
01126              12.00    -3600.00
01127               8.00    -3600.00
01128               8.00    -3400.00
01129               6.00    -3400.00
01130               6.00    -3400.00
01131               6.00    -3200.00
01132              10.00    -3400.00
01133              10.00    -3200.00
01134               8.00    -3200.00
01135               6.00    -3200.00
01136               6.00    -3200.00
01137               8.00    -3200.00
01138               8.00    -3000.00
01139               8.00    -3000.00
01140              10.00    -3000.00
01141               6.00    -3000.00
01142               2.00    -3000.00
01143               6.00    -2800.00
01144               6.00    -2800.00
01145               6.00    -2800.00
01146               6.00    -2800.00
01147               6.00    -2800.00
01148               2.00    -2800.00
01149               2.00    -2600.00
01150               6.00    -2600.00
01151               6.00    -2600.00
01152               6.00    -2400.00
01153               6.00    -2400.00
01154               6.00    -2400.00
01155               2.00    -2200.00
01156               0.00    -2200.00
01157               0.00    -2200.00
01158               6.00    -2200.00
01159               6.00    -2000.00
01160               2.00    -2000.00
01161               0.00    -2000.00
01162               0.00    -2000.00
01163               0.00    -2000.00
01164               2.00    -1800.00
01165               2.00    -1600.00
01166               2.00    -1800.00
01167               0.00    -1600.00
01168               0.00    -1600.00
01169               0.00    -1400.00
01170               0.00    -1400.00
01171               2.00    -1400.00
01172               2.00    -1000.00
01173               2.00    -1200.00
01174              -2.00    -1000.00
01175               0.00    -1200.00
01176               0.00    -1000.00
01177              -2.00    -1000.00
01178               0.00     -800.00
01179               0.00     -800.00
01180               6.00     -800.00
01181               0.00     -600.00
01182               0.00     -600.00
01183              -2.00     -600.00
01184               0.00     -600.00
01185              -2.00     -400.00
01186               2.00     -400.00
01187               2.00     -200.00
01188               0.00     -200.00
01189              -2.00     -200.00
01190              -2.00        0.00
01191               0.00        0.00
01192              -2.00        0.00
01193              -2.00      200.00
01194               0.00      200.00
01195               4.00      200.00
01196               0.00      400.00
01197               0.00      400.00
01198               8.00      400.00
01199               2.00      600.00
01200              -8.00      600.00
01201              -6.00      800.00
01202               0.00      800.00
01203              22.00      800.00
01204             154.00     1000.00
01205             138.00     1200.00
01206            -254.00      800.00
01207            -254.00      800.00
01208             246.00     1200.00
01209             246.00     1400.00
01210            -142.00     1200.00
01211            -254.00     1000.00
01212             120.00     1600.00
01213             246.00     1600.00
01214            -254.00     1200.00
01215            -254.00     1600.00
01216             246.00     1800.00
01217             246.00     1600.00
01218            -254.00     1600.00
01219             -36.00     2000.00
01220              56.00     1800.00
01221            -142.00     1800.00
01222             134.00     2000.00
01223             142.00     2000.00
01224            -254.00     1800.00
01225              -2.00     2000.00
01226             120.00     2400.00
01227             -86.00     2200.00
01228              62.00     2400.00
01229             -10.00     2400.00
01230            -192.00     2400.00
01231             174.00     2600.00
01232              98.00     2600.00
01233            -254.00     2600.00
01234              54.00     2800.00
01235             150.00     2800.00
01236            -130.00     2600.00
01237              14.00     3200.00
01238              24.00     2800.00
01239             -88.00     2800.00
01240              70.00     3200.00
01241               0.00     3200.00
01242             -80.00     3000.00
01243              48.00     3200.00
01244             -32.00     3200.00
01245             -28.00     3200.00
01246              62.00     3400.00
01247             -64.00     3200.00
01248             -38.00     3200.00
01249              50.00     3400.00
01250             -32.00     3400.00
01251             -26.00     3400.00
01252              24.00     3600.00
01253             -24.00     3600.00
01254             -22.00     3600.00
01255             -14.00     3600.00
01256              -8.00     3800.00
01257              16.00     3600.00
01258             -18.00     3800.00
01259             -26.00     3800.00
01260               2.00     3800.00
01261             -16.00     4000.00
01262             -22.00     3800.00
01263               8.00     4000.00
01264              -4.00     4000.00
01265             -30.00     4000.00
01266              -8.00     4000.00
01267              -6.00     4000.00
01268             -18.00     4000.00
01269             -10.00     4000.00
01270              -8.00     4200.00
01271             -14.00     4000.00
01272             -12.00     4200.00
01273             -22.00     4200.00
01274              -2.00     4200.00
01275              -6.00     4200.00
01276             -32.00     4200.00
01277             -16.00     4200.00
01278               4.00     4200.00
01279             -10.00     4200.00
01280             -24.00     4400.00
01281             -30.00     4400.00
01282             -16.00     4200.00
01283               8.00     4200.00
01284              -4.00     4400.00
01285             -30.00     4400.00
01286             -26.00     4400.00
01287             -14.00     4400.00
01288              -6.00     4400.00
01289              -6.00     4400.00
01290             -22.00     4400.00
01291             -30.00     4200.00
01292             -18.00     4400.00
01293             -12.00     4400.00
01294              -6.00     4400.00
01295              -8.00     4400.00
01296             -26.00     4200.00
01297             -22.00     4400.00
01298             -10.00     4200.00
01299             -16.00     4400.00
01300             -22.00     4200.00
01301              -8.00     4200.00
01302              -2.00     4200.00
01303             -16.00     4200.00
01304             -32.00     4200.00
01305             -20.00     4000.00
01306              -2.00     4200.00
01307             -10.00     4200.00
01308             -24.00     4200.00
01309             -24.00     4200.00
01310             -12.00     4000.00
01311             -14.00     4200.00
01312              -8.00     4000.00
01313              -8.00     4000.00
01314             -22.00     4200.00
01315             -24.00     4000.00
01316             -18.00     4000.00
01317              -6.00     4000.00
01318              -6.00     4000.00
01319             -14.00     4000.00
01320             -24.00     3800.00
01321             -24.00     3800.00
01322             -18.00     3800.00
01323              -6.00     3600.00
01324              -4.00     3600.00
01325             -16.00     3600.00
01326             -22.00     3600.00
01327             -18.00     3600.00
01328             -10.00     3600.00
01329             -10.00     3400.00
01330             -10.00     3400.00
01331             -10.00     3400.00
01332             -10.00     3400.00
01333             -16.00     3400.00
01334             -18.00     3200.00
01335             -20.00     3200.00
01336             -14.00     3200.00
01337              -6.00     3400.00
01338              -2.00     3200.00
01339             -14.00     3200.00
01340             -16.00     3000.00
01341             -22.00     3200.00
01342             -12.00     2800.00
01343             -10.00     2800.00
01344              -2.00     2800.00
01345             -10.00     2800.00
01346             -14.00     2800.00
01347             -18.00     2800.00
01348             -10.00     2600.00
01349              -8.00     2600.00
01350              -6.00     2400.00
01351             -10.00     2400.00
01352             -10.00     2400.00
01353             -14.00     2400.00
01354             -14.00     2200.00
01355             -10.00     2200.00
01356              -8.00     2200.00
01357             -10.00     2000.00
01358             -10.00     2000.00
01359              -8.00     2000.00
01360              -6.00     1800.00
01361             -10.00     1800.00
01362             -10.00     1600.00
01363              -8.00     1600.00
01364              -6.00     1600.00
01365              -8.00     1600.00
01366              -6.00     1400.00
01367              -8.00     1400.00
01368             -10.00     1400.00
01369             -10.00     1200.00
01370              -6.00     1200.00
01371              -2.00     1200.00
01372              -6.00     1200.00
01373              -8.00     1000.00
01374              -4.00     1000.00
01375              -6.00     1000.00
01376              -8.00      800.00
01377              -2.00      800.00
01378              -2.00      800.00
01379              -4.00      600.00
01380             -10.00      800.00
01381              -6.00      400.00
01382              -2.00      400.00
01383              -2.00      400.00
01384              -4.00      200.00
01385              -6.00      400.00
01386               0.00      200.00
01387               0.00      200.00
01388               0.00        0.00
01389               6.00        0.00
01390               6.00        0.00
01391              -2.00        0.00
01392              -8.00     -200.00
01393              -2.00     -400.00
01394               6.00     -200.00
01395              32.00     -400.00
01396             138.00     -400.00
01397             110.00     -800.00
01398            -254.00     -800.00
01399            -254.00     -600.00
01400             246.00     -600.00
01401             246.00     -600.00
01402               8.00    -1200.00
01403            -254.00     -800.00
01404             -34.00    -1000.00
01405             246.00    -1000.00
01406             -18.00    -1200.00
01407            -254.00    -1000.00
01408              22.00    -1200.00
01409             246.00    -1400.00
01410              18.00    -1400.00
01411             -48.00    -1600.00
01412            -152.00    -1600.00
01413            -134.00    -1400.00
01414             246.00    -1600.00
01415             206.00    -1800.00
01416            -254.00    -1800.00
01417            -152.00    -2000.00
01418             168.00    -2000.00
01419              90.00    -2000.00
01420              -8.00    -2000.00
01421            -104.00    -2200.00
01422             -74.00    -2000.00
01423             136.00    -2400.00
01424              98.00    -2400.00
01425            -166.00    -2200.00
01426             -42.00    -2200.00
01427             120.00    -2600.00
01428              14.00    -2400.00
01429             -38.00    -2400.00
01430             -26.00    -2800.00
01431              -2.00    -2600.00
01432              38.00    -2600.00
01433              30.00    -2800.00
01434             -48.00    -2800.00
01435             -10.00    -2800.00
01436              36.00    -3000.00
01437              22.00    -2800.00
01438             -10.00    -3000.00
01439             -18.00    -3000.00
01440               0.00    -3000.00
01441              30.00    -3200.00
01442              12.00    -3200.00
01443             -26.00    -3000.00
01444               6.00    -3200.00
01445              30.00    -3200.00
01446              -6.00    -3200.00
01447             -16.00    -3200.00
01448              14.00    -3200.00
01449              22.00    -3600.00
01450               6.00    -3400.00
01451               0.00    -3600.00
01452              -4.00    -3600.00
01453               0.00    -3600.00
01454              12.00    -3600.00
01455              10.00    -3600.00
01456               4.00    -3600.00
01457               0.00    -3600.00
01458               6.00    -3600.00
01459              10.00    -3600.00
01460               2.00    -3800.00
01461               0.00    -3600.00
01462              14.00    -3800.00
01463              16.00    -3800.00
01464               0.00    -3800.00
01465               0.00    -3800.00
01466               8.00    -3800.00
01467               8.00    -3800.00
01468               6.00    -3600.00
01469               8.00    -3800.00
01470              12.00    -4000.00
01471               8.00    -3800.00
01472               0.00    -4000.00
01473               0.00    -3800.00
01474               6.00    -3800.00
01475               6.00    -4000.00
01476              14.00    -4000.00
01477              10.00    -4000.00
01478               2.00    -4000.00
01479               0.00    -4000.00
01480               6.00    -4000.00
01481              10.00    -4000.00
01482              10.00    -3800.00
01483               6.00    -4000.00
01484               6.00    -4000.00
01485               8.00    -4000.00
01486               2.00    -4000.00
01487               8.00    -3800.00
01488               8.00    -3800.00
01489              10.00    -4000.00
01490               8.00    -4000.00
01491               8.00    -4000.00
01492               2.00    -3800.00
01493               4.00    -4000.00
01494              10.00    -4000.00
01495              10.00    -4000.00
01496               8.00    -3800.00
01497               6.00    -4000.00
01498               6.00    -3600.00
01499               6.00    -3800.00
01500               6.00    -3800.00
01501              10.00    -3800.00
01502              10.00    -3800.00
01503              10.00    -3800.00
01504               8.00    -3600.00
01505               6.00    -3600.00
01506               2.00    -3600.00
01507               8.00    -3600.00
01508              10.00    -3600.00
01509              14.00    -3600.00
01510               8.00    -3600.00
01511               6.00    -3600.00
01512               6.00    -3600.00
01513               8.00    -3600.00
01514               8.00    -3200.00
01515              10.00    -3400.00
01516               8.00    -3200.00
01517               8.00    -3400.00
01518               8.00    -3200.00
01519               6.00    -3200.00
01520               6.00    -3200.00
01521              10.00    -3000.00
01522              10.00    -3200.00
01523               8.00    -3000.00
01524               8.00    -3200.00
01525               2.00    -3000.00
01526               8.00    -3000.00
01527               8.00    -3000.00
01528               8.00    -2800.00
01529               8.00    -2800.00
01530               8.00    -2800.00
01531               6.00    -2600.00
01532               2.00    -2600.00
01533               2.00    -2800.00
01534               6.00    -2600.00
01535               6.00    -2600.00
01536               6.00    -2400.00
01537               6.00    -2400.00
01538               2.00    -2400.00
01539               0.00    -2400.00
01540               4.00    -2400.00
01541               6.00    -2200.00
01542               6.00    -2200.00
01543               2.00    -2200.00
01544               6.00    -2000.00
01545               0.00    -2000.00
01546               2.00    -2000.00
01547               0.00    -2000.00
01548               2.00    -1800.00
01549               2.00    -1600.00
01550               2.00    -1600.00
01551               0.00    -1600.00
01552              -2.00    -1600.00
01553               0.00    -1400.00
01554               0.00    -1400.00
01555               2.00    -1400.00
01556               2.00    -1400.00
01557               2.00    -1000.00
01558               0.00    -1000.00
01559               0.00    -1000.00
01560              -2.00    -1000.00
01561               0.00     -800.00
01562               4.00     -800.00
01563               2.00     -800.00
01564              -2.00     -800.00
01565              -2.00     -600.00
01566               0.00     -600.00
01567              -2.00     -600.00
01568              -2.00     -400.00
01569               0.00     -400.00
01570               0.00     -400.00
01571              -2.00     -200.00
01572              -2.00     -200.00
01573              -2.00        0.00
01574              -2.00        0.00
01575               0.00        0.00
01576              -2.00        0.00
01577               0.00      200.00
01578               4.00      200.00
01579               2.00      400.00
01580               2.00      400.00
01581               8.00      400.00
01582               0.00      400.00
01583              -6.00      400.00
01584              -6.00      600.00
01585               0.00      800.00
01586              16.00      800.00
01587             142.00      800.00
01588             160.00     1200.00
01589            -254.00      800.00
01590            -254.00      800.00
01591             246.00     1200.00
01592             246.00     1200.00
01593               2.00     1200.00
01594            -254.00     1000.00
01595               0.00     1600.00
01596             246.00     1600.00
01597            -144.00     1200.00
01598            -254.00     1400.00
01599             246.00     1800.00
01600             246.00     1600.00
01601            -254.00     1600.00
01602             -72.00     2000.00
01603              84.00     1800.00
01604            -136.00     1800.00
01605             110.00     1800.00
01606             160.00     2000.00
01607            -252.00     2000.00
01608             -26.00     2000.00
01609             138.00     2400.00
01610             -78.00     2200.00
01611              46.00     2400.00
01612               8.00     2400.00
01613            -194.00     2400.00
01614             150.00     2800.00
01615             132.00     2600.00
01616            -254.00     2400.00
01617              22.00     2800.00
01618             168.00     2800.00
01619            -124.00     2600.00
01620              -6.00     2800.00
01621              32.00     2800.00
01622             -90.00     2800.00
01623              56.00     3200.00
01624              14.00     3000.00
01625             -88.00     3200.00
01626              42.00     3200.00
01627             -24.00     3200.00
01628             -38.00     3400.00
01629              64.00     3400.00
01630             -56.00     3400.00
01631             -50.00     3400.00
01632              50.00     3600.00
01633             -24.00     3400.00
01634             -32.00     3600.00
01635              24.00     3600.00
01636             -16.00     3600.00
01637             -28.00     3600.00
01638             -22.00     3600.00
01639              -8.00     3600.00
01640              18.00     3600.00
01641             -14.00     3800.00
01642             -30.00     3600.00
01643              -2.00     3800.00
01644             -16.00     4000.00
01645             -24.00     3800.00
01646              14.00     4000.00
01647              -2.00     4000.00
01648             -34.00     4000.00
01649             -10.00     4000.00
01650               4.00     4000.00
01651             -16.00     4000.00
01652             -10.00     4200.00
01653             -14.00     4200.00
01654             -12.00     4200.00
01655             -10.00     4200.00
01656             -18.00     4200.00
01657              -6.00     4200.00
01658              -2.00     4200.00
01659             -28.00     4000.00
01660             -10.00     4400.00
01661              -2.00     4200.00
01662             -18.00     4200.00
01663             -16.00     4400.00
01664             -10.00     4200.00
01665             -22.00     4400.00
01666             -16.00     4200.00
01667              -8.00     4200.00
01668             -10.00     4200.00
01669             -18.00     4400.00
01670             -30.00     4400.00
01671             -22.00     4400.00
01672              -2.00     4200.00
01673              -6.00     4400.00
01674             -14.00     4400.00
01675             -16.00     4400.00
01676             -26.00     4400.00
01677             -20.00     4400.00
01678             -10.00     4400.00
01679             -14.00     4400.00
01680             -10.00     4400.00
01681             -10.00     4200.00
01682             -22.00     4400.00
01683             -26.00     4400.00
01684             -16.00     4200.00
01685              -8.00     4400.00
01686             -10.00     4400.00
01687             -18.00     4400.00
01688             -22.00     4200.00
01689             -14.00     4200.00
01690             -16.00     4200.00
01691             -18.00     4200.00
01692             -12.00     4200.00
01693             -16.00     4000.00
01694             -18.00     4200.00
01695             -16.00     4000.00
01696             -10.00     4200.00
01697             -16.00     4000.00
01698             -22.00     4000.00
01699             -18.00     4000.00
01700             -10.00     4000.00
01701             -10.00     4000.00
01702             -16.00     3800.00
01703             -16.00     3800.00
01704             -18.00     4000.00
01705             -18.00     3800.00
01706             -10.00     3800.00
01707              -8.00     3600.00
01708             -10.00     3600.00
01709             -16.00     3600.00
01710             -14.00     3600.00
01711             -16.00     3600.00
01712             -14.00     3400.00
01713             -10.00     3400.00
01714             -10.00     3600.00
01715             -14.00     3400.00
01716             -18.00     3400.00
01717             -14.00     3400.00
01718              -8.00     3400.00
01719             -10.00     3200.00
01720             -10.00     3400.00
01721             -10.00     3000.00
01722             -16.00     3200.00
01723             -14.00     3000.00
01724             -10.00     3200.00
01725              -8.00     2800.00
01726             -14.00     2800.00
01727             -16.00     2800.00
01728             -10.00     2800.00
01729             -10.00     2800.00
01730             -10.00     2800.00
01731              -8.00     2600.00
01732              -8.00     2600.00
01733             -10.00     2600.00
01734             -12.00     2400.00
01735             -10.00     2400.00
01736             -14.00     2400.00
01737             -14.00     2200.00
01738             -14.00     2400.00
01739              -6.00     2000.00
01740              -6.00     2000.00
01741             -14.00     2000.00
01742             -10.00     2000.00
01743             -10.00     1800.00
01744              -8.00     2000.00
01745              -8.00     1800.00
01746              -8.00     1600.00
01747             -10.00     1600.00
01748             -10.00     1600.00
01749              -8.00     1600.00
01750              -8.00     1600.00
01751              -8.00     1200.00
01752             -10.00     1200.00
01753              -6.00     1200.00
01754              -6.00     1200.00
01755              -8.00     1200.00
01756             -10.00     1000.00
01757              -8.00     1200.00
01758              -6.00     1000.00
01759              -6.00      800.00
01760              -2.00      800.00
01761              -2.00      800.00
01762              -8.00      800.00
01763             -10.00      800.00
01764              -2.00      400.00
01765              -2.00      400.00
01766              -4.00      400.00
01767              -6.00      200.00
01768              -8.00      200.00
01769               0.00      200.00
01770               2.00      200.00
01771              -2.00        0.00
01772               6.00      200.00
01773               8.00        0.00
01774              -2.00        0.00
01775             -16.00        0.00
01776              -6.00     -200.00
01777              14.00     -400.00
01778              36.00     -400.00
01779             126.00     -400.00
01780             114.00     -600.00
01781            -254.00     -800.00
01782            -254.00     -600.00
01783             182.00     -600.00
01784             246.00     -800.00
01785             120.00    -1200.00
01786            -254.00     -800.00
01787            -134.00     -800.00
01788             246.00    -1200.00
01789              70.00    -1000.00
01790            -254.00    -1200.00
01791             -30.00    -1200.00
01792             246.00    -1400.00
01793              34.00    -1400.00
01794             -58.00    -1400.00
01795            -154.00    -1600.00
01796            -144.00    -1400.00
01797             232.00    -1600.00
01798             242.00    -1600.00
01799            -254.00    -1600.00
01800            -184.00    -2000.00
01801             154.00    -2000.00
01802             108.00    -2000.00
01803              -8.00    -2000.00
01804            -102.00    -2200.00
01805             -82.00    -1800.00
01806             126.00    -2200.00
01807             118.00    -2400.00
01808            -162.00    -2400.00
01809             -64.00    -2400.00
01810             118.00    -2600.00
01811              26.00    -2400.00
01812             -40.00    -2400.00
01813             -24.00    -2600.00
01814              -6.00    -2600.00
01815              38.00    -2800.00
01816              34.00    -2800.00
01817             -48.00    -2800.00
01818             -22.00    -2800.00
01819              32.00    -3000.00
01820              28.00    -2800.00
01821              -2.00    -3000.00
01822             -16.00    -3000.00
01823              -8.00    -3200.00
01824              22.00    -3000.00
01825              16.00    -3200.00
01826             -18.00    -3000.00
01827               6.00    -3200.00
01828              30.00    -3200.00
01829              -8.00    -3200.00
01830             -24.00    -3400.00
01831              12.00    -3200.00
01832              22.00    -3400.00
01833              10.00    -3400.00
01834               2.00    -3600.00
01835              -6.00    -3400.00
01836               0.00    -3600.00
01837              14.00    -3400.00
01838              12.00    -3600.00
01839               6.00    -3600.00
01840              -2.00    -3600.00
01841               4.00    -3600.00
01842              16.00    -3600.00
01843               6.00    -3600.00
01844              -6.00    -3800.00
01845              10.00    -3800.00
01846              16.00    -3800.00
01847               4.00    -3800.00
01848               0.00    -3800.00
01849               6.00    -3800.00
01850               6.00    -3800.00
01851               6.00    -3800.00
01852              10.00    -3800.00
01853              14.00    -3800.00
01854               8.00    -3800.00
01855               0.00    -3800.00
01856               2.00    -4000.00
01857              10.00    -3800.00
01858               8.00    -4000.00
01859              10.00    -3800.00
01860              10.00    -4000.00
01861               2.00    -4000.00
01862               0.00    -3800.00
01863               8.00    -4000.00
01864              14.00    -3800.00
01865               8.00    -4200.00
01866               6.00    -3800.00
01867               6.00    -4000.00
01868               6.00    -4000.00
01869               2.00    -4000.00
01870               6.00    -4000.00
01871              14.00    -4000.00
01872              10.00    -3800.00
01873               8.00    -3800.00
01874               6.00    -4000.00
01875               2.00    -4000.00
01876               2.00    -3800.00
01877               8.00    -3800.00
01878              14.00    -3800.00
01879              10.00    -4000.00
01880               8.00    -3800.00
01881               2.00    -3800.00
01882               2.00    -3800.00
01883               6.00    -3800.00
01884               8.00    -3800.00
01885              14.00    -3800.00
01886              14.00    -3600.00
01887               6.00    -3600.00
01888               2.00    -3600.00
01889               2.00    -3800.00
01890               8.00    -3600.00
01891              12.00    -3600.00
01892              16.00    -3600.00
01893               8.00    -3600.00
01894               6.00    -3600.00
01895               6.00    -3600.00
01896               8.00    -3400.00
01897               6.00    -3400.00
01898               6.00    -3400.00
01899              10.00    -3200.00
01900              14.00    -3400.00
01901               8.00    -3200.00
01902               0.00    -3200.00
01903               2.00    -3200.00
01904               8.00    -3200.00
01905              12.00    -3000.00
01906              14.00    -3000.00
01907               8.00    -3000.00
01908               6.00    -3000.00
01909               0.00    -2800.00
01910               6.00    -2800.00
01911               6.00    -2800.00
01912              14.00    -2800.00
01913              12.00    -2800.00
01914               6.00    -2800.00
01915               2.00    -2800.00
01916               2.00    -2600.00
01917               6.00    -2400.00
01918               8.00    -2400.00
01919               8.00    -2400.00
01920               8.00    -2400.00
01921               6.00    -2400.00
01922               0.00    -2200.00
01923               4.00    -2200.00
01924               8.00    -2200.00
01925               6.00    -2200.00
01926               6.00    -2000.00
01927               0.00    -2000.00
01928               0.00    -2000.00
01929               0.00    -2000.00
01930               4.00    -2000.00
01931               6.00    -2000.00
01932               6.00    -1600.00
01933               6.00    -1600.00
01934               0.00    -1600.00
01935              -2.00    -1400.00
01936              -6.00    -1400.00
01937               0.00    -1400.00
01938               6.00    -1400.00
01939               6.00    -1400.00
01940               0.00    -1000.00
01941              -2.00    -1000.00
01942              -2.00    -1000.00
01943              -2.00    -1000.00
01944               0.00    -1000.00
01945               4.00     -800.00
01946               6.00     -800.00
01947              -2.00     -600.00
01948              -6.00     -600.00
01949              -6.00     -600.00
01950               0.00     -400.00
01951               0.00     -400.00
01952               2.00     -400.00
01953               0.00     -400.00
01954              -2.00     -200.00
01955              -2.00     -200.00
01956              -2.00        0.00
01957              -2.00        0.00
01958              -4.00        0.00
01959              -6.00      200.00
01960               0.00      200.00
01961               6.00      200.00
01962               0.00      400.00
01963               0.00      400.00
01964               6.00      400.00
01965               4.00      400.00
01966              -4.00      400.00
01967              -8.00      600.00
01968              -2.00      800.00
01969              16.00      800.00
01970             126.00      800.00
01971             170.00     1000.00
01972            -254.00     1000.00
01973            -254.00      800.00
01974             192.00     1200.00
01975             246.00     1400.00
01976             118.00     1200.00
01977            -254.00     1000.00
01978            -102.00     1600.00
01979             246.00     1600.00
01980             -32.00     1200.00
01981            -254.00     1400.00
01982             170.00     1800.00
01983             246.00     1600.00
01984            -224.00     1400.00
01985            -102.00     2000.00
01986              98.00     2000.00
01987            -144.00     1600.00
01988              80.00     2000.00
01989             192.00     2000.00
01990            -234.00     2000.00
01991             -56.00     2000.00
01992             144.00     2400.00
01993             -72.00     2000.00
01994              28.00     2200.00
01995              30.00     2400.00
01996            -206.00     2200.00
01997             118.00     2600.00
01998             168.00     2600.00
01999            -250.00     2600.00
02000             -18.00     2800.00
02001             176.00     2800.00
02002            -114.00     2600.00
02003             -20.00     3000.00
02004              48.00     2800.00
02005             -90.00     2800.00
02006              46.00     3000.00
02007              24.00     3200.00
02008             -96.00     3200.00
02009              38.00     3200.00
02010             -10.00     3200.00
02011             -46.00     3200.00
02012              62.00     3400.00
02013             -42.00     3400.00
02014             -62.00     3400.00
02015              48.00     3600.00
02016             -22.00     3400.00
02017             -40.00     3400.00
02018              22.00     3600.00
02019             -16.00     3600.00
02020             -24.00     3600.00
02021             -20.00     3800.00
02022             -12.00     3600.00
02023              14.00     3800.00
02024             -10.00     3800.00
02025             -30.00     3600.00
02026              -2.00     3800.00
02027             -14.00     3800.00
02028             -24.00     3800.00
02029               6.00     4000.00
02030               0.00     4000.00
02031             -30.00     4000.00
02032             -10.00     4000.00
02033               2.00     4200.00
02034             -16.00     4000.00
02035             -16.00     4200.00
02036             -10.00     4000.00
02037             -10.00     4200.00
02038             -10.00     4200.00
02039             -22.00     4200.00
02040             -14.00     4200.00
02041              -2.00     4200.00
02042             -22.00     4200.00
02043             -10.00     4200.00
02044               2.00     4400.00
02045             -18.00     4400.00
02046             -24.00     4400.00
02047             -14.00     4400.00
02048             -14.00     4200.00
02049             -10.00     4400.00
02050              -2.00     4400.00
02051             -10.00     4200.00
02052             -22.00     4400.00
02053             -24.00     4400.00
02054             -18.00     4400.00
02055              -2.00     4200.00
02056             -10.00     4200.00
02057             -20.00     4200.00
02058             -14.00     4400.00
02059             -14.00     4400.00
02060             -22.00     4200.00
02061             -14.00     4400.00
02062             -14.00     4400.00
02063             -16.00     4400.00
02064              -8.00     4400.00
02065             -14.00     4200.00
02066             -18.00     4200.00
02067             -16.00     4400.00
02068             -18.00     4200.00
02069             -18.00     4200.00
02070             -10.00     4200.00
02071             -10.00     4200.00
02072             -10.00     4200.00
02073             -22.00     4200.00
02074             -30.00     4200.00
02075             -16.00     4200.00
02076              -8.00     4000.00
02077             -10.00     4000.00
02078             -16.00     4000.00
02079             -14.00     4000.00
02080             -18.00     4000.00
02081             -26.00     4000.00
02082             -22.00     4000.00
02083              -4.00     4000.00
02084              -2.00     4000.00
02085             -16.00     4000.00
02086             -22.00     4000.00
02087             -18.00     3800.00
02088             -18.00     3600.00
02089             -14.00     3800.00
02090              -8.00     3600.00
02091             -10.00     3600.00
02092             -22.00     3600.00
02093             -16.00     3600.00
02094             -14.00     3600.00
02095             -10.00     3400.00
02096             -10.00     3400.00
02097             -18.00     3400.00
02098             -16.00     3400.00
02099              -8.00     3200.00
02100              -6.00     3200.00
02101             -12.00     3200.00
02102             -22.00     3200.00
02103             -16.00     3200.00
02104              -6.00     3200.00
02105              -6.00     3200.00
02106             -10.00     3200.00
02107             -16.00     2800.00
02108             -26.00     2800.00
02109             -20.00     2800.00
02110               0.00     2800.00
02111              16.00     2800.00
02112               0.00     2800.00
02113             -26.00     2600.00
02114             -38.00     2800.00
02115             -14.00     2600.00
02116               6.00     2600.00
02117               8.00     2600.00
02118              -6.00     2400.00
02119             -22.00     2400.00
02120             -24.00     2400.00
02121             -10.00     2000.00
02122              -2.00     2200.00
02123              -4.00     2000.00
02124              -8.00     1800.00
02125             -10.00     1800.00
02126             -10.00     1800.00
02127             -14.00     1800.00
02128             -10.00     1800.00
02129               0.00     1600.00
02130              -2.00     1600.00
02131             -10.00     1600.00
02132             -16.00     1600.00
02133             -12.00     1400.00
02134              -8.00     1200.00
02135              -8.00     1200.00
02136              -6.00     1200.00
02137              -6.00     1200.00
02138              -8.00     1000.00
02139             -10.00     1000.00
02140              -8.00     1000.00
02141              -4.00      800.00
02142              -8.00      800.00
02143              -8.00      800.00
02144              -6.00      800.00
02145              -2.00      600.00
02146              -8.00      600.00
02147              -6.00      400.00
02148              -6.00      400.00
02149              -6.00      400.00
02150              -8.00      200.00
02151              -8.00      400.00
02152              -2.00      200.00
02153               2.00      200.00
02154               2.00        0.00
02155               2.00        0.00
02156               6.00        0.00
02157              -6.00        0.00
02158             -10.00        0.00
02159              -6.00     -400.00
02160               6.00     -200.00
02161              26.00     -400.00
02162             120.00     -400.00
02163             130.00     -600.00
02164            -216.00     -800.00
02165            -254.00     -600.00
02166             110.00     -400.00
02167             246.00     -800.00
02168             226.00    -1000.00
02169            -254.00     -800.00
02170            -230.00     -800.00
02171             246.00    -1200.00
02172             166.00    -1000.00
02173            -254.00    -1000.00
02174             -96.00    -1200.00
02175             246.00    -1400.00
02176              54.00    -1200.00
02177             -42.00    -1400.00
02178            -126.00    -1600.00
02179            -166.00    -1400.00
02180             192.00    -1600.00
02181             246.00    -1600.00
02182            -224.00    -1600.00
02183            -200.00    -1800.00
02184             142.00    -2000.00
02185             118.00    -2000.00
02186               4.00    -2200.00
02187             -90.00    -2200.00
02188             -98.00    -2200.00
02189             102.00    -2200.00
02190             136.00    -2400.00
02191            -146.00    -2200.00
02192             -72.00    -2200.00
02193             114.00    -2400.00
02194              38.00    -2400.00
02195             -42.00    -2400.00
02196             -24.00    -2600.00
02197             -10.00    -2600.00
02198              32.00    -2600.00
02199              38.00    -2800.00
02200             -42.00    -2600.00
02201             -26.00    -2800.00
02202              30.00    -3000.00
02203              26.00    -2800.00
02204              -6.00    -3000.00
02205             -14.00    -3000.00
02206              -8.00    -3200.00
02207              22.00    -3200.00
02208              14.00    -3200.00
02209             -22.00    -3000.00
02210               0.00    -3200.00
02211              30.00    -3200.00
02212               0.00    -3200.00
02213             -24.00    -3200.00
02214              10.00    -3200.00
02215              22.00    -3200.00
02216               8.00    -3400.00
02217               2.00    -3400.00
02218              -6.00    -3600.00
02219              -2.00    -3600.00
02220              10.00    -3400.00
02221              10.00    -3600.00
02222               6.00    -3600.00
02223               0.00    -3600.00
02224               2.00    -3800.00
02225              14.00    -3800.00
02226               6.00    -3600.00
02227              -2.00    -3600.00
02228              10.00    -3800.00
02229              16.00    -3800.00
02230               6.00    -3800.00
02231               0.00    -3800.00
02232               8.00    -3800.00
02233               8.00    -3800.00
02234               8.00    -3800.00
02235               8.00    -4000.00
02236              10.00    -4000.00
02237               8.00    -3800.00
02238               4.00    -3800.00
02239               2.00    -3800.00
02240               8.00    -4000.00
02241               8.00    -3800.00
02242              10.00    -4000.00
02243              14.00    -3800.00
02244               6.00    -4000.00
02245               2.00    -4000.00
02246               8.00    -4000.00
02247              10.00    -4000.00
02248              14.00    -4000.00
02249              10.00    -3800.00
02250               8.00    -4000.00
02251               8.00    -3800.00
02252               6.00    -4000.00
02253               8.00    -4000.00
02254              12.00    -4000.00
02255              10.00    -4000.00
02256               8.00    -4000.00
02257              10.00    -3800.00
02258               6.00    -3800.00
02259               2.00    -4000.00
02260               8.00    -4000.00
02261              10.00    -3800.00
02262              12.00    -3800.00
02263               8.00    -3800.00
02264               8.00    -3800.00
02265               2.00    -3800.00
02266               8.00    -3800.00
02267              10.00    -3800.00
02268              10.00    -3800.00
02269              12.00    -3600.00
02270               6.00    -3600.00
02271               6.00    -3800.00
02272               2.00    -3600.00
02273               6.00    -3600.00
02274              10.00    -3600.00
02275              14.00    -3600.00
02276               8.00    -3600.00
02277               6.00    -3600.00
02278               6.00    -3400.00
02279               8.00    -3200.00
02280               6.00    -3600.00
02281              10.00    -3200.00
02282              10.00    -3200.00
02283               8.00    -3400.00
02284               8.00    -3200.00
02285               6.00    -3200.00
02286               6.00    -3200.00
02287               8.00    -3200.00
02288               8.00    -3000.00
02289              14.00    -3000.00
02290              10.00    -3000.00
02291               4.00    -3000.00
02292               4.00    -3000.00
02293               8.00    -3000.00
02294               6.00    -2800.00
02295               8.00    -2800.00
02296               8.00    -2800.00
02297               6.00    -2600.00
02298               6.00    -2800.00
02299               2.00    -2600.00
02300               6.00    -2800.00
02301              14.00    -2400.00
02302               8.00    -2400.00
02303               6.00    -2400.00
02304               0.00    -2400.00
02305              -2.00    -2200.00
02306               8.00    -2200.00
02307              14.00    -2200.00
02308               6.00    -2000.00
02309              -2.00    -2000.00
02310               0.00    -2000.00
02311               6.00    -2000.00
02312              14.00    -2000.00
02313               6.00    -1800.00
02314              -8.00    -1600.00
02315              -6.00    -1600.00
02316               2.00    -1600.00
02317              14.00    -1600.00
02318              10.00    -1400.00
02319              -6.00    -1400.00
02320             -10.00    -1400.00
02321               0.00    -1400.00
02322               8.00    -1200.00
02323               8.00    -1000.00
02324               0.00    -1200.00
02325              -6.00    -1200.00
02326              -6.00    -1000.00
02327               0.00     -800.00
02328               6.00     -800.00
02329               6.00     -800.00
02330               0.00     -600.00
02331              -6.00     -800.00
02332              -6.00     -600.00
02333              -2.00     -600.00
02334               0.00     -400.00
02335               2.00     -400.00
02336               0.00     -400.00
02337              -2.00     -200.00
02338              -8.00        0.00
02339              -6.00        0.00
02340               0.00        0.00
02341               0.00        0.00
02342              -6.00        0.00
02343              -2.00      200.00
02344               0.00      200.00
02345               0.00      200.00
02346               0.00      400.00
02347               8.00      400.00
02348               6.00      400.00
02349              -6.00      600.00
02350             -10.00      600.00
02351              -6.00      800.00
02352              14.00      800.00
02353             118.00     1000.00
02354             186.00     1200.00
02355            -216.00     1000.00
02356            -254.00      800.00
02357             112.00     1200.00
02358             246.00     1400.00
02359             240.00     1200.00
02360            -254.00     1000.00
02361            -212.00     1600.00
02362             246.00     1600.00
02363              86.00     1200.00
02364            -254.00     1400.00
02365              98.00     1800.00
02366             246.00     1800.00
02367            -194.00     1400.00
02368            -128.00     1800.00
02369             110.00     2000.00
02370            -144.00     1800.00
02371              56.00     2000.00
02372             210.00     2400.00
02373            -214.00     2000.00
02374             -82.00     2000.00
02375             150.00     2400.00
02376             -60.00     2200.00
02377              16.00     2400.00
02378              56.00     2400.00
02379            -200.00     2400.00
02380              88.00     2600.00
02381             182.00     2600.00
02382            -242.00     2600.00
02383             -44.00     2800.00
02384             198.00     2800.00
02385             -96.00     2600.00
02386             -48.00     3000.00
02387              50.00     3000.00
02388             -80.00     2800.00
02389              40.00     3200.00
02390              34.00     3200.00
02391             -98.00     3200.00
02392              32.00     3200.00
02393               2.00     3200.00
02394             -50.00     3200.00
02395              52.00     3400.00
02396             -34.00     3400.00
02397             -64.00     3400.00
02398              50.00     3600.00
02399             -10.00     3400.00
02400             -46.00     3400.00
02401              16.00     3600.00
02402              -8.00     3600.00
02403             -18.00     3600.00
02404             -16.00     3600.00
02405             -18.00     3600.00
02406               8.00     3600.00
02407             -10.00     3800.00
02408             -26.00     3600.00
02409              -2.00     3800.00
02410             -14.00     3800.00
02411             -26.00     3800.00
02412               6.00     4000.00
02413               0.00     4000.00
02414             -28.00     4000.00
02415              -8.00     4000.00
02416               2.00     4200.00
02417             -22.00     4000.00
02418             -22.00     4000.00
02419             -10.00     4000.00
02420              -6.00     4200.00
02421              -2.00     4200.00
02422             -22.00     4200.00
02423             -16.00     4200.00
02424              -8.00     4200.00
02425             -22.00     4200.00
02426              -6.00     4200.00
02427               6.00     4400.00
02428             -18.00     4200.00
02429             -26.00     4400.00
02430             -16.00     4400.00
02431             -10.00     4400.00
02432              -8.00     4200.00
02433              -4.00     4400.00
02434              -8.00     4200.00
02435             -16.00     4800.00
02436             -22.00     4400.00
02437             -16.00     4400.00
02438              -8.00     4200.00
02439             -10.00     4400.00
02440             -14.00     4400.00
02441             -10.00     4400.00
02442             -14.00     4400.00
02443             -22.00     4400.00
02444             -16.00     4400.00
02445             -10.00     4200.00
02446             -10.00     4400.00
02447              -8.00     4200.00
02448             -14.00     4400.00
02449             -24.00     4200.00
02450             -22.00     4200.00
02451             -14.00     4200.00
02452             -10.00     4200.00
02453             -16.00     4200.00
02454             -18.00     4200.00
02455             -14.00     4400.00
02456             -18.00     4200.00
02457             -24.00     4200.00
02458             -14.00     4200.00
02459             -10.00     4200.00
02460             -14.00     4000.00
02461             -16.00     4200.00
02462             -14.00     4000.00
02463             -16.00     4000.00
02464             -22.00     4000.00
02465             -16.00     4000.00
02466             -10.00     4000.00
02467             -12.00     3800.00
02468             -18.00     4000.00
02469             -16.00     4000.00
02470             -14.00     4000.00
02471             -16.00     3800.00
02472             -16.00     3600.00
02473             -10.00     3800.00
02474             -14.00     3600.00
02475             -16.00     3600.00
02476             -14.00     3600.00
02477             -14.00     3600.00
02478             -16.00     3600.00
02479             -16.00     3400.00
02480             -10.00     3400.00
02481             -10.00     3400.00
02482             -16.00     3400.00
02483             -16.00     3200.00
02484             -14.00     3400.00
02485             -14.00     3200.00
02486             -10.00     3200.00
02487              -8.00     3200.00
02488             -12.00     3000.00
02489             -14.00     3200.00
02490             -12.00     3000.00
02491              -8.00     3000.00
02492             -14.00     2800.00
02493             -12.00     2800.00
02494             -10.00     2800.00
02495              -8.00     2800.00
02496             -14.00     2800.00
02497             -16.00     2800.00
02498             -10.00     2600.00
02499             -10.00     2600.00
02500              -6.00     2400.00
02501              -8.00     2400.00
02502             -10.00     2400.00
02503             -16.00     2400.00
02504             -14.00     2400.00
02505              -6.00     2000.00
02506              -2.00     2000.00
02507              -2.00     2000.00
02508              -8.00     2000.00
02509             -10.00     1800.00
02510             -14.00     1800.00
02511             -12.00     1800.00
02512              -6.00     1800.00
02513              -2.00     1800.00
02514              -6.00     1600.00
02515             -10.00     1400.00
02516             -10.00     1400.00
02517             -10.00     1200.00
02518              -8.00     1200.00
02519              -2.00     1200.00
02520              -2.00     1200.00
02521              -6.00     1000.00
02522             -10.00     1000.00
02523             -10.00     1000.00
02524              -6.00     1000.00
02525              -6.00     1000.00
02526              -6.00      800.00
02527              -2.00      800.00
02528              -8.00      800.00
02529             -10.00      800.00
02530              -8.00      600.00
02531              -4.00      400.00
02532              -6.00      400.00
02533              -6.00      400.00
02534             -10.00      200.00
02535              -2.00      200.00
02536               2.00      200.00
02537               0.00      200.00
02538               4.00        0.00
02539               6.00        0.00
02540              -2.00        0.00
02541             -10.00        0.00
02542              -2.00     -400.00
02543               2.00     -200.00
02544              22.00     -400.00
02545             110.00     -400.00
02546             146.00     -600.00
02547            -176.00     -800.00
02548            -254.00     -800.00
02549              34.00     -400.00
02550             246.00     -600.00
02551             246.00    -1000.00
02552            -254.00     -800.00
02553            -254.00     -800.00
02554             246.00    -1200.00
02555             246.00    -1000.00
02556            -254.00    -1200.00
02557            -152.00    -1200.00
02558             246.00    -1400.00
02559              72.00    -1000.00
02560             -46.00    -1400.00
02561            -112.00    -1600.00
02562            -178.00    -1400.00
02563             160.00    -1600.00
02564             246.00    -1600.00
02565            -194.00    -1600.00
02566            -224.00    -1800.00
02567             122.00    -2000.00
02568             130.00    -1600.00
02569               8.00    -2000.00
02570             -82.00    -2200.00
02571            -104.00    -2000.00
02572              90.00    -2200.00
02573             152.00    -2400.00
02574            -134.00    -2200.00
02575             -90.00    -2200.00
02576             102.00    -2400.00
02577              50.00    -2400.00
02578             -40.00    -2400.00
02579             -24.00    -2400.00
02580             -10.00    -2800.00
02581              30.00    -2600.00
02582              40.00    -2800.00
02583             -40.00    -2800.00
02584             -26.00    -2800.00
02585              30.00    -2800.00
02586              32.00    -2800.00
02587              -6.00    -3000.00
02588             -16.00    -3000.00
02589              -8.00    -3000.00
02590              24.00    -3200.00
02591              18.00    -3200.00
02592             -22.00    -3000.00
02593              -8.00    -3200.00
02594              32.00    -3200.00
02595               6.00    -3400.00
02596             -24.00    -3200.00
02597               8.00    -3200.00
02598              22.00    -3600.00
02599              10.00    -3400.00
02600               2.00    -3400.00
02601              -6.00    -3600.00
02602              -2.00    -3600.00
02603              10.00    -3600.00
02604              14.00    -3600.00
02605               6.00    -3600.00
02606               2.00    -3600.00
02607               0.00    -3600.00
02608              12.00    -3600.00
02609               6.00    -3600.00
02610              -2.00    -3800.00
02611              10.00    -3600.00
02612              16.00    -3800.00
02613               6.00    -3800.00
02614              -2.00    -3800.00
02615               6.00    -3800.00
02616               8.00    -3800.00
02617               8.00    -3800.00
02618               8.00    -3800.00
02619               8.00    -3800.00
02620              12.00    -3800.00
02621               4.00    -3800.00
02622               6.00    -3800.00
02623              10.00    -3800.00
02624               8.00    -4000.00
02625              10.00    -4000.00
02626              16.00    -4000.00
02627               8.00    -3800.00
02628               2.00    -4000.00
02629               6.00    -4000.00
02630              10.00    -3800.00
02631              10.00    -4000.00
02632              14.00    -4000.00
02633              10.00    -4000.00
02634               8.00    -3800.00
02635               8.00    -4000.00
02636               4.00    -3800.00
02637              14.00    -3800.00
02638              14.00    -3800.00
02639              10.00    -3800.00
02640              10.00    -3800.00
02641               6.00    -3800.00
02642               6.00    -4000.00
02643              10.00    -3800.00
02644              14.00    -3800.00
02645              12.00    -3800.00
02646              10.00    -3800.00
02647               6.00    -3800.00
02648               6.00    -3800.00
02649               8.00    -3800.00
02650               8.00    -3800.00
02651              10.00    -3800.00
02652              10.00    -3600.00
02653               8.00    -3800.00
02654               8.00    -3600.00
02655               6.00    -3800.00
02656               6.00    -3600.00
02657              10.00    -3600.00
02658              10.00    -3600.00
02659               8.00    -3600.00
02660               8.00    -3600.00
02661               6.00    -3400.00
02662               6.00    -3400.00
02663               6.00    -3600.00
02664              10.00    -3400.00
02665               8.00    -3200.00
02666              10.00    -3200.00
02667               2.00    -3000.00
02668               6.00    -3200.00
02669               6.00    -3200.00
02670               8.00    -3200.00
02671               6.00    -3200.00
02672              10.00    -3000.00
02673               6.00    -3000.00
02674               6.00    -3000.00
02675               6.00    -2800.00
02676               8.00    -3000.00
02677               2.00    -2800.00
02678               6.00    -2800.00
02679              14.00    -2800.00
02680               8.00    -2800.00
02681              -2.00    -2600.00
02682               0.00    -2800.00
02683               6.00    -2600.00
02684               6.00    -2400.00
02685              14.00    -2400.00
02686              14.00    -2400.00
02687               0.00    -2400.00
02688              -2.00    -2200.00
02689               0.00    -2000.00
02690               2.00    -2200.00
02691              10.00    -2000.00
02692              16.00    -2000.00
02693              14.00    -2000.00
02694              -6.00    -2000.00
02695             -22.00    -1600.00
02696              -2.00    -1600.00
02697              28.00    -1800.00
02698              24.00    -1800.00
02699             -10.00    -1600.00
02700             -16.00    -1600.00
02701              -2.00    -1400.00
02702              16.00    -1400.00
02703              10.00    -1400.00
02704              -2.00    -1000.00
02705              -8.00    -1200.00
02706               0.00    -1000.00
02707               6.00    -1000.00
02708               2.00     -800.00
02709               0.00    -1000.00
02710              -4.00     -800.00
02711              -2.00    -1000.00
02712               0.00     -800.00
02713              -2.00     -800.00
02714               2.00     -600.00
02715              10.00     -600.00
02716               0.00     -600.00
02717              -8.00     -400.00
02718             -10.00     -400.00
02719              -2.00     -200.00
02720               6.00     -400.00
02721               0.00        0.00
02722              -8.00        0.00
02723              -2.00        0.00
02724               2.00        0.00
02725               0.00      200.00
02726              -6.00        0.00
02727             -10.00      200.00
02728              -6.00      200.00
02729               6.00      400.00
02730              20.00      400.00
02731               8.00      600.00
02732             -18.00      400.00
02733             -22.00      400.00
02734              -6.00      600.00
02735              20.00      800.00
02736             112.00     1000.00
02737             192.00     1000.00
02738            -170.00     1000.00
02739            -254.00      800.00
02740              30.00     1000.00
02741             246.00     1400.00
02742             246.00     1200.00
02743            -254.00     1000.00
02744            -254.00     1400.00
02745             246.00     1600.00
02746             196.00     1400.00
02747            -254.00     1600.00
02748              22.00     1800.00
02749             246.00     1600.00
02750            -152.00     1400.00
02751            -162.00     2000.00
02752             112.00     2000.00
02753            -138.00     1600.00
02754              26.00     2000.00
02755             230.00     2000.00
02756            -176.00     2000.00
02757            -112.00     2000.00
02758             142.00     2000.00
02759             -50.00     2200.00
02760               0.00     2400.00
02761              76.00     2600.00
02762            -192.00     2400.00
02763              54.00     2600.00
02764             208.00     2600.00
02765            -218.00     2600.00
02766             -82.00     2800.00
02767             198.00     2800.00
02768             -74.00     2600.00
02769             -56.00     2800.00
02770              64.00     3200.00
02771             -88.00     2800.00
02772              22.00     3200.00
02773              58.00     3200.00
02774             -94.00     3200.00
02775              20.00     3200.00
02776               6.00     3200.00
02777             -58.00     3200.00
02778              56.00     3400.00
02779             -18.00     3400.00
02780             -74.00     3200.00
02781              42.00     3600.00
02782              -6.00     3600.00
02783             -50.00     3400.00
02784              22.00     3600.00
02785              -6.00     3600.00
02786             -26.00     3600.00
02787             -16.00     3800.00
02788             -14.00     3600.00
02789               8.00     3600.00
02790              -4.00     3800.00
02791             -34.00     3800.00
02792              -2.00     4000.00
02793              -8.00     4000.00
02794             -26.00     3800.00
02795              -2.00     4000.00
02796               6.00     4000.00
02797             -32.00     4000.00
02798             -14.00     4200.00
02799               0.00     4000.00
02800             -22.00     4000.00
02801             -18.00     4200.00
02802              -8.00     4200.00
02803              -8.00     4200.00
02804              -4.00     4200.00
02805             -26.00     4400.00
02806             -18.00     4200.00
02807               0.00     4200.00
02808             -18.00     4200.00
02809             -14.00     4000.00
02810               0.00     4400.00
02811             -20.00     4200.00
02812             -22.00     4200.00
02813              -8.00     4400.00
02814             -14.00     4400.00
02815             -12.00     4200.00
02816              -8.00     4400.00
02817             -10.00     4400.00
02818             -14.00     4400.00
02819             -18.00     4400.00
02820             -20.00     4400.00
02821              -8.00     4400.00
02822             -10.00     4400.00
02823             -16.00     4400.00
02824             -10.00     4400.00
02825             -14.00     4400.00
02826             -22.00     4400.00
02827             -14.00     4400.00
02828             -14.00     4400.00
02829             -14.00     4400.00
02830              -6.00     4400.00
02831             -10.00     4400.00
02832             -18.00     4400.00
02833             -18.00     4400.00
02834             -16.00     4200.00
02835             -10.00     4200.00
02836             -10.00     4400.00
02837             -14.00     4200.00
02838             -12.00     4200.00
02839             -20.00     4200.00
02840             -22.00     4200.00
02841             -14.00     4200.00
02842             -10.00     4200.00
02843             -12.00     4000.00
02844             -18.00     4000.00
02845             -16.00     4200.00
02846             -16.00     4000.00
02847             -18.00     4000.00
02848             -16.00     4000.00
02849             -10.00     4000.00
02850             -12.00     4000.00
02851             -16.00     4000.00
02852             -16.00     3800.00
02853             -16.00     3600.00
02854             -20.00     3800.00
02855             -16.00     3600.00
02856             -10.00     3600.00
02857             -10.00     3800.00
02858             -10.00     3600.00
02859             -16.00     3600.00
02860             -16.00     3600.00
02861             -16.00     3600.00
02862             -10.00     3600.00
02863              -6.00     3400.00
02864             -12.00     3400.00
02865             -24.00     3400.00
02866             -16.00     3200.00
02867              -6.00     3400.00
02868             -10.00     3400.00
02869             -18.00     3200.00
02870             -16.00     3200.00
02871             -10.00     3200.00
02872              -4.00     3200.00
02873             -10.00     3000.00
02874             -16.00     3000.00
02875             -18.00     2800.00
02876             -16.00     2800.00
02877              -6.00     2800.00
02878              -6.00     2800.00
02879             -14.00     2800.00
02880             -14.00     2600.00
02881              -8.00     2600.00
02882             -10.00     2600.00
02883             -10.00     2600.00
02884             -10.00     2600.00
02885              -8.00     2400.00
02886              -6.00     2200.00
02887             -10.00     2400.00
02888             -12.00     2200.00
02889             -10.00     2000.00
02890              -2.00     2000.00
02891               0.00     2000.00
02892             -10.00     1800.00
02893             -16.00     1800.00
02894             -16.00     1800.00
02895              -4.00     1800.00
02896               0.00     1600.00
02897              -8.00     1600.00
02898              -8.00     1600.00
02899             -10.00     1600.00
02900              -6.00     1400.00
02901              -4.00     1400.00
02902               0.00     1200.00
02903              -8.00     1200.00
02904             -10.00     1200.00
02905              -8.00     1000.00
02906              -6.00     1000.00
02907              -6.00     1000.00
02908              -6.00     1000.00
02909              -6.00      800.00
02910              -2.00      800.00
02911              -6.00      800.00
02912             -10.00      600.00
02913             -10.00      600.00
02914              -2.00      400.00
02915               0.00      400.00
02916              -2.00      400.00
02917             -10.00      200.00
02918              -8.00        0.00
02919               0.00      200.00
02920               2.00      200.00
02921               2.00        0.00
02922               2.00        0.00
02923              -6.00        0.00
02924              -8.00        0.00
02925               0.00        0.00
02926               6.00     -400.00
02927              16.00     -400.00
02928              94.00     -400.00
02929             152.00     -600.00
02930            -134.00     -800.00
02931            -254.00     -600.00
02932             -40.00     -400.00
02933             246.00     -600.00
02934             246.00     -800.00
02935            -254.00     -800.00
02936            -254.00     -800.00
02937             246.00    -1200.00
02938             246.00    -1000.00
02939            -254.00    -1200.00
02940            -216.00    -1200.00
02941             246.00    -1000.00
02942              94.00    -1200.00
02943             -42.00    -1400.00
02944            -102.00    -1600.00
02945            -190.00    -1400.00
02946             128.00    -1600.00
02947             246.00    -1600.00
02948            -160.00    -1600.00
02949            -240.00    -1800.00
02950              96.00    -2000.00
02951             150.00    -1600.00
02952              16.00    -2000.00
02953             -74.00    -2200.00
02954            -110.00    -2000.00
02955              72.00    -2200.00
02956             162.00    -2400.00
02957            -118.00    -2200.00
02958            -106.00    -2400.00
02959              98.00    -2400.00
02960              70.00    -2400.00
02961             -42.00    -2400.00
02962             -24.00    -2600.00
02963             -14.00    -2400.00
02964              24.00    -2600.00
02965              46.00    -2800.00
02966             -30.00    -2800.00
02967             -26.00    -2800.00
02968              28.00    -3000.00
02969              32.00    -3000.00
02970             -10.00    -3000.00
02971             -18.00    -3000.00
02972              -6.00    -3000.00
02973              28.00    -3000.00
02974              22.00    -3200.00
02975             -20.00    -3000.00
02976             -10.00    -3200.00
02977              26.00    -3200.00
02978               8.00    -3200.00
02979             -24.00    -3200.00
02980               8.00    -3200.00
02981              24.00    -3200.00
02982              10.00    -3400.00
02983               0.00    -3400.00
02984             -10.00    -3600.00
02985              -6.00    -3600.00
02986              12.00    -3600.00
02987              16.00    -3400.00
02988               8.00    -3600.00
02989               0.00    -3600.00
02990              -2.00    -3800.00
02991              10.00    -3600.00
02992               8.00    -3800.00
02993              -2.00    -3800.00
02994               6.00    -3600.00
02995              16.00    -3800.00
02996               6.00    -3600.00
02997              -2.00    -3800.00
02998               2.00    -3800.00
02999               6.00    -3800.00
03000               8.00    -3800.00
03001              10.00    -3800.00
03002              14.00    -3800.00
03003              10.00    -4000.00
03004               0.00    -4000.00
03005               0.00    -4000.00
03006               8.00    -4000.00
03007               8.00    -3800.00
03008               8.00    -3800.00
03009              16.00    -4000.00
03010               8.00    -4000.00
03011               6.00    -3800.00
03012               8.00    -4000.00
03013              10.00    -3800.00
03014               8.00    -4000.00
03015              10.00    -3800.00
03016              12.00    -4000.00
03017              10.00    -4000.00
03018               6.00    -3800.00
03019               8.00    -4000.00
03020              10.00    -3800.00
03021              14.00    -4000.00
03022              10.00    -4000.00
03023              10.00    -4000.00
03024               8.00    -3800.00
03025               6.00    -4000.00
03026               8.00    -3800.00
03027              10.00    -3800.00
03028              10.00    -3800.00
03029              10.00    -3800.00
03030               8.00    -3800.00
03031               8.00    -3800.00
03032               8.00    -3800.00
03033              10.00    -3800.00
03034               8.00    -3800.00
03035              10.00    -3800.00
03036              10.00    -3600.00
03037               6.00    -3600.00
03038               6.00    -3600.00
03039               8.00    -3600.00
03040               8.00    -3600.00
03041              14.00    -3600.00
03042              10.00    -3600.00
03043               8.00    -3600.00
03044               6.00    -3600.00
03045               8.00    -3400.00
03046               4.00    -3600.00
03047              10.00    -3400.00
03048               8.00    -3400.00
03049               8.00    -3400.00
03050               8.00    -3200.00
03051               4.00    -3200.00
03052               6.00    -3000.00
03053               8.00    -3200.00
03054               8.00    -3200.00
03055               8.00    -3000.00
03056               8.00    -3200.00
03057               2.00    -3000.00
03058               4.00    -3000.00
03059               2.00    -2800.00
03060               6.00    -3000.00
03061               8.00    -2800.00
03062               8.00    -2800.00
03063               6.00    -2800.00
03064               0.00    -2800.00
03065               0.00    -2600.00
03066               4.00    -2400.00
03067               8.00    -2400.00
03068               8.00    -2400.00
03069               8.00    -2400.00
03070               2.00    -2400.00
03071               0.00    -2200.00
03072               2.00    -2200.00
03073               6.00    -2200.00
03074               8.00    -2000.00
03075               6.00    -2000.00
03076               2.00    -2000.00
03077               0.00    -2000.00
03078               0.00    -1800.00
03079               0.00    -1800.00
03080               4.00    -1800.00
03081               6.00    -1600.00
03082               2.00    -1600.00
03083               2.00    -1600.00
03084               0.00    -1600.00
03085               0.00    -1400.00
03086               2.00    -1400.00
03087               6.00    -1200.00
03088               6.00    -1200.00
03089               0.00    -1000.00
03090               0.00    -1000.00
03091               0.00    -1000.00
03092               0.00     -800.00
03093               0.00     -800.00
03094               2.00     -800.00
03095               2.00     -800.00
03096               0.00     -800.00
03097               0.00     -600.00
03098               0.00     -400.00
03099               0.00     -600.00
03100              -2.00     -400.00
03101               0.00     -400.00
03102               0.00     -400.00
03103               0.00     -200.00
03104              -4.00     -200.00
03105              -6.00        0.00
03106              -2.00        0.00
03107               0.00        0.00
03108              -4.00        0.00
03109              -2.00      200.00
03110               0.00      200.00
03111               0.00      200.00
03112               0.00      400.00
03113               8.00      400.00
03114               6.00      400.00
03115              -4.00      400.00
03116             -10.00      600.00
03117              -6.00      600.00
03118               8.00      800.00
03119              90.00      800.00
03120             198.00     1000.00
03121            -118.00     1000.00
03122            -254.00      800.00
03123             -52.00     1000.00
03124             246.00     1200.00
03125             246.00     1400.00
03126            -254.00     1000.00
03127            -254.00     1400.00
03128             246.00     1600.00
03129             246.00     1400.00
03130            -254.00     1400.00
03131             -66.00     1600.00
03132             246.00     1800.00
03133            -114.00     1400.00
03134            -192.00     1800.00
03135             118.00     2000.00
03136            -126.00     1800.00
03137               2.00     1800.00
03138             234.00     2000.00
03139            -154.00     1800.00
03140            -144.00     2000.00
03141             144.00     2400.00
03142             -26.00     2200.00
03143             -16.00     2400.00
03144              84.00     2600.00
03145            -184.00     2400.00
03146              18.00     2600.00
03147             230.00     2800.00
03148            -192.00     2600.00
03149            -118.00     2800.00
03150             200.00     2800.00
03151             -50.00     2800.00
03152             -72.00     2800.00
03153              70.00     3000.00
03154             -76.00     2800.00
03155               6.00     3200.00
03156              66.00     3200.00
03157             -90.00     3000.00
03158               8.00     3200.00
03159              20.00     3200.00
03160             -58.00     3200.00
03161              50.00     3400.00
03162              -6.00     3400.00
03163             -80.00     3200.00
03164              40.00     3400.00
03165               6.00     3400.00
03166             -50.00     3400.00
03167              16.00     3600.00
03168               0.00     3600.00
03169             -26.00     3600.00
03170             -20.00     3600.00
03171             -22.00     3600.00
03172              14.00     3600.00
03173               6.00     4000.00
03174             -30.00     3600.00
03175             -14.00     3600.00
03176             -16.00     4000.00
03177             -28.00     4000.00
03178              10.00     4000.00
03179              12.00     4000.00
03180             -40.00     4000.00
03181             -32.00     4000.00
03182              12.00     4200.00
03183               2.00     4000.00
03184             -22.00     4000.00
03185             -32.00     4200.00
03186             -14.00     4000.00
03187               6.00     4200.00
03188              -8.00     4400.00
03189             -18.00     4200.00
03190             -14.00     4200.00
03191             -34.00     4400.00
03192             -22.00     4200.00
03193              16.00     4400.00
03194              -2.00     4400.00
03195             -24.00     4400.00
03196             -18.00     4400.00
03197             -18.00     4400.00
03198             -14.00     4400.00
03199             -14.00     4400.00
03200             -10.00     4400.00
03201              -2.00     4400.00
03202             -14.00     4400.00
03203             -32.00     4200.00
03204             -24.00     4400.00
03205             -10.00     4400.00
03206              -2.00     4400.00
03207               0.00     4400.00
03208             -18.00     4400.00
03209             -32.00     4400.00
03210             -18.00     4400.00
03211              -8.00     4400.00
03212              -8.00     4400.00
03213              -2.00     4400.00
03214             -16.00     4400.00
03215             -30.00     4400.00
03216             -22.00     4400.00
03217              -8.00     4200.00
03218              -2.00     4200.00
03219             -16.00     4400.00
03220             -24.00     4200.00
03221             -16.00     4200.00
03222             -14.00     4400.00
03223             -16.00     4200.00
03224             -10.00     4200.00
03225             -10.00     4200.00
03226             -20.00     4000.00
03227             -16.00     4200.00
03228              -8.00     4000.00
03229             -12.00     4000.00
03230             -18.00     4000.00
03231             -22.00     4000.00
03232             -14.00     4000.00
03233             -12.00     3800.00
03234             -16.00     3600.00
03235             -14.00     4000.00
03236             -14.00     3800.00
03237             -18.00     3800.00
03238             -18.00     3800.00
03239              -8.00     3800.00
03240             -12.00     3600.00
03241             -16.00     3600.00
03242             -16.00     3600.00
03243             -16.00     3600.00
03244             -18.00     3600.00
03245             -16.00     3400.00
03246             -10.00     3600.00
03247             -10.00     3400.00
03248             -16.00     3400.00
03249             -22.00     3400.00
03250             -16.00     3200.00
03251             -14.00     3200.00
03252             -10.00     3200.00
03253              -8.00     3200.00
03254             -16.00     3200.00
03255             -22.00     3000.00
03256             -16.00     3200.00
03257             -10.00     3000.00
03258              -8.00     2800.00
03259             -10.00     2800.00
03260             -10.00     2800.00
03261             -10.00     2800.00
03262             -16.00     2600.00
03263             -12.00     2600.00
03264              -8.00     2600.00
03265             -10.00     2400.00
03266             -14.00     2600.00
03267             -14.00     2400.00
03268             -12.00     2400.00
03269             -10.00     2200.00
03270              -8.00     2400.00
03271              -6.00     2200.00
03272              -8.00     2000.00
03273             -12.00     2000.00
03274             -10.00     2000.00
03275              -8.00     2000.00
03276             -10.00     2000.00
03277             -10.00     1800.00
03278              -6.00     1600.00
03279              -6.00     1600.00
03280              -6.00     1600.00
03281              -8.00     1600.00
03282              -8.00     1600.00
03283              -8.00     1600.00
03284             -10.00     1600.00
03285             -10.00     1200.00
03286              -2.00     1200.00
03287              -6.00     1200.00
03288              -6.00     1000.00
03289              -6.00     1000.00
03290              -6.00     1000.00
03291              -8.00     1000.00
03292              -2.00     1000.00
03293               0.00     1000.00
03294              -2.00      800.00
03295              -8.00      600.00
03296             -10.00      600.00
03297              -6.00      400.00
03298              -2.00      400.00
03299              -4.00      400.00
03300              -8.00      400.00
03301              -2.00      200.00
03302               0.00      200.00
03303              -2.00        0.00
03304               2.00        0.00
03305               8.00        0.00
03306              -2.00     -200.00
03307             -10.00     -200.00
03308              -6.00        0.00
03309              -2.00     -400.00
03310              16.00     -400.00
03311              88.00     -400.00
03312             160.00     -600.00
03313             -98.00     -800.00
03314            -254.00     -800.00
03315            -114.00     -400.00
03316             246.00     -600.00
03317             246.00     -800.00
03318            -254.00     -800.00
03319            -254.00     -800.00
03320             246.00    -1200.00
03321             246.00    -1000.00
03322            -254.00    -1200.00
03323            -254.00    -1000.00
03324             246.00    -1400.00
03325             118.00    -1200.00
03326             -40.00    -1400.00
03327             -90.00    -1600.00
03328            -192.00    -1400.00
03329              96.00    -1400.00
03330             246.00    -1800.00
03331            -128.00    -1600.00
03332            -254.00    -2000.00
03333              72.00    -2000.00
03334             160.00    -2000.00
03335              22.00    -2000.00
03336             -66.00    -2400.00
03337            -114.00    -2000.00
03338              54.00    -2000.00
03339             176.00    -2400.00
03340             -96.00    -2200.00
03341            -120.00    -2200.00
03342              84.00    -2400.00
03343              80.00    -2600.00
03344             -42.00    -2400.00
03345             -24.00    -2600.00
03346             -12.00    -2600.00
03347              22.00    -2800.00
03348              48.00    -2800.00
03349             -26.00    -2400.00
03350             -34.00    -2800.00
03351              24.00    -2800.00
03352              34.00    -2800.00
03353              -2.00    -3000.00
03354             -14.00    -3000.00
03355             -12.00    -3000.00
03356              24.00    -3000.00
03357              24.00    -3200.00
03358             -16.00    -3200.00
03359             -14.00    -3200.00
03360              30.00    -3200.00
03361              14.00    -3200.00
03362             -24.00    -3400.00
03363               2.00    -3200.00
03364              18.00    -3200.00
03365               8.00    -3600.00
03366               2.00    -3400.00
03367              -2.00    -3600.00
03368              -6.00    -3600.00
03369              10.00    -3400.00
03370              14.00    -3600.00
03371              10.00    -3600.00
03372               2.00    -3600.00
03373               0.00    -3600.00
03374              10.00    -3600.00
03375               6.00    -3600.00
03376              -2.00    -3600.00
03377               6.00    -3800.00
03378              18.00    -3800.00
03379               6.00    -3800.00
03380              -2.00    -3600.00
03381               6.00    -3800.00
03382               6.00    -4000.00
03383               6.00    -3800.00
03384               6.00    -3800.00
03385               8.00    -4000.00
03386              10.00    -3800.00
03387               2.00    -3800.00
03388               2.00    -4000.00
03389               8.00    -4000.00
03390               8.00    -4000.00
03391              10.00    -4000.00
03392              14.00    -4000.00
03393               8.00    -4000.00
03394               0.00    -3800.00
03395               2.00    -4000.00
03396              10.00    -4000.00
03397              14.00    -4000.00
03398               8.00    -4000.00
03399              10.00    -4000.00
03400               8.00    -4000.00
03401               6.00    -4000.00
03402               6.00    -4000.00
03403              10.00    -3800.00
03404              10.00    -3800.00
03405               8.00    -3800.00
03406              10.00    -3800.00
03407               8.00    -4000.00
03408               6.00    -4000.00
03409               6.00    -3800.00
03410              14.00    -4000.00
03411              16.00    -3800.00
03412              10.00    -4000.00
03413               6.00    -3800.00
03414               4.00    -3800.00
03415               8.00    -3800.00
03416              10.00    -3800.00
03417              12.00    -3800.00
03418              10.00    -3600.00
03419               8.00    -3600.00
03420              10.00    -3600.00
03421               8.00    -3600.00
03422              10.00    -3600.00
03423               6.00    -3600.00
03424              10.00    -3600.00
03425              10.00    -3600.00
03426              12.00    -3600.00
03427               8.00    -3600.00
03428               6.00    -3600.00
03429               2.00    -3400.00
03430              10.00    -3400.00
03431              10.00    -3200.00
03432               8.00    -3200.00
03433               2.00    -3200.00
03434               8.00    -3200.00
03435               6.00    -3200.00
03436               8.00    -3000.00
03437              10.00    -3200.00
03438               8.00    -3000.00
03439               6.00    -3200.00
03440               4.00    -3000.00
03441               2.00    -3000.00
03442               6.00    -3000.00
03443               8.00    -2800.00
03444              10.00    -2800.00
03445               6.00    -2800.00
03446               6.00    -2800.00
03447               2.00    -2800.00
03448               2.00    -2800.00
03449               6.00    -2400.00
03450               2.00    -2400.00
03451               8.00    -2400.00
03452               8.00    -2400.00
03453               2.00    -2400.00
03454               0.00    -2200.00
03455               4.00    -2200.00
03456               8.00    -2200.00
03457               6.00    -2000.00
03458               0.00    -2000.00
03459               2.00    -2200.00
03460              10.00    -2000.00
03461               8.00    -2000.00
03462               0.00    -2000.00
03463              -2.00    -1600.00
03464               4.00    -1600.00
03465               8.00    -1600.00
03466               8.00    -1600.00
03467               0.00    -1400.00
03468              -4.00    -1400.00
03469              -2.00    -1400.00
03470               6.00    -1200.00
03471               8.00    -1000.00
03472               6.00    -1200.00
03473               0.00    -1000.00
03474              -2.00    -1000.00
03475              -2.00    -1000.00
03476               0.00     -800.00
03477               6.00     -800.00
03478               2.00     -800.00
03479               0.00     -600.00
03480              -2.00     -600.00
03481               0.00     -600.00
03482              -2.00     -400.00
03483               0.00     -400.00
03484               0.00     -400.00
03485               6.00     -400.00
03486               2.00     -400.00
03487              -4.00     -200.00
03488              -8.00        0.00
03489               0.00        0.00
03490               0.00        0.00
03491              -6.00        0.00
03492              -4.00      200.00
03493               0.00      200.00
03494               6.00      400.00
03495               2.00      200.00
03496               0.00      400.00
03497               2.00      400.00
03498               0.00      600.00
03499              -2.00      400.00
03500               0.00      800.00
03501               2.00      600.00
03502              72.00      800.00
03503             196.00     1000.00
03504             -74.00     1000.00
03505            -254.00      800.00
03506            -128.00     1200.00
03507             246.00     1200.00
03508             246.00     1600.00
03509            -254.00      800.00
03510            -254.00     1200.00
03511             246.00     1800.00
03512             246.00     1400.00
03513            -254.00     1200.00
03514            -144.00     1600.00
03515             246.00     1800.00
03516             -74.00     1200.00
03517            -220.00     1600.00
03518             114.00     2000.00
03519            -104.00     1800.00
03520             -18.00     1800.00
03521             234.00     2000.00
03522            -128.00     2000.00
03523            -172.00     2000.00
03524             142.00     2400.00
03525              -2.00     2400.00
03526             -34.00     2200.00
03527              88.00     2600.00
03528            -174.00     2200.00
03529             -16.00     2600.00
03530             242.00     2600.00
03531            -162.00     2600.00
03532            -154.00     2800.00
03533             194.00     2800.00
03534             -22.00     2600.00
03535             -82.00     2800.00
03536              64.00     3000.00
03537             -80.00     2800.00
03538             -14.00     3000.00
03539              86.00     3200.00
03540             -78.00     3000.00
03541              -2.00     3200.00
03542              24.00     3400.00
03543             -62.00     3200.00
03544              48.00     3400.00
03545              14.00     3400.00
03546             -88.00     3400.00
03547              22.00     3600.00
03548               8.00     3400.00
03549             -48.00     3600.00
03550              24.00     3800.00
03551               6.00     3600.00
03552             -34.00     3600.00
03553             -24.00     3600.00
03554             -18.00     3600.00
03555              14.00     3600.00
03556              10.00     3800.00
03557             -26.00     3800.00
03558             -10.00     3800.00
03559             -10.00     3800.00
03560             -34.00     3800.00
03561              -8.00     4000.00
03562              12.00     4000.00
03563             -18.00     4000.00
03564             -16.00     4000.00
03565               2.00     4000.00
03566             -24.00     4200.00
03567             -30.00     4000.00
03568             -10.00     4200.00
03569              -2.00     4200.00
03570               0.00     4200.00
03571             -18.00     4400.00
03572             -30.00     4200.00
03573             -10.00     4200.00
03574             -22.00     4200.00
03575             -14.00     4200.00
03576               8.00     4400.00
03577             -16.00     4200.00
03578             -26.00     4200.00
03579             -12.00     4400.00
03580             -14.00     4400.00
03581             -14.00     4200.00
03582             -14.00     4400.00
03583             -12.00     4400.00
03584             -14.00     4400.00
03585             -16.00     4400.00
03586             -22.00     4200.00
03587             -14.00     4400.00
03588             -12.00     4400.00
03589             -16.00     4400.00
03590             -10.00     4400.00
03591             -14.00     4400.00
03592             -18.00     4200.00
03593             -16.00     4400.00
03594             -10.00     4400.00
03595             -16.00     4200.00
03596             -12.00     4400.00
03597             -12.00     4200.00
03598             -16.00     4400.00
03599             -18.00     4200.00
03600             -14.00     4400.00
03601             -10.00     4400.00
03602             -18.00     4200.00
03603             -22.00     4200.00
03604             -10.00     4200.00
03605              -8.00     4200.00
03606             -18.00     4200.00
03607             -24.00     4200.00
03608             -14.00     4000.00
03609             -10.00     4000.00
03610             -14.00     4000.00
03611             -10.00     4000.00
03612             -14.00     4000.00
03613             -18.00     4200.00
03614             -22.00     4000.00
03615             -14.00     4000.00
03616              -8.00     4000.00
03617             -10.00     4000.00
03618             -14.00     4000.00
03619             -18.00     3800.00
03620             -18.00     4000.00
03621             -14.00     3600.00
03622             -10.00     3600.00
03623             -10.00     3600.00
03624             -16.00     3600.00
03625             -16.00     3600.00
03626             -18.00     3600.00
03627             -18.00     3400.00
03628             -12.00     3400.00
03629             -10.00     3400.00
03630             -10.00     3400.00
03631             -16.00     3400.00
03632             -16.00     3400.00
03633             -14.00     3200.00
03634             -14.00     3200.00
03635             -12.00     3200.00
03636             -12.00     3200.00
03637             -14.00     3200.00
03638             -14.00     2800.00
03639             -12.00     3000.00
03640             -10.00     3000.00
03641             -10.00     2800.00
03642             -16.00     2800.00
03643             -10.00     2800.00
03644             -10.00     2800.00
03645             -14.00     2800.00
03646             -16.00     2600.00
03647             -10.00     2600.00
03648             -10.00     2400.00
03649             -10.00     2400.00
03650             -10.00     2400.00
03651             -10.00     2600.00
03652             -10.00     2400.00
03653             -10.00     2200.00
03654              -8.00     2200.00
03655             -10.00     2000.00
03656             -10.00     2000.00
03657             -10.00     1800.00
03658              -6.00     2000.00
03659              -8.00     1800.00
03660             -10.00     1800.00
03661              -8.00     1600.00
03662             -10.00     1600.00
03663              -8.00     1600.00
03664              -8.00     1600.00
03665              -8.00     1600.00
03666             -10.00     1400.00
03667             -10.00     1400.00
03668              -6.00     1200.00
03669               0.00     1400.00
03670              -2.00     1200.00
03671              -8.00     1200.00
03672              -8.00     1000.00
03673              -6.00     1000.00
03674              -8.00      800.00
03675              -6.00      800.00
03676               0.00      800.00
03677              -2.00      800.00
03678              -6.00      600.00
03679              -8.00      600.00
03680              -2.00      400.00
03681               0.00      400.00
03682              -2.00      400.00
03683              -6.00      200.00
03684              -2.00      200.00
03685               2.00      200.00
03686               2.00        0.00
03687               0.00      200.00
03688               8.00        0.00
03689               0.00        0.00
03690             -10.00        0.00
03691              -8.00     -400.00
03692              -2.00     -200.00
03693              16.00     -400.00
03694              80.00     -400.00
03695             166.00     -600.00
03696             -64.00     -800.00
03697            -254.00     -800.00
03698            -192.00     -400.00
03699             246.00     -600.00
03700             246.00     -800.00
03701            -254.00    -1000.00
03702            -254.00     -800.00
03703             246.00    -1200.00
03704             246.00    -1000.00
03705            -254.00    -1000.00
03706            -254.00    -1200.00
03707             246.00    -1400.00
03708             144.00    -1200.00
03709             -38.00    -1400.00
03710             -86.00    -1600.00
03711            -200.00    -1400.00
03712              62.00    -1600.00
03713             246.00    -1800.00
03714             -82.00    -1600.00
03715            -254.00    -2000.00
03716              42.00    -2000.00
03717             168.00    -2000.00
03718              26.00    -2000.00
03719             -64.00    -2200.00
03720            -126.00    -2000.00
03721              32.00    -2000.00
03722             186.00    -2200.00
03723             -70.00    -2200.00
03724            -142.00    -2200.00
03725              64.00    -2600.00
03726              98.00    -2400.00
03727             -32.00    -2200.00
03728             -26.00    -2600.00
03729             -24.00    -2600.00
03730              20.00    -2600.00
03731              50.00    -2600.00
03732             -16.00    -2800.00
03733             -42.00    -2800.00
03734              14.00    -2800.00
03735              36.00    -3000.00
03736               8.00    -2800.00
03737              -6.00    -3000.00
03738             -10.00    -3000.00
03739              10.00    -3200.00
03740              16.00    -3200.00
03741              -6.00    -3200.00
03742              -6.00    -3000.00
03743              28.00    -3200.00
03744               8.00    -3200.00
03745             -26.00    -3200.00
03746               6.00    -3200.00
03747              24.00    -3400.00
03748               8.00    -3400.00
03749               0.00    -3200.00
03750               0.00    -3600.00
03751               0.00    -3600.00
03752               8.00    -3600.00
03753              10.00    -3600.00
03754               6.00    -3600.00
03755               2.00    -3600.00
03756               2.00    -3600.00
03757               6.00    -3600.00
03758               8.00    -3800.00
03759               0.00    -3600.00
03760               8.00    -3800.00
03761              18.00    -3800.00
03762               6.00    -3800.00
03763              -8.00    -4000.00
03764               4.00    -3800.00
03765              10.00    -4000.00
03766              12.00    -3800.00
03767               8.00    -4000.00
03768               2.00    -4000.00
03769               6.00    -3800.00
03770               8.00    -3800.00
03771               6.00    -4000.00
03772              10.00    -3800.00
03773               6.00    -3800.00
03774               6.00    -4000.00
03775              10.00    -4000.00
03776              10.00    -4000.00
03777               0.00    -3800.00
03778               2.00    -4000.00
03779              10.00    -3800.00
03780              10.00    -4000.00
03781              12.00    -4000.00
03782               8.00    -3800.00
03783               6.00    -4000.00
03784               2.00    -4000.00
03785               6.00    -3800.00
03786              14.00    -3800.00
03787              14.00    -4000.00
03788               8.00    -4000.00
03789               6.00    -3800.00
03790               6.00    -3800.00
03791               6.00    -4000.00
03792              12.00    -3800.00
03793              16.00    -3800.00
03794               8.00    -3800.00
03795               8.00    -3800.00
03796               8.00    -3800.00
03797               8.00    -3800.00
03798              10.00    -3600.00
03799              10.00    -3800.00
03800               8.00    -3800.00
03801              10.00    -3800.00
03802              10.00    -3600.00
03803              10.00    -3600.00
03804              10.00    -3600.00
03805               4.00    -3600.00
03806               6.00    -3600.00
03807              16.00    -3400.00
03808              14.00    -3600.00
03809               6.00    -3600.00
03810               0.00    -3600.00
03811               6.00    -3600.00
03812              10.00    -3200.00
03813              14.00    -3400.00
03814              10.00    -3400.00
03815              10.00    -3200.00
03816               6.00    -3200.00
03817               0.00    -3200.00
03818               2.00    -3200.00
03819              10.00    -3000.00
03820              10.00    -3200.00
03821              10.00    -3200.00
03822               8.00    -3000.00
03823               2.00    -3000.00
03824               4.00    -3000.00
03825               2.00    -2800.00
03826               6.00    -2800.00
03827               8.00    -2800.00
03828               8.00    -2800.00
03829               6.00    -2800.00
03830               2.00    -2800.00
03831               2.00    -2800.00
03832               8.00    -2600.00
03833               6.00    -2400.00
03834               2.00    -2400.00
03835               6.00    -2400.00
03836               6.00    -2400.00
03837               2.00    -2200.00
03838               2.00    -2200.00
03839               2.00    -2200.00
03840               2.00    -2200.00
03841               6.00    -2000.00
03842               2.00    -2000.00
03843               0.00    -2000.00
03844               0.00    -2000.00
03845               6.00    -2000.00
03846               6.00    -2000.00
03847               6.00    -1600.00
03848               0.00    -1600.00
03849               0.00    -1600.00
03850               0.00    -1400.00
03851               0.00    -1400.00
03852               2.00    -1400.00
03853               8.00    -1400.00
03854               6.00    -1000.00
03855              -2.00    -1200.00
03856              -2.00    -1000.00
03857               0.00    -1000.00
03858               0.00     -800.00
03859               2.00     -800.00
03860               6.00     -800.00
03861               0.00     -800.00
03862               0.00     -800.00
03863               0.00     -600.00
03864              -2.00     -600.00
03865               0.00     -400.00
03866               0.00     -400.00
03867               0.00     -400.00
03868               2.00     -400.00
03869               0.00        0.00
03870              -4.00     -200.00
03871              -6.00        0.00
03872               0.00        0.00
03873               0.00        0.00
03874               0.00        0.00
03875               2.00      200.00
03876               2.00      200.00
03877              -2.00      400.00
03878              -2.00      400.00
03879              14.00      400.00
03880               8.00      400.00
03881              -4.00      600.00
03882              -6.00      600.00
03883              -2.00      600.00
03884               2.00      600.00
03885              62.00      800.00
03886             194.00     1000.00
03887             -38.00     1000.00
03888            -254.00      800.00
03889            -200.00     1000.00
03890             246.00     1200.00
03891             246.00     1200.00
03892            -254.00      800.00
03893            -254.00     1200.00
03894             246.00     1600.00
03895             246.00     1600.00
03896            -254.00     1200.00
03897            -240.00     1800.00
03898             246.00     1800.00
03899             -16.00     1400.00
03900            -230.00     1800.00
03901             118.00     2000.00
03902             -86.00     1800.00
03903             -64.00     1800.00
03904             214.00     2200.00
03905             -82.00     2000.00
03906            -174.00     2000.00
03907             144.00     2400.00
03908               8.00     2200.00
03909             -74.00     2400.00
03910              80.00     2600.00
03911            -146.00     2400.00
03912             -36.00     2400.00
03913             246.00     2800.00
03914            -130.00     2600.00
03915            -190.00     2800.00
03916             182.00     3000.00
03917               2.00     2600.00
03918            -102.00     2800.00
03919              66.00     3000.00
03920             -58.00     2800.00
03921             -26.00     3000.00
03922              80.00     3200.00
03923             -78.00     3200.00
03924             -12.00     3200.00
03925              38.00     3200.00
03926             -58.00     3200.00
03927              30.00     3400.00
03928              16.00     3400.00
03929             -86.00     3400.00
03930              30.00     3600.00
03931              24.00     3600.00
03932             -54.00     3400.00
03933               2.00     3800.00
03934               6.00     3600.00
03935             -26.00     3600.00
03936             -14.00     3800.00
03937             -12.00     3800.00
03938               2.00     3600.00
03939               0.00     3800.00
03940             -32.00     3800.00
03941              -6.00     4000.00
03942               4.00     3800.00
03943             -24.00     4000.00
03944             -10.00     4000.00
03945               6.00     4000.00
03946             -24.00     4000.00
03947             -18.00     4200.00
03948               0.00     4000.00
03949             -14.00     4000.00
03950             -22.00     4000.00
03951              -8.00     4000.00
03952              -6.00     4200.00
03953             -10.00     4200.00
03954             -20.00     4200.00
03955             -20.00     4400.00
03956               0.00     4200.00
03957             -14.00     4200.00
03958             -26.00     4200.00
03959              -6.00     4200.00
03960             -10.00     4400.00
03961             -16.00     4400.00
03962             -10.00     4400.00
03963             -16.00     4400.00
03964             -22.00     4200.00
03965             -14.00     4400.00
03966             -10.00     4200.00
03967             -14.00     4400.00
03968             -18.00     4400.00
03969             -18.00     4400.00
03970             -10.00     4200.00
03971             -12.00     4400.00
03972             -16.00     4400.00
03973             -18.00     4200.00
03974             -14.00     4400.00
03975             -16.00     4200.00
03976             -10.00     4400.00
03977             -10.00     4400.00
03978             -24.00     4200.00
03979             -18.00     4200.00
03980              -8.00     4200.00
03981             -14.00     4400.00
03982             -18.00     4400.00
03983             -18.00     4200.00
03984             -14.00     4200.00
03985             -10.00     4200.00
03986             -14.00     4200.00
03987             -10.00     4200.00
03988             -10.00     4200.00
03989             -24.00     4200.00
03990             -22.00     4000.00
03991             -10.00     4200.00
03992             -10.00     4000.00
03993             -14.00     4000.00
03994             -16.00     4200.00
03995             -16.00     4000.00
03996             -16.00     4000.00
03997             -14.00     4000.00
03998             -10.00     4000.00
03999              -8.00     4000.00
04000             -16.00     4000.00
04001             -18.00     4000.00
04002             -16.00     4000.00
04003             -16.00     3600.00
04004             -10.00     3800.00
04005              -6.00     3800.00
04006             -10.00     3600.00
04007             -18.00     3600.00
04008             -18.00     3600.00
04009             -16.00     3600.00
04010              -8.00     3600.00
04011             -10.00     3600.00
04012             -10.00     3400.00
04013             -14.00     3600.00
04014             -18.00     3400.00
04015             -16.00     3400.00
04016             -10.00     3400.00
04017             -10.00     3200.00
04018             -10.00     3200.00
04019             -10.00     3200.00
04020             -14.00     3200.00
04021             -16.00     3000.00
04022             -12.00     3000.00
04023             -10.00     2800.00
04024              -6.00     2800.00
04025             -16.00     2800.00
04026             -16.00     2800.00
04027             -14.00     2600.00
04028             -14.00     2600.00
04029             -10.00     2600.00
04030              -6.00     2600.00
04031              -6.00     2600.00
04032             -12.00     2400.00
04033             -14.00     2600.00
04034             -10.00     2400.00
04035             -10.00     2200.00
04036              -6.00     2400.00
04037             -10.00     2200.00
04038              -8.00     2000.00
04039             -10.00     2000.00
04040             -10.00     2000.00
04041              -6.00     2000.00
04042              -6.00     1800.00
04043              -8.00     1800.00
04044              -8.00     1800.00
04045             -10.00     1600.00
04046             -10.00     1800.00
04047              -8.00     1600.00
04048              -2.00     1600.00
04049              -4.00     1400.00
04050              -8.00     1200.00
04051              -8.00     1400.00
04052              -6.00     1200.00
04053              -6.00     1200.00
04054              -8.00     1000.00
04055              -2.00     1000.00
04056              -2.00     1000.00
04057              -6.00     1000.00
04058              -8.00      800.00
04059              -6.00      800.00
04060               2.00      800.00
04061              -6.00      800.00
04062              -6.00      800.00
04063              -6.00      400.00
04064              -2.00      400.00
04065              -4.00      400.00
04066              -6.00      400.00
04067              -2.00      200.00
04068               6.00      200.00
04069               0.00      200.00
04070              -2.00      200.00
04071               6.00        0.00
04072               2.00     -200.00
04073              -6.00        0.00
04074              -6.00     -200.00
04075               0.00     -200.00
04076              14.00     -400.00
04077              70.00     -400.00
04078             166.00     -400.00
04079             -30.00     -800.00
04080            -254.00     -600.00
04081            -254.00     -600.00
04082             246.00     -600.00
04083             246.00    -1000.00
04084            -254.00    -1200.00
04085            -254.00     -800.00
04086             246.00    -1200.00
04087             246.00    -1000.00
04088            -254.00    -1000.00
04089            -254.00    -1200.00
04090             246.00    -1400.00
04091             168.00    -1400.00
04092             -34.00    -1400.00
04093             -72.00    -1600.00
04094            -198.00    -1400.00
04095              26.00    -1400.00
04096             246.00    -1600.00
04097             -44.00    -1600.00
04098            -254.00    -1600.00
04099              12.00    -2000.00
04100             176.00    -2000.00
04101              32.00    -2000.00
04102             -48.00    -2000.00
04103            -124.00    -2200.00
04104              10.00    -2000.00
04105             178.00    -2200.00
04106             -46.00    -2400.00
04107            -144.00    -2200.00
04108              58.00    -2400.00
04109             102.00    -2400.00
04110             -34.00    -2400.00
04111             -26.00    -2400.00
04112             -18.00    -2600.00
04113              14.00    -2800.00
04114              48.00    -2800.00
04115             -12.00    -2800.00
04116             -46.00    -2800.00
04117              16.00    -3000.00
04118              40.00    -2800.00
04119               2.00    -3000.00
04120             -14.00    -3000.00
04121             -14.00    -3000.00
04122              18.00    -3000.00
04123              28.00    -3200.00
04124              -8.00    -3200.00
04125             -16.00    -3200.00
04126              26.00    -3200.00
04127              18.00    -3400.00
04128             -22.00    -3200.00
04129               0.00    -3200.00
04130              22.00    -3200.00
04131              14.00    -3600.00
04132               6.00    -3400.00
04133              -2.00    -3400.00
04134              -6.00    -3600.00
04135               8.00    -3600.00
04136              16.00    -3600.00
04137              10.00    -3600.00
04138               6.00    -3600.00
04139               0.00    -3600.00
04140              10.00    -3800.00
04141              14.00    -3600.00
04142               0.00    -3600.00
04143               6.00    -3800.00
04144              16.00    -3800.00
04145               8.00    -3800.00
04146              -2.00    -3800.00
04147               2.00    -3800.00
04148               8.00    -3800.00
04149               6.00    -3800.00
04150               8.00    -3800.00
04151               8.00    -3800.00
04152               8.00    -3800.00
04153               6.00    -4000.00
04154               0.00    -4000.00
04155               8.00    -4000.00
04156               8.00    -4000.00
04157               8.00    -4000.00
04158              10.00    -4000.00
04159               8.00    -4000.00
04160               0.00    -4000.00
04161               2.00    -4000.00
04162              10.00    -4000.00
04163              10.00    -4000.00
04164               8.00    -4200.00
04165               8.00    -3800.00
04166               8.00    -4000.00
04167               6.00    -3800.00
04168               6.00    -3800.00
04169              10.00    -4000.00
04170              14.00    -3800.00
04171               8.00    -4000.00
04172              10.00    -4000.00
04173              10.00    -4000.00
04174               4.00    -3800.00
04175               6.00    -3800.00
04176              12.00    -3800.00
04177              10.00    -3800.00
04178              10.00    -3800.00
04179               8.00    -3800.00
04180               6.00    -3800.00
04181               6.00    -3800.00
04182               8.00    -3800.00
04183              14.00    -3800.00
04184              16.00    -3800.00
04185              10.00    -3600.00
04186               8.00    -3600.00
04187               8.00    -3800.00
04188               8.00    -3600.00
04189               8.00    -3600.00
04190              14.00    -3600.00
04191              10.00    -3600.00
04192               8.00    -3400.00
04193              10.00    -3200.00
04194               8.00    -3400.00
04195               6.00    -3400.00
04196               8.00    -3200.00
04197              10.00    -3200.00
04198              10.00    -3200.00
04199               8.00    -3200.00
04200               6.00    -3200.00
04201               8.00    -3200.00
04202               8.00    -3200.00
04203               8.00    -3000.00
04204              10.00    -3000.00
04205               8.00    -2800.00
04206               6.00    -3000.00
04207               6.00    -3000.00
04208               6.00    -3000.00
04209               6.00    -2800.00
04210               6.00    -3000.00
04211               8.00    -2800.00
04212               8.00    -2800.00
04213               2.00    -2800.00
04214               2.00    -2800.00
04215               4.00    -2600.00
04216               2.00    -2400.00
04217               8.00    -2400.00
04218               8.00    -2400.00
04219               2.00    -2400.00
04220               0.00    -2200.00
04221               2.00    -2400.00
04222               6.00    -2200.00
04223               8.00    -2200.00
04224               4.00    -2000.00
04225               2.00    -2000.00
04226               0.00    -2000.00
04227               0.00    -2000.00
04228               6.00    -1600.00
04229               0.00    -1600.00
04230               0.00    -1800.00
04231               2.00    -1600.00
04232               0.00    -1600.00
04233               6.00    -1600.00
04234               4.00    -1400.00
04235              -6.00    -1400.00
04236               2.00    -1200.00
04237               0.00    -1400.00
04238              -2.00    -1400.00
04239               0.00    -1200.00
04240               2.00    -1000.00
04241               6.00    -1000.00
04242               0.00     -800.00
04243             -12.00     -800.00
04244               6.00     -800.00
04245              18.00     -800.00
04246               6.00     -600.00
04247             -14.00     -600.00
04248             -18.00     -600.00
04249               0.00     -400.00
04250              22.00     -400.00
04251              10.00     -400.00
04252             -10.00     -400.00
04253             -18.00     -200.00
04254             -10.00        0.00
04255              14.00        0.00
04256              18.00        0.00
04257              -4.00      200.00
04258             -18.00        0.00
04259              -8.00      200.00
04260               8.00      200.00
04261              12.00      200.00
04262               8.00      400.00
04263               4.00      600.00
04264              -2.00      600.00
04265              -8.00      400.00
04266              -8.00      800.00
04267               6.00      800.00
04268              58.00      800.00
04269             194.00     1000.00
04270               6.00     1000.00
04271            -254.00      800.00
04272            -254.00      800.00
04273             246.00     1200.00
04274             246.00     1400.00
04275            -254.00      800.00
04276            -254.00     1200.00
04277             246.00     1600.00
04278             246.00     1600.00
04279            -254.00     1200.00
04280            -254.00     1600.00
04281             246.00     1800.00
04282              40.00     1400.00
04283            -254.00     1800.00
04284              86.00     2000.00
04285             -66.00     1800.00
04286             -70.00     1800.00
04287             230.00     2000.00
04288             -40.00     2000.00
04289            -224.00     2000.00
04290             102.00     2200.00
04291              38.00     2200.00
04292             -56.00     2400.00
04293             104.00     2400.00
04294            -132.00     2400.00
04295             -90.00     2600.00
04296             240.00     2600.00
04297             -88.00     2600.00
04298            -206.00     2600.00
04299             174.00     2800.00
04300              28.00     2800.00
04301            -120.00     2600.00
04302              64.00     3200.00
04303             -48.00     2800.00
04304             -42.00     2800.00
04305              88.00     3200.00
04306             -66.00     3200.00
04307             -26.00     3200.00
04308              40.00     3200.00
04309             -66.00     3200.00
04310              20.00     3200.00
04311              30.00     3400.00
04312             -88.00     3400.00
04313              16.00     3600.00
04314              38.00     3600.00
04315             -50.00     3400.00
04316               0.00     3600.00
04317               6.00     3600.00
04318             -26.00     3600.00
04319             -22.00     3800.00
04320             -34.00     3600.00
04321              14.00     3600.00
04322              22.00     4000.00
04323              -8.00     3800.00
04324             -16.00     4000.00
04325               0.00     4000.00
04326             -26.00     4000.00
04327             -24.00     4000.00
04328              -6.00     4000.00
04329             -18.00     4000.00
04330             -10.00     4000.00
04331              12.00     4200.00
04332             -12.00     4000.00
04333             -26.00     4200.00
04334               2.00     4200.00
04335              -8.00     4000.00
04336             -10.00     4200.00
04337             -18.00     4400.00
04338             -26.00     4200.00
04339             -10.00     4200.00
04340             -16.00     4200.00
04341             -16.00     4000.00
04342              16.00     4200.00
04343              -2.00     4400.00
04344             -32.00     4200.00
04345             -14.00     4200.00
04346             -10.00     4400.00
04347             -22.00     4400.00
04348             -18.00     4400.00
04349             -14.00     4400.00
04350             -16.00     4200.00
04351             -14.00     4400.00
04352             -16.00     4400.00
04353              -2.00     4200.00
04354               2.00     4400.00
04355             -18.00     4400.00
04356             -22.00     4400.00
04357             -20.00     4400.00
04358             -26.00     4400.00
04359             -16.00     4200.00
04360             -10.00     4400.00
04361             -16.00     4200.00
04362             -10.00     4200.00
04363              -2.00     4400.00
04364             -14.00     4400.00
04365             -22.00     4200.00
04366             -18.00     4200.00
04367             -14.00     4200.00
04368             -16.00     4200.00
04369             -22.00     4200.00
04370             -16.00     4200.00
04371              -2.00     4200.00
04372             -10.00     4200.00
04373             -18.00     4200.00
04374             -10.00     4000.00
04375             -14.00     4000.00
04376             -18.00     4000.00
04377             -18.00     4000.00
04378             -16.00     4000.00
04379             -16.00     4000.00
04380             -10.00     4000.00
04381             -10.00     4000.00
04382             -10.00     3800.00
04383             -14.00     4000.00
04384             -16.00     4000.00
04385             -16.00     3600.00
04386             -16.00     3800.00
04387             -16.00     3600.00
04388             -10.00     3800.00
04389             -10.00     3800.00
04390             -16.00     3600.00
04391             -16.00     3600.00
04392             -14.00     3600.00
04393             -14.00     3600.00
04394             -14.00     3600.00
04395             -10.00     3600.00
04396             -10.00     3400.00
04397             -14.00     3400.00
04398             -16.00     3400.00
04399             -12.00     3200.00
04400             -10.00     3200.00
04401             -10.00     3200.00
04402             -10.00     3200.00
04403             -10.00     3200.00
04404             -14.00     3000.00
04405             -12.00     3200.00
04406             -14.00     3000.00
04407             -12.00     2800.00
04408             -14.00     2800.00
04409             -10.00     2800.00
04410             -10.00     2800.00
04411             -12.00     2600.00
04412             -14.00     2600.00
04413              -8.00     2600.00
04414              -8.00     2400.00
04415              -8.00     2400.00
04416             -10.00     2400.00
04417             -12.00     2400.00
04418             -14.00     2200.00
04419             -10.00     2200.00
04420             -10.00     2000.00
04421              -8.00     2000.00
04422             -10.00     2000.00
04423             -10.00     2000.00
04424             -10.00     1800.00
04425             -10.00     1800.00
04426             -10.00     2000.00
04427              -8.00     1600.00
04428              -6.00     1600.00
04429              -8.00     1600.00
04430              -8.00     1400.00
04431             -10.00     1600.00
04432             -10.00     1600.00
04433             -10.00     1400.00
04434              -6.00     1200.00
04435              -2.00     1200.00
04436              -6.00     1200.00
04437              -8.00     1000.00
04438              -6.00     1000.00
04439              -8.00     1000.00
04440              -8.00     1000.00
04441              -8.00     1000.00
04442              -6.00      800.00
04443              -2.00      800.00
04444              -6.00      800.00
04445              -8.00      400.00
04446              -2.00      400.00
04447               0.00      400.00
04448              -6.00      200.00
04449              -6.00      400.00
04450              -6.00      200.00
04451               2.00      200.00
04452               0.00        0.00
04453               0.00      200.00
04454               8.00        0.00
04455               2.00        0.00
04456              -8.00        0.00
04457              -6.00     -200.00
04458               0.00     -200.00
04459              14.00     -400.00
04460              62.00     -400.00
04461             166.00     -400.00
04462               0.00     -800.00
04463            -254.00     -800.00
04464            -254.00     -400.00
04465             246.00     -600.00
04466             246.00     -800.00
04467            -254.00    -1000.00
04468            -254.00     -600.00
04469             246.00    -1000.00
04470             246.00    -1000.00
04471            -254.00    -1000.00
04472            -254.00    -1000.00
04473             246.00    -1200.00
04474             200.00    -1400.00
04475             -30.00    -1400.00
04476             -66.00    -1600.00
04477            -198.00    -1400.00
04478              -8.00    -1600.00
04479             246.00    -1600.00
04480               2.00    -1600.00
04481            -254.00    -2000.00
04482             -18.00    -2000.00
04483             184.00    -2000.00
04484              40.00    -2000.00
04485             -38.00    -2200.00
04486            -122.00    -2000.00
04487              -6.00    -2000.00
04488             178.00    -2400.00
04489             -22.00    -2400.00
04490            -160.00    -2200.00
04491              38.00    -2400.00
04492             110.00    -2400.00
04493             -32.00    -2400.00
04494             -26.00    -2600.00
04495             -22.00    -2800.00
04496              14.00    -2600.00
04497              48.00    -2600.00
04498              -2.00    -2800.00
04499             -50.00    -2800.00
04500              10.00    -3000.00
04501              40.00    -2800.00
04502               6.00    -2800.00
04503             -10.00    -3000.00
04504             -16.00    -3000.00
04505              16.00    -3000.00
04506              26.00    -3200.00
04507              -4.00    -3200.00
04508             -22.00    -3000.00
04509              22.00    -3200.00
04510              22.00    -3200.00
04511             -18.00    -3200.00
04512              -8.00    -3200.00
04513              22.00    -3200.00
04514              14.00    -3600.00
04515               6.00    -3400.00
04516               0.00    -3600.00
04517              -6.00    -3600.00
04518               6.00    -3600.00
04519              16.00    -3600.00
04520              12.00    -3600.00
04521               4.00    -3600.00
04522               0.00    -3600.00
04523              10.00    -3600.00
04524              10.00    -3600.00
04525               0.00    -3800.00
04526               2.00    -3600.00
04527              18.00    -3800.00
04528              10.00    -3600.00
04529               0.00    -3800.00
04530               0.00    -3800.00
04531              10.00    -3800.00
04532               8.00    -3800.00
04533               8.00    -3800.00
04534              10.00    -3800.00
04535               8.00    -3800.00
04536               4.00    -4000.00
04537               6.00    -4000.00
04538               8.00    -3800.00
04539               6.00    -4000.00
04540               6.00    -4000.00
04541              14.00    -4000.00
04542              14.00    -4000.00
04543               2.00    -4200.00
04544              -2.00    -4000.00
04545               8.00    -4000.00
04546              14.00    -4000.00
04547              14.00    -4000.00
04548              10.00    -4000.00
04549               6.00    -4000.00
04550               0.00    -4000.00
04551               0.00    -4000.00
04552              16.00    -3800.00
04553              16.00    -3800.00
04554               6.00    -4000.00
04555               0.00    -4000.00
04556              10.00    -3800.00
04557               6.00    -4000.00
04558               8.00    -4000.00
04559              16.00    -3800.00
04560              14.00    -3800.00
04561               8.00    -3800.00
04562              -2.00    -3800.00
04563               0.00    -3800.00
04564               8.00    -3800.00
04565              18.00    -3800.00
04566              22.00    -3800.00
04567              10.00    -3800.00
04568             -10.00    -3600.00
04569              -6.00    -3800.00
04570              22.00    -3800.00
04571              32.00    -3600.00
04572               6.00    -3600.00
04573             -12.00    -3600.00
04574               0.00    -3600.00
04575              18.00    -3600.00
04576              18.00    -3600.00
04577               8.00    -3600.00
04578               0.00    -3400.00
04579               2.00    -3400.00
04580              14.00    -3200.00
04581              14.00    -3200.00
04582              10.00    -3200.00
04583               6.00    -3200.00
04584               2.00    -3200.00
04585               6.00    -3000.00
04586               8.00    -3200.00
04587              12.00    -3200.00
04588              18.00    -3000.00
04589               8.00    -3000.00
04590               0.00    -3000.00
04591              -4.00    -3000.00
04592               0.00    -2800.00
04593              14.00    -2800.00
04594              16.00    -2800.00
04595               8.00    -2800.00
04596               0.00    -2800.00
04597               2.00    -2800.00
04598               8.00    -2600.00
04599               8.00    -2400.00
04600               0.00    -2400.00
04601              -2.00    -2400.00
04602              10.00    -2400.00
04603              14.00    -2400.00
04604               6.00    -2200.00
04605              -8.00    -2200.00
04606             -10.00    -2200.00
04607               2.00    -2200.00
04608              14.00    -2000.00
04609              12.00    -2200.00
04610              -2.00    -2000.00
04611              -6.00    -2000.00
04612              -8.00    -1600.00
04613               2.00    -1600.00
04614               6.00    -1600.00
04615               8.00    -1600.00
04616               2.00    -1400.00
04617               0.00    -1400.00
04618              -2.00    -1600.00
04619              -2.00    -1200.00
04620               0.00    -1200.00
04621               4.00    -1000.00
04622               6.00    -1000.00
04623               0.00    -1000.00
04624              -2.00    -1000.00
04625              -8.00     -800.00
04626              -2.00     -800.00
04627               2.00     -800.00
04628               6.00     -800.00
04629               0.00     -600.00
04630              -2.00     -600.00
04631              -2.00     -400.00
04632              -2.00     -400.00
04633               0.00     -400.00
04634               2.00     -400.00
04635               2.00     -200.00
04636              -2.00        0.00
04637              -8.00        0.00
04638              -2.00        0.00
04639               2.00      200.00
04640               0.00      200.00
04641              -6.00        0.00
04642               0.00      200.00
04643               2.00      400.00
04644               6.00      400.00
04645               6.00      400.00
04646               8.00      400.00
04647              -2.00      600.00
04648              -8.00      600.00
04649              -8.00      600.00
04650               2.00      800.00
04651              50.00      600.00
04652             194.00     1000.00
04653              40.00     1000.00
04654            -254.00      800.00
04655            -254.00     1000.00
04656             246.00     1200.00
04657             246.00     1200.00
04658            -254.00      800.00
04659            -254.00     1000.00
04660             246.00     1600.00
04661             246.00     1600.00
04662            -254.00     1200.00
04663            -254.00     1600.00
04664             246.00     1800.00
04665              96.00     1600.00
04666            -254.00     1600.00
04667              70.00     2000.00
04668             -42.00     1800.00
04669             -94.00     1800.00
04670             214.00     2000.00
04671               2.00     2000.00
04672            -234.00     2000.00
04673              90.00     2200.00
04674              54.00     2400.00
04675             -76.00     2000.00
04676              98.00     2400.00
04677            -106.00     2400.00
04678            -114.00     2600.00
04679             236.00     2600.00
04680             -50.00     2400.00
04681            -232.00     2600.00
04682             158.00     2800.00
04683              56.00     2800.00
04684            -128.00     2800.00
04685              56.00     3000.00
04686             -32.00     2800.00
04687             -56.00     3200.00
04688              90.00     3200.00
04689             -54.00     3200.00
04690             -40.00     3200.00
04691              42.00     3200.00
04692             -62.00     3200.00
04693              14.00     3400.00
04694              42.00     3400.00
04695             -86.00     3400.00
04696               2.00     3400.00
04697              34.00     3600.00
04698             -50.00     3400.00
04699              -2.00     3600.00
04700              14.00     3600.00
04701             -26.00     3400.00
04702             -18.00     3800.00
04703             -18.00     3800.00
04704               0.00     3600.00
04705              10.00     4000.00
04706             -30.00     3800.00
04707             -18.00     4000.00
04708               2.00     3800.00
04709             -24.00     4000.00
04710             -12.00     4000.00
04711              10.00     4000.00
04712             -16.00     4000.00
04713             -26.00     4000.00
04714               0.00     4000.00
04715             -10.00     4200.00
04716             -22.00     4000.00
04717              -8.00     4200.00
04718              -8.00     4000.00
04719              -6.00     4000.00
04720             -16.00     4200.00
04721             -24.00     4200.00
04722              -2.00     4200.00
04723             -10.00     4400.00
04724             -22.00     4200.00
04725               0.00     4200.00
04726              -6.00     4400.00
04727             -26.00     4400.00
04728             -14.00     4200.00
04729             -14.00     4400.00
04730             -16.00     4200.00
04731             -10.00     4400.00
04732              -6.00     4400.00
04733             -10.00     4200.00
04734             -16.00     4400.00
04735             -24.00     4200.00
04736             -16.00     4400.00
04737             -10.00     4200.00
04738             -14.00     4200.00
04739             -10.00     4400.00
04740             -14.00     4400.00
04741             -20.00     4200.00
04742             -16.00     4400.00
04743             -14.00     4400.00
04744             -22.00     4200.00
04745             -14.00     4400.00
04746              -6.00     4400.00
04747             -14.00     4200.00
04748             -26.00     4200.00
04749             -26.00     4200.00
04750             -10.00     4200.00
04751              -6.00     4200.00
04752             -16.00     4200.00
04753             -24.00     4200.00
04754             -16.00     4200.00
04755             -16.00     4200.00
04756             -16.00     4000.00
04757              -8.00     4200.00
04758             -14.00     4200.00
04759             -22.00     4000.00
04760             -14.00     4200.00
04761             -14.00     4000.00
04762             -16.00     4000.00
04763             -16.00     4000.00
04764             -14.00     4000.00
04765             -14.00     4000.00
04766             -14.00     4000.00
04767             -16.00     4000.00
04768             -16.00     4000.00
04769             -18.00     4000.00
04770             -16.00     3600.00
04771             -10.00     3800.00
04772             -10.00     3600.00
04773             -16.00     3600.00
04774             -16.00     3600.00
04775             -14.00     3400.00
04776             -16.00     3600.00
04777             -12.00     3400.00
04778              -8.00     3400.00
04779             -10.00     3400.00
04780             -16.00     3400.00
04781             -22.00     3200.00
04782             -16.00     3400.00
04783              -8.00     3400.00
04784             -10.00     3200.00
04785              -6.00     3200.00
04786             -10.00     3000.00
04787             -16.00     3200.00
04788             -16.00     2800.00
04789             -16.00     3000.00
04790             -10.00     3000.00
04791              -8.00     2800.00
04792              -6.00     2800.00
04793             -10.00     2800.00
04794             -14.00     2600.00
04795             -16.00     2600.00
04796             -10.00     2600.00
04797             -10.00     2600.00
04798              -8.00     2400.00
04799              -8.00     2400.00
04800             -10.00     2400.00
04801             -14.00     2200.00
04802             -18.00     2200.00
04803             -14.00     2200.00
04804              -4.00     2000.00
04805              -4.00     2000.00
04806              -8.00     2000.00
04807             -10.00     1800.00
04808             -16.00     1800.00
04809             -16.00     1800.00
04810              -8.00     1800.00
04811              -2.00     1800.00
04812              -6.00     1600.00
04813              -6.00     1600.00
04814              -8.00     1600.00
04815             -10.00     1400.00
04816             -14.00     1200.00
04817             -10.00     1200.00
04818               0.00     1200.00
04819              -2.00     1200.00
04820              -8.00     1000.00
04821             -10.00     1000.00
04822             -10.00     1000.00
04823              -8.00     1000.00
04824              -6.00      800.00
04825              -2.00      800.00
04826              -2.00      800.00
04827              -8.00      800.00
04828              -8.00      600.00
04829              -6.00      400.00
04830              -6.00      600.00
04831              -6.00      400.00
04832             -10.00      400.00
04833              -6.00      200.00
04834               0.00      200.00
04835               0.00      200.00
04836               0.00        0.00
04837               6.00        0.00
04838               2.00        0.00
04839              -8.00        0.00
04840              -8.00     -200.00
04841              -2.00     -200.00
04842              10.00     -400.00
04843              54.00     -400.00
04844             162.00     -400.00
04845              28.00     -800.00
04846            -254.00     -800.00
04847            -254.00     -400.00
04848             246.00     -600.00
04849             246.00     -800.00
04850            -254.00    -1000.00
04851            -254.00     -600.00
04852             246.00    -1200.00
04853             246.00    -1000.00
04854            -254.00    -1200.00
04855            -254.00    -1200.00
04856             214.00    -1200.00
04857             230.00    -1400.00
04858             -20.00    -1400.00
04859             -58.00    -1600.00
04860            -190.00    -1400.00
04861             -38.00    -1600.00
04862             246.00    -1600.00
04863              54.00    -1600.00
04864            -254.00    -1600.00
04865             -50.00    -2000.00
04866             184.00    -1800.00
04867              48.00    -2000.00
04868             -30.00    -2000.00
04869            -118.00    -2200.00
04870             -22.00    -2000.00
04871             174.00    -2400.00
04872               6.00    -2400.00
04873            -164.00    -2200.00
04874              22.00    -2400.00
04875             118.00    -2600.00
04876             -26.00    -2400.00
04877             -30.00    -2400.00
04878             -18.00    -2600.00
04879               8.00    -2600.00
04880              48.00    -2800.00
04881               2.00    -2600.00
04882             -50.00    -2800.00
04883               6.00    -2800.00
04884              40.00    -2800.00
04885               8.00    -2800.00
04886             -14.00    -3000.00
04887             -16.00    -3200.00
04888              10.00    -2800.00
04889              26.00    -3200.00
04890               0.00    -3200.00
04891             -26.00    -3000.00
04892              18.00    -3200.00
04893              24.00    -3200.00
04894             -14.00    -3200.00
04895             -10.00    -3200.00
04896              18.00    -3200.00
04897              16.00    -3400.00
04898               6.00    -3600.00
04899               0.00    -3600.00
04900              -2.00    -3400.00
04901               6.00    -3600.00
04902              14.00    -3600.00
04903              10.00    -3600.00
04904               6.00    -3600.00
04905               0.00    -3800.00
04906               8.00    -3600.00
04907              14.00    -3600.00
04908               0.00    -3800.00
04909               0.00    -3600.00
04910              14.00    -3800.00
04911              14.00    -3800.00
04912               0.00    -3800.00
04913               4.00    -4000.00
04914               8.00    -3800.00
04915               8.00    -3800.00
04916               8.00    -3800.00
04917              10.00    -3800.00
04918              10.00    -3800.00
04919               8.00    -4000.00
04920               2.00    -3800.00
04921               6.00    -4000.00
04922               8.00    -3800.00
04923               8.00    -3800.00
04924              14.00    -4000.00
04925              14.00    -4000.00
04926               0.00    -3800.00
04927               2.00    -4000.00
04928              10.00    -4200.00
04929              10.00    -4000.00
04930              10.00    -4000.00
04931               8.00    -4000.00
04932               6.00    -4000.00
04933               6.00    -4000.00
04934               2.00    -4000.00
04935              10.00    -3800.00
04936              14.00    -4000.00
04937              10.00    -4000.00
04938              10.00    -4000.00
04939               8.00    -3800.00
04940               6.00    -4000.00
04941               6.00    -3800.00
04942              10.00    -3800.00
04943              10.00    -3800.00
04944               8.00    -4000.00
04945               6.00    -3800.00
04946               8.00    -3800.00
04947               8.00    -3800.00
04948               6.00    -3800.00
04949               8.00    -3800.00
04950              12.00    -3600.00
04951              10.00    -3800.00
04952               8.00    -3600.00
04953               2.00    -3800.00
04954               8.00    -3600.00
04955               8.00    -3600.00
04956              12.00    -3600.00
04957              10.00    -3600.00
04958               8.00    -3600.00
04959               6.00    -3400.00
04960              10.00    -3400.00
04961               2.00    -3400.00
04962               6.00    -3400.00
04963               8.00    -3200.00
04964               8.00    -3200.00
04965               6.00    -3200.00
04966               8.00    -3200.00
04967               6.00    -3200.00
04968               8.00    -3200.00
04969               8.00    -3000.00
04970              12.00    -3000.00
04971              14.00    -3000.00
04972               6.00    -3000.00
04973               0.00    -2800.00
04974               0.00    -3000.00
04975               6.00    -2800.00
04976              12.00    -2800.00
04977              14.00    -2800.00
04978               6.00    -2800.00
04979               0.00    -2600.00
04980              -2.00    -2800.00
04981               6.00    -2600.00
04982              14.00    -2400.00
04983              14.00    -2400.00
04984               6.00    -2400.00
04985              -2.00    -2400.00
04986              -8.00    -2200.00
04987               6.00    -2400.00
04988              16.00    -2200.00
04989              14.00    -2200.00
04990               2.00    -2000.00
04991              -6.00    -2000.00
04992               0.00    -2000.00
04993               6.00    -2000.00
04994               6.00    -2000.00
04995               2.00    -1600.00
04996               2.00    -1600.00
04997              -2.00    -1600.00
04998               2.00    -1600.00
04999               2.00    -1600.00
05000               2.00    -1600.00
