Unit:(mV)
                     CH1         CH2
Frequency              ? 261.054 kHz
00001               2.00    -2800.00
00002               4.00    -2800.00
00003               6.00    -2600.00
00004               4.00    -2400.00
00005               6.00    -2400.00
00006               2.00    -2400.00
00007               0.00    -2400.00
00008               0.00    -2200.00
00009               2.00    -2200.00
00010               8.00    -2200.00
00011               8.00    -2000.00
00012               2.00    -2000.00
00013               0.00    -2000.00
00014              -2.00    -2000.00
00015               2.00    -1800.00
00016               6.00    -1600.00
00017               6.00    -1800.00
00018               0.00    -1800.00
00019               0.00    -1600.00
00020               0.00    -1600.00
00021               2.00    -1400.00
00022               0.00    -1400.00
00023               0.00    -1200.00
00024               4.00    -1000.00
00025               6.00    -1200.00
00026               4.00    -1000.00
00027               0.00    -1000.00
00028              -6.00    -1000.00
00029              -6.00    -1000.00
00030               0.00     -800.00
00031               2.00     -800.00
00032               4.00     -800.00
00033               0.00     -800.00
00034              -6.00     -600.00
00035              -6.00     -600.00
00036              -2.00     -400.00
00037              -2.00     -600.00
00038               0.00     -400.00
00039               4.00     -200.00
00040              -2.00     -400.00
00041              -6.00        0.00
00042              -6.00        0.00
00043              -2.00        0.00
00044               0.00        0.00
00045              -2.00      200.00
00046               0.00      200.00
00047               2.00      200.00
00048               0.00      400.00
00049              -2.00      400.00
00050               4.00      400.00
00051               0.00      400.00
00052              -6.00      600.00
00053              -6.00      600.00
00054               0.00      600.00
00055              16.00      600.00
00056             128.00     1000.00
00057             150.00     1000.00
00058            -254.00      800.00
00059            -254.00      800.00
00060             246.00     1200.00
00061             246.00     1400.00
00062              12.00     1200.00
00063            -254.00      800.00
00064             -24.00     1600.00
00065             246.00     1600.00
00066             -96.00     1200.00
00067            -254.00     1400.00
00068             194.00     1800.00
00069             246.00     1600.00
00070            -210.00     1600.00
00071             -68.00     1800.00
00072              64.00     2000.00
00073            -150.00     1800.00
00074             110.00     2000.00
00075             178.00     2000.00
00076            -240.00     2000.00
00077             -38.00     2000.00
00078             134.00     2200.00
00079             -70.00     2000.00
00080              46.00     2400.00
00081               8.00     2400.00
00082            -194.00     2400.00
00083             144.00     2600.00
00084             136.00     2600.00
00085            -254.00     2600.00
00086              12.00     2800.00
00087             166.00     2600.00
00088            -114.00     2800.00
00089              -2.00     2800.00
00090              32.00     3000.00
00091             -90.00     3000.00
00092              56.00     3200.00
00093              18.00     3200.00
00094             -86.00     3000.00
00095              40.00     3200.00
00096             -22.00     3200.00
00097             -36.00     3200.00
00098              62.00     3400.00
00099             -52.00     3200.00
00100             -48.00     3400.00
00101              42.00     3600.00
00102             -28.00     3400.00
00103             -24.00     3400.00
00104              24.00     3600.00
00105             -24.00     3400.00
00106             -26.00     3600.00
00107             -26.00     3600.00
00108             -10.00     3600.00
00109              22.00     3600.00
00110             -10.00     4000.00
00111             -30.00     3800.00
00112              -2.00     3800.00
00113             -26.00     3800.00
00114             -24.00     3800.00
00115              14.00     4000.00
00116               0.00     4000.00
00117             -26.00     4000.00
00118             -10.00     4000.00
00119             -10.00     4000.00
00120             -26.00     4000.00
00121             -16.00     4000.00
00122              -6.00     4200.00
00123              -2.00     4000.00
00124              -8.00     4200.00
00125             -24.00     4200.00
00126             -10.00     4200.00
00127             -10.00     4200.00
00128             -26.00     4200.00
00129             -10.00     4400.00
00130               2.00     4400.00
00131             -16.00     4200.00
00132             -14.00     4200.00
00133             -12.00     4200.00
00134             -18.00     4400.00
00135             -14.00     4400.00
00136              -6.00     4400.00
00137              -2.00     4400.00
00138              -8.00     4400.00
00139             -18.00     4200.00
00140             -18.00     4400.00
00141             -10.00     4400.00
00142             -14.00     4400.00
00143             -10.00     4200.00
00144              -6.00     4400.00
00145             -10.00     4400.00
00146             -14.00     4400.00
00147             -14.00     4400.00
00148             -14.00     4200.00
00149             -14.00     4400.00
00150              -8.00     4400.00
00151             -10.00     4200.00
00152             -16.00     4400.00
00153             -10.00     4200.00
00154              -8.00     4400.00
00155              -8.00     4200.00
00156             -16.00     4200.00
00157             -16.00     4400.00
00158              -8.00     4200.00
00159             -16.00     4200.00
00160             -14.00     4200.00
00161              -8.00     4200.00
00162             -10.00     4000.00
00163             -16.00     4000.00
00164             -10.00     4000.00
00165             -10.00     4200.00
00166             -10.00     4000.00
00167             -16.00     4000.00
00168             -14.00     4000.00
00169             -10.00     4000.00
00170             -10.00     4000.00
00171             -14.00     3800.00
00172             -14.00     4000.00
00173             -14.00     3800.00
00174             -16.00     3800.00
00175             -10.00     3600.00
00176             -10.00     3800.00
00177             -10.00     3600.00
00178             -14.00     3600.00
00179             -10.00     3400.00
00180             -14.00     3600.00
00181             -10.00     3600.00
00182             -10.00     3600.00
00183              -8.00     3400.00
00184             -10.00     3400.00
00185             -16.00     3200.00
00186             -16.00     3400.00
00187             -10.00     3200.00
00188             -10.00     3200.00
00189              -6.00     3200.00
00190              -6.00     3200.00
00191             -12.00     3000.00
00192             -10.00     3200.00
00193             -10.00     3000.00
00194              -8.00     2800.00
00195              -8.00     2800.00
00196             -12.00     2800.00
00197              -8.00     2800.00
00198             -10.00     2600.00
00199             -12.00     2600.00
00200             -10.00     2600.00
00201              -8.00     2600.00
00202              -8.00     2600.00
00203              -6.00     2600.00
00204              -6.00     2400.00
00205             -10.00     2400.00
00206             -14.00     2400.00
00207             -10.00     2200.00
00208              -6.00     2200.00
00209              -2.00     2000.00
00210              -4.00     2000.00
00211              -6.00     2000.00
00212              -8.00     2000.00
00213              -8.00     1800.00
00214              -8.00     1600.00
00215              -2.00     1600.00
00216              -6.00     1600.00
00217              -6.00     1600.00
00218              -2.00     1600.00
00219              -4.00     1400.00
00220              -8.00     1600.00
00221              -6.00     1200.00
00222              -6.00     1200.00
00223               0.00     1200.00
00224              -2.00     1000.00
00225              -8.00     1200.00
00226              -6.00     1000.00
00227              -8.00      800.00
00228              -6.00      800.00
00229              -2.00      800.00
00230               0.00      800.00
00231              -2.00      800.00
00232             -10.00      600.00
00233              -6.00      400.00
00234              -2.00      400.00
00235              -2.00      400.00
00236              -8.00      200.00
00237              -6.00      200.00
00238               0.00      200.00
00239               2.00      200.00
00240              -2.00      200.00
00241               2.00        0.00
00242               8.00        0.00
00243              -2.00        0.00
00244             -10.00     -200.00
00245              -4.00     -200.00
00246               6.00     -400.00
00247              30.00     -200.00
00248             124.00     -400.00
00249             120.00     -800.00
00250            -246.00     -800.00
00251            -254.00     -600.00
00252             166.00     -600.00
00253             246.00     -800.00
00254             144.00    -1000.00
00255            -254.00     -800.00
00256            -166.00     -800.00
00257             246.00    -1200.00
00258             118.00    -1000.00
00259            -254.00    -1200.00
00260             -70.00    -1200.00
00261             246.00    -1400.00
00262              58.00    -1200.00
00263             -36.00    -1400.00
00264            -144.00    -1600.00
00265            -160.00    -1400.00
00266             222.00    -1600.00
00267             246.00    -1800.00
00268            -240.00    -1600.00
00269            -190.00    -2000.00
00270             146.00    -2000.00
00271             116.00    -2000.00
00272               8.00    -2000.00
00273             -98.00    -2200.00
00274             -90.00    -2000.00
00275             120.00    -2200.00
00276             126.00    -2400.00
00277            -150.00    -2400.00
00278             -64.00    -2200.00
00279             112.00    -2400.00
00280              34.00    -2400.00
00281             -34.00    -2400.00
00282             -24.00    -2600.00
00283             -10.00    -2600.00
00284              40.00    -2600.00
00285              40.00    -2800.00
00286             -42.00    -2800.00
00287             -18.00    -2800.00
00288              34.00    -2800.00
00289              26.00    -3000.00
00290              -8.00    -3000.00
00291             -16.00    -3000.00
00292              -2.00    -3000.00
00293              24.00    -3200.00
00294              16.00    -3200.00
00295             -24.00    -3200.00
00296               0.00    -3200.00
00297              30.00    -3200.00
00298               2.00    -3200.00
00299             -22.00    -3400.00
00300              10.00    -3200.00
00301              22.00    -3400.00
00302               8.00    -3400.00
00303               0.00    -3600.00
00304              -6.00    -3600.00
00305              -2.00    -3400.00
00306              14.00    -3600.00
00307              14.00    -3600.00
00308               2.00    -3600.00
00309               0.00    -3600.00
00310               0.00    -3600.00
00311              10.00    -3600.00
00312               2.00    -3600.00
00313              -2.00    -3600.00
00314               8.00    -3800.00
00315              16.00    -3800.00
00316               0.00    -3800.00
00317              -2.00    -3800.00
00318               6.00    -3800.00
00319               6.00    -3800.00
00320               6.00    -3800.00
00321               8.00    -3800.00
00322              10.00    -4000.00
00323               6.00    -4000.00
00324               0.00    -4000.00
00325               2.00    -3800.00
00326               8.00    -4000.00
00327               6.00    -3800.00
00328               8.00    -4000.00
00329              10.00    -3800.00
00330               6.00    -4000.00
00331              -2.00    -4000.00
00332               6.00    -4000.00
00333              10.00    -4000.00
00334              10.00    -4000.00
00335               8.00    -3800.00
00336               6.00    -4000.00
00337               6.00    -3800.00
00338               2.00    -3800.00
00339               6.00    -3800.00
00340              10.00    -4000.00
00341              10.00    -3800.00
00342              10.00    -3800.00
00343               8.00    -4000.00
00344               2.00    -3800.00
00345               0.00    -4000.00
00346               6.00    -4000.00
00347              10.00    -3800.00
00348              12.00    -3800.00
00349               8.00    -3800.00
00350               6.00    -3800.00
00351               2.00    -3800.00
00352               2.00    -3800.00
00353               8.00    -3800.00
00354              10.00    -3800.00
00355               8.00    -3800.00
00356               8.00    -3600.00
00357               8.00    -3800.00
00358               6.00    -3600.00
00359               4.00    -3600.00
00360               2.00    -3600.00
00361              10.00    -3600.00
00362               8.00    -3600.00
00363               4.00    -3600.00
00364               0.00    -3600.00
00365               2.00    -3400.00
00366               6.00    -3400.00
00367               8.00    -3400.00
00368               6.00    -3400.00
00369               2.00    -3200.00
00370               2.00    -3200.00
00371               2.00    -3200.00
00372               0.00    -3200.00
00373               2.00    -3200.00
00374               2.00    -3200.00
00375              10.00    -3000.00
00376               8.00    -3200.00
00377               4.00    -3000.00
00378               0.00    -3000.00
00379               0.00    -3000.00
00380               2.00    -2800.00
00381               8.00    -2800.00
00382               8.00    -2800.00
00383               0.00    -2600.00
00384               0.00    -2800.00
00385               0.00    -2800.00
00386               6.00    -2400.00
00387               6.00    -2600.00
00388               2.00    -2600.00
00389               6.00    -2400.00
00390               4.00    -2400.00
00391               2.00    -2400.00
00392               0.00    -2400.00
00393               2.00    -2000.00
00394               6.00    -2200.00
00395               2.00    -2000.00
00396               2.00    -2000.00
00397               0.00    -2000.00
00398               0.00    -1800.00
00399               2.00    -1800.00
00400               6.00    -1600.00
00401               4.00    -1600.00
00402               2.00    -1400.00
00403               2.00    -1600.00
00404               0.00    -1600.00
00405               0.00    -1400.00
00406               2.00    -1000.00
00407               6.00    -1200.00
00408               2.00    -1400.00
00409               0.00    -1000.00
00410               0.00    -1000.00
00411               0.00    -1000.00
00412              -2.00     -800.00
00413               2.00     -800.00
00414               2.00     -800.00
00415               0.00     -800.00
00416               0.00     -600.00
00417              -2.00     -600.00
00418               0.00     -600.00
00419              -2.00     -400.00
00420               0.00     -400.00
00421               0.00     -400.00
00422               2.00     -400.00
00423              -6.00     -200.00
00424              -2.00     -200.00
00425              -2.00        0.00
00426              -2.00        0.00
00427               0.00        0.00
00428              -2.00        0.00
00429              -6.00      200.00
00430               0.00      200.00
00431               0.00      200.00
00432               2.00      200.00
00433              10.00      400.00
00434               4.00      400.00
00435             -10.00      400.00
00436             -10.00      400.00
00437              -6.00      800.00
00438              18.00      600.00
00439             126.00      800.00
00440             166.00     1000.00
00441            -254.00      800.00
00442            -254.00      800.00
00443             176.00     1200.00
00444             246.00     1200.00
00445             142.00     1200.00
00446            -254.00      800.00
00447            -144.00     1400.00
00448             246.00     1600.00
00449              22.00     1200.00
00450            -254.00     1400.00
00451             120.00     1800.00
00452             246.00     1800.00
00453            -190.00     1600.00
00454             -96.00     1800.00
00455              82.00     1800.00
00456            -154.00     1800.00
00457              80.00     1800.00
00458             202.00     2000.00
00459            -230.00     2000.00
00460             -74.00     2200.00
00461             140.00     2200.00
00462             -50.00     2000.00
00463              32.00     2400.00
00464              28.00     2600.00
00465            -202.00     2400.00
00466             112.00     2600.00
00467             166.00     2600.00
00468            -254.00     2400.00
00469             -28.00     2800.00
00470             184.00     2800.00
00471             -90.00     2600.00
00472             -16.00     2800.00
00473              32.00     3000.00
00474            -104.00     3000.00
00475              46.00     3200.00
00476              48.00     3200.00
00477             -80.00     3000.00
00478              26.00     3200.00
00479             -22.00     3200.00
00480             -48.00     3200.00
00481              66.00     3400.00
00482             -34.00     3200.00
00483             -54.00     3400.00
00484              48.00     3600.00
00485             -22.00     3400.00
00486             -38.00     3600.00
00487              18.00     3600.00
00488             -16.00     3400.00
00489             -20.00     3600.00
00490             -18.00     3600.00
00491             -14.00     3600.00
00492              16.00     3600.00
00493             -14.00     3800.00
00494             -34.00     3600.00
00495              -6.00     3800.00
00496             -22.00     3800.00
00497             -30.00     4000.00
00498              14.00     4000.00
00499              14.00     4000.00
00500             -22.00     4000.00
00501             -24.00     4000.00
00502             -22.00     4200.00
00503             -32.00     4000.00
00504              -6.00     4200.00
00505              10.00     4200.00
00506               0.00     4000.00
00507             -18.00     4200.00
00508             -42.00     4000.00
00509             -22.00     4200.00
00510               2.00     4200.00
00511              -8.00     4200.00
00512              -2.00     4200.00
00513              -8.00     4200.00
00514             -32.00     4200.00
00515             -24.00     4200.00
00516              -6.00     4400.00
00517              -8.00     4400.00
00518             -10.00     4400.00
00519             -10.00     4400.00
00520             -12.00     4400.00
00521             -14.00     4200.00
00522             -20.00     4400.00
00523             -16.00     4400.00
00524              -6.00     4400.00
00525             -10.00     4400.00
00526             -14.00     4400.00
00527              -8.00     4200.00
00528             -14.00     4400.00
00529             -18.00     4400.00
00530             -14.00     4200.00
00531             -14.00     4400.00
00532              -8.00     4400.00
00533               0.00     4400.00
00534             -10.00     4400.00
00535             -22.00     4200.00
00536             -18.00     4200.00
00537             -10.00     4200.00
00538              -4.00     4200.00
00539             -10.00     4200.00
00540             -10.00     4200.00
00541             -10.00     4200.00
00542             -16.00     4000.00
00543             -18.00     4200.00
00544             -10.00     4000.00
00545              -2.00     4200.00
00546             -10.00     4000.00
00547             -10.00     4000.00
00548             -10.00     4200.00
00549             -10.00     4000.00
00550             -12.00     4000.00
00551             -10.00     4000.00
00552             -10.00     4000.00
00553             -10.00     3800.00
00554             -14.00     3800.00
00555             -14.00     3800.00
00556             -10.00     4000.00
00557             -14.00     3600.00
00558             -14.00     3600.00
00559             -10.00     3600.00
00560             -10.00     3600.00
00561             -10.00     3600.00
00562             -10.00     3600.00
00563             -10.00     3400.00
00564             -14.00     3600.00
00565             -10.00     3400.00
00566             -10.00     3400.00
00567             -12.00     3400.00
00568             -12.00     3400.00
00569             -16.00     3200.00
00570              -8.00     3200.00
00571             -10.00     3200.00
00572              -8.00     3200.00
00573             -10.00     3200.00
00574             -10.00     3000.00
00575             -16.00     3000.00
00576             -10.00     3200.00
00577              -8.00     2800.00
00578              -8.00     2800.00
00579             -10.00     2800.00
00580             -10.00     2800.00
00581             -10.00     2800.00
00582             -10.00     2600.00
00583              -8.00     2600.00
00584              -2.00     2600.00
00585              -6.00     2600.00
00586             -10.00     2400.00
00587             -12.00     2600.00
00588             -10.00     2200.00
00589             -10.00     2200.00
00590             -10.00     2200.00
00591              -2.00     2000.00
00592              -2.00     2000.00
00593              -8.00     2000.00
00594              -8.00     2000.00
00595              -8.00     2000.00
00596              -8.00     1800.00
00597              -8.00     1800.00
00598              -2.00     1800.00
00599              -6.00     1600.00
00600              -6.00     1600.00
00601              -8.00     1600.00
00602              -6.00     1600.00
00603              -8.00     1400.00
00604              -8.00     1200.00
00605              -2.00     1200.00
00606              -2.00     1200.00
00607              -6.00     1200.00
00608              -6.00     1000.00
00609              -8.00     1000.00
00610              -6.00      800.00
00611              -6.00      800.00
00612              -2.00      800.00
00613               0.00      800.00
00614              -2.00      800.00
00615              -8.00      600.00
00616              -8.00      400.00
00617              -6.00      400.00
00618              -2.00      400.00
00619              -2.00      400.00
00620              -2.00      200.00
00621              -2.00      200.00
00622               0.00        0.00
00623              -2.00        0.00
00624               4.00        0.00
00625               8.00        0.00
00626               0.00        0.00
00627             -10.00     -200.00
00628              -6.00     -400.00
00629               2.00     -400.00
00630              26.00     -400.00
00631             114.00     -600.00
00632             136.00     -600.00
00633            -202.00     -800.00
00634            -254.00     -600.00
00635              90.00     -400.00
00636             246.00     -800.00
00637             246.00    -1000.00
00638            -254.00     -800.00
00639            -254.00     -800.00
00640             246.00    -1200.00
00641             214.00    -1000.00
00642            -254.00    -1200.00
00643            -136.00    -1200.00
00644             246.00    -1400.00
00645              74.00    -1400.00
00646             -32.00    -1600.00
00647            -128.00    -1400.00
00648            -176.00    -1400.00
00649             182.00    -1600.00
00650             246.00    -1800.00
00651            -212.00    -1600.00
00652            -216.00    -1800.00
00653             126.00    -2000.00
00654             134.00    -2000.00
00655              16.00    -2000.00
00656             -94.00    -2200.00
00657            -104.00    -2000.00
00658             102.00    -2200.00
00659             150.00    -2400.00
00660            -136.00    -2400.00
00661             -82.00    -2200.00
00662             104.00    -2600.00
00663              48.00    -2400.00
00664             -34.00    -2400.00
00665             -24.00    -2400.00
00666             -14.00    -2800.00
00667              32.00    -2400.00
00668              42.00    -2800.00
00669             -40.00    -2600.00
00670             -24.00    -3000.00
00671              34.00    -3000.00
00672              32.00    -3000.00
00673              -6.00    -3000.00
00674             -16.00    -3000.00
00675              -8.00    -3000.00
00676              26.00    -3000.00
00677              20.00    -3200.00
00678             -16.00    -3200.00
00679              -4.00    -3200.00
00680              26.00    -3200.00
00681               8.00    -3200.00
00682             -22.00    -3200.00
00683               6.00    -3200.00
00684              22.00    -3600.00
00685               4.00    -3400.00
00686               2.00    -3400.00
00687               0.00    -3600.00
00688               0.00    -3600.00
00689               6.00    -3600.00
00690               8.00    -3600.00
00691               6.00    -3600.00
00692               8.00    -3600.00
00693               2.00    -3600.00
00694               2.00    -3800.00
00695               2.00    -3600.00
00696               6.00    -3800.00
00697              12.00    -3800.00
00698              14.00    -3800.00
00699              -2.00    -3800.00
00700              -4.00    -3800.00
00701              12.00    -3800.00
00702              14.00    -3800.00
00703               6.00    -3800.00
00704              -2.00    -4000.00
00705               6.00    -3800.00
00706              10.00    -3800.00
00707               8.00    -4000.00
00708               6.00    -3800.00
00709               0.00    -4000.00
00710               2.00    -3800.00
00711              12.00    -4000.00
00712              14.00    -3800.00
00713               4.00    -4000.00
00714              -6.00    -4000.00
00715               6.00    -4000.00
00716              16.00    -4000.00
00717              10.00    -4000.00
00718               6.00    -4000.00
00719               6.00    -4000.00
00720               6.00    -4000.00
00721               2.00    -3800.00
00722               6.00    -4000.00
00723               8.00    -3800.00
00724              14.00    -4000.00
00725              14.00    -4000.00
00726               6.00    -4000.00
00727               0.00    -4000.00
00728               0.00    -3800.00
00729               8.00    -3800.00
00730              14.00    -3800.00
00731              14.00    -3800.00
00732               6.00    -3800.00
00733               0.00    -3800.00
00734               2.00    -3800.00
00735               2.00    -3800.00
00736              10.00    -3800.00
00737              16.00    -3600.00
00738              14.00    -3800.00
00739               6.00    -3600.00
00740               6.00    -3600.00
00741               0.00    -3800.00
00742               4.00    -3600.00
00743              10.00    -3600.00
00744              16.00    -3600.00
00745               8.00    -3600.00
00746               6.00    -3600.00
00747              -4.00    -3400.00
00748              -6.00    -3400.00
00749               6.00    -3400.00
00750              18.00    -3400.00
00751              22.00    -3400.00
00752               8.00    -3200.00
00753             -14.00    -3400.00
00754             -10.00    -3200.00
00755               6.00    -3000.00
00756              14.00    -3200.00
00757              16.00    -3000.00
00758               6.00    -3000.00
00759              -6.00    -3000.00
00760              -2.00    -3000.00
00761               6.00    -2800.00
00762               8.00    -2800.00
00763              10.00    -2800.00
00764               8.00    -2800.00
00765               0.00    -2800.00
00766              -6.00    -2800.00
00767              -8.00    -2600.00
00768               8.00    -2400.00
00769              16.00    -2600.00
00770               2.00    -2400.00
00771              -8.00    -2400.00
00772              -2.00    -2400.00
00773               6.00    -2400.00
00774               8.00    -2400.00
00775               2.00    -2000.00
00776              -6.00    -2200.00
00777              -2.00    -2200.00
00778               6.00    -2000.00
00779               8.00    -2200.00
00780               6.00    -2000.00
00781               0.00    -2000.00
00782               0.00    -2000.00
00783               4.00    -1600.00
00784               0.00    -1600.00
00785              -6.00    -1600.00
00786              -2.00    -1600.00
00787               4.00    -1600.00
00788               8.00    -1400.00
00789               2.00    -1200.00
00790              -2.00    -1200.00
00791               0.00    -1000.00
00792               0.00    -1200.00
00793               0.00    -1200.00
00794               2.00    -1000.00
00795               0.00    -1200.00
00796               4.00     -800.00
00797               2.00     -800.00
00798               0.00     -600.00
00799              -8.00     -800.00
00800              -6.00     -600.00
00801               8.00     -600.00
00802               6.00     -600.00
00803              -4.00     -400.00
00804             -10.00     -400.00
00805              -8.00     -400.00
00806               2.00     -200.00
00807               2.00        0.00
00808               0.00        0.00
00809               0.00        0.00
00810               0.00        0.00
00811              -8.00      200.00
00812              -6.00      200.00
00813              -2.00      200.00
00814               6.00      200.00
00815               2.00      200.00
00816               8.00      400.00
00817               0.00      400.00
00818             -14.00      600.00
00819             -14.00      600.00
00820              -2.00      800.00
00821              16.00      600.00
00822             110.00      800.00
00823             178.00     1000.00
00824            -202.00      800.00
00825            -254.00      800.00
00826              88.00     1000.00
00827             246.00     1200.00
00828             246.00     1200.00
00829            -254.00      800.00
00830            -254.00     1400.00
00831             246.00     1600.00
00832             150.00     1400.00
00833            -254.00     1200.00
00834              38.00     1800.00
00835             246.00     1600.00
00836            -154.00     1600.00
00837            -126.00     2000.00
00838              96.00     2000.00
00839            -154.00     1800.00
00840              46.00     1800.00
00841             222.00     2000.00
00842            -198.00     1800.00
00843            -102.00     2000.00
00844             140.00     2200.00
00845             -42.00     2200.00
00846              14.00     2400.00
00847              46.00     2400.00
00848            -206.00     2200.00
00849              78.00     2600.00
00850             200.00     2400.00
00851            -226.00     2400.00
00852             -62.00     2800.00
00853             182.00     2800.00
00854             -88.00     2600.00
00855             -36.00     2800.00
00856              54.00     3200.00
00857             -90.00     2800.00
00858              30.00     3000.00
00859              48.00     3200.00
00860             -90.00     2800.00
00861              24.00     3200.00
00862              -2.00     3200.00
00863             -48.00     3200.00
00864              58.00     3400.00
00865             -30.00     3200.00
00866             -70.00     3400.00
00867              44.00     3400.00
00868             -10.00     3400.00
00869             -38.00     3400.00
00870              18.00     3600.00
00871             -14.00     3600.00
00872             -18.00     3600.00
00873             -14.00     3600.00
00874             -14.00     3600.00
00875              14.00     3800.00
00876             -10.00     4000.00
00877             -34.00     3600.00
00878              -2.00     4000.00
00879             -10.00     3800.00
00880             -26.00     3800.00
00881               2.00     4000.00
00882               0.00     4000.00
00883             -26.00     4000.00
00884              -8.00     4200.00
00885               0.00     4000.00
00886             -22.00     4000.00
00887             -18.00     4200.00
00888              -8.00     4200.00
00889              -6.00     4200.00
00890              -2.00     4000.00
00891             -24.00     4200.00
00892             -16.00     4200.00
00893              -6.00     4200.00
00894             -24.00     4000.00
00895             -10.00     4200.00
00896               4.00     4200.00
00897             -18.00     4200.00
00898             -22.00     4200.00
00899             -10.00     4200.00
00900             -16.00     4400.00
00901             -14.00     4200.00
00902              -8.00     4200.00
00903             -10.00     4200.00
00904             -10.00     4200.00
00905             -18.00     4400.00
00906             -16.00     4200.00
00907              -8.00     4200.00
00908             -12.00     4400.00
00909             -16.00     4200.00
00910              -6.00     4200.00
00911             -10.00     4400.00
00912             -16.00     4400.00
00913             -10.00     4400.00
00914             -14.00     4400.00
00915             -14.00     4200.00
00916              -4.00     4400.00
00917             -10.00     4400.00
00918             -16.00     4200.00
00919             -18.00     4400.00
00920             -14.00     4400.00
00921              -8.00     4200.00
00922             -10.00     4400.00
00923             -10.00     4200.00
00924              -8.00     4200.00
00925             -14.00     4200.00
00926             -18.00     4200.00
00927             -10.00     4000.00
00928              -2.00     4200.00
00929             -10.00     4200.00
00930             -14.00     4200.00
00931             -10.00     4200.00
00932             -10.00     4000.00
00933             -14.00     4200.00
00934             -10.00     4000.00
00935              -8.00     4000.00
00936              -8.00     4000.00
00937             -14.00     3800.00
00938             -14.00     4000.00
00939             -14.00     3800.00
00940             -14.00     3800.00
00941              -8.00     3600.00
00942              -4.00     3800.00
00943             -10.00     3600.00
00944             -14.00     3600.00
00945             -10.00     3600.00
00946             -10.00     3600.00
00947             -14.00     3400.00
00948             -10.00     3600.00
00949             -10.00     3400.00
00950              -8.00     3400.00
00951              -8.00     3400.00
00952             -16.00     3400.00
00953             -14.00     3200.00
00954             -10.00     3200.00
00955              -8.00     3200.00
00956              -2.00     3200.00
00957             -16.00     3000.00
00958             -16.00     3000.00
00959             -10.00     3200.00
00960              -8.00     2800.00
00961             -10.00     2800.00
00962             -10.00     2800.00
00963              -6.00     2800.00
00964             -10.00     2800.00
00965             -16.00     2600.00
00966             -14.00     2400.00
00967              -6.00     2600.00
00968              -6.00     2400.00
00969             -10.00     2200.00
00970              -8.00     2400.00
00971              -8.00     2400.00
00972             -10.00     2200.00
00973              -8.00     2200.00
00974              -8.00     2000.00
00975             -10.00     2000.00
00976             -10.00     2000.00
00977              -2.00     2000.00
00978              -2.00     1800.00
00979              -8.00     1800.00
00980             -12.00     1800.00
00981              -8.00     1600.00
00982              -2.00     1600.00
00983              -6.00     1600.00
00984              -8.00     1600.00
00985              -2.00     1400.00
00986              -8.00     1400.00
00987             -10.00     1200.00
00988              -4.00     1200.00
00989              -2.00     1200.00
00990              -2.00     1000.00
00991              -6.00     1200.00
00992              -8.00     1000.00
00993             -10.00     1000.00
00994              -6.00      800.00
00995              -2.00      800.00
00996               2.00      800.00
00997               0.00      600.00
00998             -10.00      600.00
00999             -10.00      600.00
01000              -2.00      400.00
01001               0.00      400.00
01002              -2.00      200.00
01003              -8.00      200.00
01004              -2.00      200.00
01005               2.00      200.00
01006               0.00      200.00
01007               6.00        0.00
01008               8.00        0.00
01009              -2.00        0.00
01010             -10.00        0.00
01011              -6.00     -200.00
01012               2.00     -400.00
01013              24.00     -400.00
01014             104.00     -400.00
01015             144.00     -600.00
01016            -166.00     -800.00
01017            -254.00     -800.00
01018              14.00     -600.00
01019             246.00     -600.00
01020             246.00     -800.00
01021            -254.00    -1000.00
01022            -254.00     -800.00
01023             246.00    -1200.00
01024             246.00    -1000.00
01025            -254.00    -1000.00
01026            -198.00    -1200.00
01027             246.00    -1400.00
01028             104.00    -1400.00
01029             -38.00    -1600.00
01030            -130.00    -1600.00
01031            -192.00    -1400.00
01032             166.00    -1600.00
01033             246.00    -1800.00
01034            -198.00    -1600.00
01035            -240.00    -2000.00
01036             114.00    -2000.00
01037             146.00    -2000.00
01038              14.00    -2000.00
01039             -86.00    -2200.00
01040            -106.00    -2000.00
01041              86.00    -2200.00
01042             154.00    -2400.00
01043            -122.00    -2200.00
01044             -94.00    -2200.00
01045              98.00    -2400.00
01046              58.00    -2400.00
01047             -38.00    -2400.00
01048             -26.00    -2600.00
01049             -14.00    -2800.00
01050              34.00    -2800.00
01051              48.00    -2800.00
01052             -38.00    -2800.00
01053             -30.00    -2800.00
01054              32.00    -3000.00
01055              34.00    -3000.00
01056              -8.00    -3000.00
01057             -14.00    -3000.00
01058              -6.00    -3000.00
01059              24.00    -3000.00
01060              20.00    -3200.00
01061             -16.00    -3000.00
01062              -2.00    -3200.00
01063              32.00    -3200.00
01064              10.00    -3200.00
01065             -24.00    -3200.00
01066               6.00    -3400.00
01067              24.00    -3400.00
01068              10.00    -3400.00
01069               2.00    -3400.00
01070              -2.00    -3600.00
01071              -2.00    -3600.00
01072              10.00    -3600.00
01073              16.00    -3600.00
01074              10.00    -3600.00
01075               0.00    -3600.00
01076               2.00    -3800.00
01077              10.00    -3800.00
01078               2.00    -3800.00
01079              -2.00    -3600.00
01080              10.00    -3800.00
01081              16.00    -3800.00
01082               6.00    -3800.00
01083              -2.00    -3800.00
01084               2.00    -3800.00
01085               8.00    -3800.00
01086               8.00    -3800.00
01087               8.00    -3800.00
01088              10.00    -4000.00
01089               8.00    -4000.00
01090               0.00    -4000.00
01091               2.00    -4000.00
01092               6.00    -3800.00
01093               6.00    -4000.00
01094               8.00    -3800.00
01095              14.00    -4000.00
01096               2.00    -4000.00
01097              -2.00    -4000.00
01098               6.00    -4000.00
01099              10.00    -4000.00
01100              10.00    -4000.00
01101               8.00    -4000.00
01102               6.00    -4000.00
01103               8.00    -4000.00
01104               6.00    -4000.00
01105               6.00    -4000.00
01106              10.00    -4000.00
01107              10.00    -3800.00
01108               6.00    -4000.00
01109               8.00    -4000.00
01110               6.00    -4000.00
01111               0.00    -4000.00
01112               6.00    -4000.00
01113              10.00    -3800.00
01114              10.00    -4000.00
01115               8.00    -4000.00
01116               6.00    -3800.00
01117               6.00    -3800.00
01118               6.00    -3800.00
01119               8.00    -3800.00
01120               8.00    -3600.00
01121               8.00    -3600.00
01122               8.00    -3600.00
01123               6.00    -3600.00
01124               2.00    -3800.00
01125               6.00    -3600.00
01126               6.00    -3600.00
01127              10.00    -3600.00
01128               6.00    -3600.00
01129               6.00    -3600.00
01130               2.00    -3600.00
01131               6.00    -3400.00
01132               6.00    -3400.00
01133               8.00    -3200.00
01134               8.00    -3400.00
01135               8.00    -3400.00
01136               2.00    -3200.00
01137               2.00    -3200.00
01138               2.00    -3200.00
01139               6.00    -3200.00
01140               8.00    -3200.00
01141               8.00    -3000.00
01142               4.00    -3000.00
01143               0.00    -3000.00
01144               0.00    -3000.00
01145               2.00    -3000.00
01146               6.00    -2800.00
01147               6.00    -2800.00
01148               6.00    -2800.00
01149               2.00    -2800.00
01150               0.00    -2800.00
01151              -2.00    -2600.00
01152               2.00    -2600.00
01153               2.00    -2600.00
01154               2.00    -2400.00
01155               6.00    -2400.00
01156               2.00    -2200.00
01157              -2.00    -2200.00
01158               0.00    -2200.00
01159               2.00    -2200.00
01160               0.00    -2200.00
01161               6.00    -2000.00
01162               6.00    -2000.00
01163              -2.00    -2000.00
01164              -6.00    -2000.00
01165               6.00    -1800.00
01166               4.00    -1800.00
01167              -2.00    -1800.00
01168              -2.00    -1600.00
01169               6.00    -1600.00
01170               2.00    -1600.00
01171              -2.00    -1400.00
01172              -2.00    -1400.00
01173              -2.00    -1000.00
01174               6.00    -1200.00
01175               6.00    -1000.00
01176               6.00    -1000.00
01177              -2.00    -1000.00
01178             -12.00     -800.00
01179             -10.00     -800.00
01180               6.00     -800.00
01181              16.00     -800.00
01182               8.00     -600.00
01183              -6.00     -600.00
01184             -10.00     -600.00
01185              -6.00     -600.00
01186               0.00     -400.00
01187               8.00     -400.00
01188               6.00     -400.00
01189              -4.00     -400.00
01190             -16.00     -400.00
01191             -12.00        0.00
01192               8.00        0.00
01193              18.00        0.00
01194              10.00        0.00
01195             -16.00      200.00
01196             -18.00      400.00
01197              -8.00      400.00
01198               8.00      200.00
01199              14.00      400.00
01200             -16.00      400.00
01201               0.00      400.00
01202               2.00      600.00
01203              22.00      600.00
01204               8.00      800.00
01205              90.00      800.00
01206             178.00     1000.00
01207            -158.00      800.00
01208            -254.00      800.00
01209              -2.00     1000.00
01210             246.00     1200.00
01211             246.00     1200.00
01212            -254.00      800.00
01213            -254.00     1200.00
01214             246.00     1600.00
01215             246.00     1400.00
01216            -254.00     1200.00
01217             -48.00     1600.00
01218             246.00     1800.00
01219            -122.00     1200.00
01220            -160.00     1800.00
01221             104.00     1800.00
01222            -134.00     1800.00
01223              30.00     2000.00
01224             230.00     2000.00
01225            -172.00     2000.00
01226            -136.00     2000.00
01227             130.00     2200.00
01228             -34.00     2000.00
01229              -4.00     2400.00
01230              62.00     2400.00
01231            -198.00     2400.00
01232              46.00     2600.00
01233             224.00     2600.00
01234            -198.00     2600.00
01235             -96.00     2800.00
01236             186.00     2800.00
01237             -70.00     2600.00
01238             -60.00     2800.00
01239              56.00     2800.00
01240             -88.00     2800.00
01241              16.00     3200.00
01242              64.00     3000.00
01243             -84.00     3000.00
01244              14.00     3200.00
01245               2.00     3200.00
01246             -58.00     3400.00
01247              54.00     3200.00
01248             -16.00     3400.00
01249             -80.00     3200.00
01250              38.00     3600.00
01251               2.00     3400.00
01252             -34.00     3400.00
01253              20.00     3600.00
01254             -14.00     3600.00
01255             -26.00     3400.00
01256             -18.00     3800.00
01257             -14.00     3600.00
01258              16.00     3600.00
01259               0.00     3800.00
01260             -36.00     3800.00
01261             -10.00     3800.00
01262              -8.00     4000.00
01263             -22.00     4000.00
01264               2.00     3800.00
01265               2.00     4000.00
01266             -26.00     4000.00
01267             -14.00     4000.00
01268               8.00     4000.00
01269             -22.00     4000.00
01270             -26.00     4000.00
01271              -6.00     4200.00
01272               2.00     4000.00
01273              -2.00     4200.00
01274             -24.00     4200.00
01275             -26.00     4200.00
01276              -8.00     4200.00
01277             -10.00     4200.00
01278              -4.00     4200.00
01279              -6.00     4400.00
01280             -30.00     4200.00
01281             -24.00     4400.00
01282              10.00     4400.00
01283              -6.00     4200.00
01284             -30.00     4400.00
01285             -24.00     4200.00
01286              -6.00     4400.00
01287              -2.00     4400.00
01288             -10.00     4400.00
01289             -22.00     4200.00
01290             -14.00     4200.00
01291             -10.00     4200.00
01292             -18.00     4400.00
01293             -12.00     4400.00
01294             -10.00     4400.00
01295             -16.00     4200.00
01296              -8.00     4400.00
01297             -10.00     4200.00
01298             -24.00     4400.00
01299             -16.00     4200.00
01300              -2.00     4200.00
01301              -8.00     4200.00
01302             -18.00     4200.00
01303             -22.00     4200.00
01304             -16.00     4200.00
01305              -2.00     4200.00
01306               0.00     4200.00
01307             -10.00     4200.00
01308             -18.00     4200.00
01309             -26.00     4200.00
01310             -16.00     4000.00
01311              -2.00     4000.00
01312              -2.00     4000.00
01313             -10.00     4000.00
01314             -16.00     4000.00
01315             -18.00     4000.00
01316             -16.00     4000.00
01317              -6.00     4000.00
01318               0.00     4000.00
01319              -8.00     4000.00
01320             -16.00     4000.00
01321             -18.00     4000.00
01322             -16.00     3800.00
01323             -10.00     3600.00
01324              -8.00     3800.00
01325              -8.00     3600.00
01326             -10.00     3600.00
01327             -14.00     3600.00
01328             -10.00     3600.00
01329             -10.00     3600.00
01330             -14.00     3400.00
01331             -10.00     3400.00
01332             -10.00     3400.00
01333             -10.00     3400.00
01334             -10.00     3400.00
01335             -10.00     3200.00
01336              -8.00     3200.00
01337             -16.00     3200.00
01338             -14.00     3200.00
01339              -8.00     3000.00
01340             -10.00     3200.00
01341             -10.00     3200.00
01342              -6.00     3000.00
01343             -14.00     2800.00
01344             -18.00     2800.00
01345             -10.00     2800.00
01346              -2.00     2800.00
01347               0.00     2800.00
01348             -10.00     2800.00
01349             -22.00     2600.00
01350             -12.00     2600.00
01351              -6.00     2400.00
01352              -2.00     2400.00
01353              -8.00     2400.00
01354             -10.00     2400.00
01355             -14.00     2400.00
01356             -10.00     2000.00
01357             -10.00     2000.00
01358             -10.00     2000.00
01359              -8.00     2000.00
01360              -6.00     1800.00
01361              -8.00     2000.00
01362             -10.00     1800.00
01363             -14.00     1600.00
01364              -2.00     1600.00
01365               0.00     1600.00
01366              -6.00     1600.00
01367              -8.00     1400.00
01368             -10.00     1200.00
01369             -10.00     1600.00
01370              -8.00     1400.00
01371               0.00     1400.00
01372              -2.00     1200.00
01373              -8.00     1200.00
01374             -10.00     1200.00
01375              -8.00     1000.00
01376              -6.00      800.00
01377              -6.00     1000.00
01378              -2.00      800.00
01379              -2.00      800.00
01380              -6.00      600.00
01381             -10.00      600.00
01382              -6.00      400.00
01383              -2.00      400.00
01384               0.00      400.00
01385              -2.00      400.00
01386              -8.00      200.00
01387              -2.00      200.00
01388               2.00        0.00
01389               0.00        0.00
01390               2.00        0.00
01391               6.00        0.00
01392              -2.00        0.00
01393              -8.00        0.00
01394              -6.00     -400.00
01395               2.00        0.00
01396              18.00     -400.00
01397              94.00     -400.00
01398             152.00     -400.00
01399            -122.00     -800.00
01400            -254.00     -600.00
01401             -62.00     -600.00
01402             246.00     -600.00
01403             246.00    -1000.00
01404            -254.00    -1000.00
01405            -254.00     -800.00
01406             246.00    -1200.00
01407             246.00    -1000.00
01408            -254.00    -1200.00
01409            -254.00    -1000.00
01410             246.00    -1400.00
01411             120.00    -1200.00
01412             -24.00    -1600.00
01413            -106.00    -1600.00
01414            -206.00    -1400.00
01415             118.00    -1600.00
01416             246.00    -1600.00
01417            -150.00    -1600.00
01418            -254.00    -1800.00
01419              80.00    -2000.00
01420             158.00    -2000.00
01421              24.00    -2000.00
01422             -74.00    -2000.00
01423            -114.00    -2000.00
01424              64.00    -2200.00
01425             170.00    -2400.00
01426            -104.00    -2400.00
01427            -114.00    -2200.00
01428              86.00    -2400.00
01429              72.00    -2400.00
01430             -34.00    -2600.00
01431             -26.00    -2600.00
01432             -16.00    -2800.00
01433              26.00    -2800.00
01434              50.00    -2800.00
01435             -32.00    -2800.00
01436             -34.00    -2800.00
01437              26.00    -3000.00
01438              38.00    -2800.00
01439              -2.00    -3000.00
01440             -18.00    -3000.00
01441              -8.00    -3000.00
01442              24.00    -3000.00
01443              24.00    -3200.00
01444             -14.00    -3200.00
01445             -10.00    -3200.00
01446              28.00    -3200.00
01447              14.00    -3200.00
01448             -22.00    -3200.00
01449               6.00    -3400.00
01450              22.00    -3400.00
01451              14.00    -3400.00
01452               2.00    -3400.00
01453              -2.00    -3600.00
01454              -2.00    -3400.00
01455              12.00    -3400.00
01456              16.00    -3600.00
01457               8.00    -3600.00
01458               0.00    -3600.00
01459               2.00    -3800.00
01460              14.00    -3600.00
01461               8.00    -3800.00
01462              -2.00    -3800.00
01463               6.00    -3800.00
01464              16.00    -3800.00
01465               8.00    -3800.00
01466              -2.00    -3800.00
01467               6.00    -3800.00
01468               8.00    -4000.00
01469               8.00    -3800.00
01470               8.00    -4000.00
01471               6.00    -4000.00
01472               8.00    -3800.00
01473               0.00    -4000.00
01474               2.00    -4000.00
01475               6.00    -4000.00
01476               8.00    -4000.00
01477              10.00    -4000.00
01478              12.00    -4000.00
01479               2.00    -4000.00
01480              -4.00    -4000.00
01481               6.00    -4000.00
01482              12.00    -4000.00
01483              10.00    -4000.00
01484               8.00    -4000.00
01485               0.00    -4000.00
01486               2.00    -4000.00
01487               2.00    -4000.00
01488               6.00    -4200.00
01489               8.00    -3800.00
01490               8.00    -4000.00
01491               2.00    -3800.00
01492               2.00    -4000.00
01493               6.00    -3800.00
01494               6.00    -4000.00
01495               8.00    -3800.00
01496              10.00    -3800.00
01497               6.00    -4000.00
01498               4.00    -3800.00
01499               6.00    -3800.00
01500               6.00    -4000.00
01501               6.00    -3800.00
01502               6.00    -3800.00
01503               6.00    -3600.00
01504               8.00    -3800.00
01505               6.00    -3600.00
01506               6.00    -3600.00
01507               2.00    -3800.00
01508               6.00    -3600.00
01509               8.00    -3600.00
01510              10.00    -3600.00
01511               8.00    -3600.00
01512               6.00    -3600.00
01513               2.00    -3600.00
01514               2.00    -3400.00
01515               2.00    -3400.00
01516               6.00    -3200.00
01517               6.00    -3200.00
01518               8.00    -3200.00
01519               6.00    -3200.00
01520               2.00    -3200.00
01521               0.00    -3200.00
01522               6.00    -3200.00
01523               6.00    -3200.00
01524               8.00    -3000.00
01525               6.00    -3000.00
01526               2.00    -3000.00
01527               0.00    -3000.00
01528               6.00    -2800.00
01529               6.00    -3000.00
01530               8.00    -2800.00
01531               6.00    -2800.00
01532               2.00    -2800.00
01533               0.00    -2800.00
01534               2.00    -2600.00
01535               2.00    -2600.00
01536               2.00    -2400.00
01537               2.00    -2400.00
01538               0.00    -2400.00
01539               0.00    -2400.00
01540               0.00    -2400.00
01541               0.00    -2200.00
01542               2.00    -2200.00
01543               2.00    -2200.00
01544               2.00    -2000.00
01545               0.00    -2000.00
01546               0.00    -2000.00
01547               0.00    -2000.00
01548              -2.00    -2000.00
01549               0.00    -2000.00
01550               0.00    -1600.00
01551               2.00    -1600.00
01552               2.00    -1600.00
01553              -2.00    -1600.00
01554              -2.00    -1600.00
01555              -2.00    -1400.00
01556               0.00    -1200.00
01557               2.00    -1400.00
01558               0.00    -1000.00
01559              -2.00    -1200.00
01560              -2.00    -1000.00
01561              -6.00    -1000.00
01562               0.00     -800.00
01563               2.00     -800.00
01564               2.00     -800.00
01565              -2.00     -800.00
01566              -6.00     -800.00
01567              -2.00     -600.00
01568              -2.00     -600.00
01569              -2.00     -400.00
01570               6.00     -600.00
01571               0.00     -400.00
01572              -2.00     -200.00
01573              -6.00     -200.00
01574              -2.00        0.00
01575               0.00        0.00
01576               2.00        0.00
01577              -6.00        0.00
01578              -6.00        0.00
01579               0.00      200.00
01580               6.00      200.00
01581               2.00      400.00
01582               6.00      400.00
01583               2.00      400.00
01584              -2.00      400.00
01585              -8.00      600.00
01586              -6.00      600.00
01587               6.00      800.00
01588              86.00      800.00
01589             194.00     1000.00
01590            -102.00     1000.00
01591            -254.00      800.00
01592             -78.00     1000.00
01593             246.00     1200.00
01594             246.00     1400.00
01595            -254.00      800.00
01596            -254.00     1200.00
01597             246.00     1600.00
01598             246.00     1400.00
01599            -254.00     1200.00
01600            -128.00     1600.00
01601             246.00     1800.00
01602             -70.00     1200.00
01603            -184.00     1800.00
01604              98.00     2000.00
01605            -128.00     1800.00
01606              -2.00     1800.00
01607             240.00     2000.00
01608            -142.00     1800.00
01609            -162.00     2000.00
01610             132.00     2200.00
01611             -10.00     2200.00
01612             -24.00     2200.00
01613              80.00     2600.00
01614            -184.00     2400.00
01615               2.00     2600.00
01616             230.00     2600.00
01617            -170.00     2400.00
01618            -130.00     2600.00
01619             184.00     2800.00
01620             -42.00     2600.00
01621             -74.00     2800.00
01622              66.00     3200.00
01623             -80.00     2800.00
01624               0.00     2800.00
01625              70.00     3200.00
01626             -88.00     3000.00
01627               6.00     3200.00
01628              16.00     3200.00
01629             -58.00     3200.00
01630              48.00     3400.00
01631              -6.00     3200.00
01632             -80.00     3400.00
01633              34.00     3400.00
01634               2.00     3400.00
01635             -46.00     3400.00
01636              18.00     3600.00
01637              -6.00     3400.00
01638             -24.00     3600.00
01639             -14.00     3600.00
01640             -16.00     3600.00
01641              10.00     3600.00
01642               0.00     4000.00
01643             -34.00     3600.00
01644              -6.00     3800.00
01645              -2.00     3800.00
01646             -26.00     3800.00
01647               0.00     3800.00
01648               6.00     4000.00
01649             -24.00     4000.00
01650             -16.00     4000.00
01651               2.00     4200.00
01652             -16.00     4000.00
01653             -18.00     4000.00
01654              -8.00     4200.00
01655              -6.00     4000.00
01656              -6.00     4200.00
01657             -18.00     4200.00
01658             -16.00     4400.00
01659               0.00     4200.00
01660             -22.00     4200.00
01661             -16.00     4200.00
01662               2.00     4200.00
01663             -18.00     4200.00
01664             -18.00     4400.00
01665              -8.00     4200.00
01666             -16.00     4400.00
01667             -14.00     4200.00
01668             -10.00     4400.00
01669             -16.00     4200.00
01670             -10.00     4200.00
01671             -16.00     4400.00
01672             -20.00     4400.00
01673              -6.00     4200.00
01674             -10.00     4400.00
01675             -14.00     4200.00
01676             -10.00     4200.00
01677             -18.00     4400.00
01678             -22.00     4200.00
01679              -8.00     4200.00
01680             -10.00     4200.00
01681             -14.00     4400.00
01682             -10.00     4200.00
01683             -16.00     4200.00
01684             -16.00     4200.00
01685             -14.00     4400.00
01686             -14.00     4200.00
01687              -8.00     4200.00
01688             -14.00     4200.00
01689             -18.00     4000.00
01690             -10.00     4000.00
01691             -10.00     4200.00
01692             -16.00     4200.00
01693             -12.00     4000.00
01694             -10.00     4200.00
01695             -16.00     4000.00
01696              -8.00     4200.00
01697              -6.00     4000.00
01698             -10.00     4000.00
01699             -18.00     4000.00
01700             -26.00     3800.00
01701             -16.00     4000.00
01702               0.00     4000.00
01703               2.00     3800.00
01704              -2.00     3800.00
01705             -22.00     4000.00
01706             -34.00     3600.00
01707             -18.00     3600.00
01708               4.00     3800.00
01709               6.00     3600.00
01710              -6.00     3600.00
01711             -18.00     3600.00
01712             -26.00     3600.00
01713             -16.00     3600.00
01714              -4.00     3400.00
01715               6.00     3400.00
01716              -6.00     3400.00
01717             -18.00     3600.00
01718             -24.00     3400.00
01719             -14.00     3200.00
01720              -8.00     3200.00
01721              -2.00     3000.00
01722               0.00     3200.00
01723             -10.00     3200.00
01724             -18.00     3000.00
01725             -16.00     3000.00
01726              -8.00     2800.00
01727              -4.00     2800.00
01728             -10.00     2800.00
01729             -10.00     2800.00
01730             -12.00     2800.00
01731             -12.00     2600.00
01732             -14.00     2600.00
01733              -6.00     2600.00
01734             -10.00     2600.00
01735             -10.00     2400.00
01736             -10.00     2400.00
01737              -6.00     2400.00
01738             -10.00     2400.00
01739             -14.00     2200.00
01740             -12.00     2000.00
01741              -8.00     2000.00
01742              -6.00     2000.00
01743              -6.00     2000.00
01744              -8.00     2000.00
01745             -10.00     1800.00
01746             -14.00     1800.00
01747              -8.00     1800.00
01748              -6.00     1600.00
01749              -8.00     1600.00
01750              -8.00     1600.00
01751              -8.00     1600.00
01752             -10.00     1200.00
01753              -8.00     1400.00
01754              -2.00     1400.00
01755              -2.00     1200.00
01756              -6.00     1200.00
01757              -8.00     1000.00
01758              -8.00     1000.00
01759              -6.00     1000.00
01760              -2.00      800.00
01761              -2.00      800.00
01762              -2.00      800.00
01763              -6.00      600.00
01764              -8.00      400.00
01765              -6.00      400.00
01766              -2.00      400.00
01767              -2.00      400.00
01768              -6.00      400.00
01769              -6.00      200.00
01770               0.00      200.00
01771               2.00        0.00
01772               0.00        0.00
01773               2.00        0.00
01774              14.00        0.00
01775               2.00        0.00
01776              -6.00     -400.00
01777              -8.00        0.00
01778               0.00     -200.00
01779              18.00     -400.00
01780              88.00     -400.00
01781             162.00     -600.00
01782             -86.00     -800.00
01783            -254.00     -800.00
01784            -136.00     -400.00
01785             246.00     -600.00
01786             246.00     -800.00
01787            -254.00    -1000.00
01788            -254.00     -800.00
01789             246.00    -1200.00
01790             246.00    -1000.00
01791            -254.00    -1000.00
01792            -254.00    -1200.00
01793             246.00    -1400.00
01794             146.00    -1400.00
01795             -18.00    -1600.00
01796             -94.00    -1600.00
01797            -208.00    -1600.00
01798              82.00    -1600.00
01799             246.00    -1800.00
01800            -108.00    -1600.00
01801            -254.00    -2000.00
01802              54.00    -2000.00
01803             168.00    -2000.00
01804              30.00    -2000.00
01805             -64.00    -2200.00
01806            -122.00    -2200.00
01807              46.00    -2000.00
01808             176.00    -2400.00
01809             -86.00    -2400.00
01810            -126.00    -2400.00
01811              74.00    -2600.00
01812              82.00    -2400.00
01813             -34.00    -2600.00
01814             -26.00    -2400.00
01815             -18.00    -2600.00
01816              22.00    -2800.00
01817              54.00    -2800.00
01818             -22.00    -3000.00
01819             -40.00    -2800.00
01820              18.00    -2800.00
01821              38.00    -3000.00
01822               0.00    -3200.00
01823             -14.00    -3000.00
01824             -10.00    -3000.00
01825              22.00    -3000.00
01826              24.00    -3000.00
01827             -10.00    -3200.00
01828             -12.00    -3200.00
01829              26.00    -3400.00
01830              16.00    -3200.00
01831             -22.00    -3200.00
01832               2.00    -3600.00
01833              22.00    -3400.00
01834              14.00    -3400.00
01835               2.00    -3600.00
01836               0.00    -3600.00
01837              -4.00    -3600.00
01838               8.00    -3600.00
01839              16.00    -3600.00
01840              14.00    -3600.00
01841               6.00    -3600.00
01842               0.00    -3600.00
01843               6.00    -3800.00
01844               6.00    -3800.00
01845               0.00    -3600.00
01846              14.00    -3800.00
01847              24.00    -3800.00
01848               6.00    -3800.00
01849             -10.00    -3800.00
01850               2.00    -3800.00
01851              14.00    -3800.00
01852              16.00    -3800.00
01853               8.00    -3800.00
01854               2.00    -4000.00
01855               6.00    -4000.00
01856               6.00    -3800.00
01857               6.00    -3800.00
01858               8.00    -4000.00
01859               0.00    -3800.00
01860               2.00    -4000.00
01861              10.00    -3800.00
01862              14.00    -4000.00
01863              -2.00    -4000.00
01864               0.00    -4000.00
01865               6.00    -4000.00
01866               6.00    -4000.00
01867              10.00    -4000.00
01868               8.00    -4000.00
01869               8.00    -4000.00
01870               2.00    -4000.00
01871               0.00    -4000.00
01872               6.00    -4000.00
01873              10.00    -4000.00
01874               8.00    -4000.00
01875               8.00    -4000.00
01876               6.00    -4000.00
01877              -6.00    -4000.00
01878               4.00    -4000.00
01879              12.00    -3800.00
01880              10.00    -4000.00
01881               8.00    -3800.00
01882              -2.00    -3800.00
01883               0.00    -4000.00
01884              10.00    -3800.00
01885              10.00    -3800.00
01886               6.00    -3800.00
01887               8.00    -3600.00
01888               6.00    -3800.00
01889               4.00    -3600.00
01890               6.00    -3800.00
01891               2.00    -3600.00
01892               8.00    -3600.00
01893              14.00    -3600.00
01894               2.00    -3600.00
01895              -2.00    -3600.00
01896               2.00    -3600.00
01897              10.00    -3600.00
01898              14.00    -3400.00
01899               8.00    -3200.00
01900               0.00    -3200.00
01901               0.00    -3200.00
01902               6.00    -3200.00
01903              14.00    -3200.00
01904              10.00    -3200.00
01905               2.00    -3200.00
01906               0.00    -3000.00
01907               6.00    -3000.00
01908               8.00    -3000.00
01909               6.00    -3000.00
01910               0.00    -3000.00
01911               0.00    -2800.00
01912               6.00    -2800.00
01913              10.00    -3000.00
01914               8.00    -2800.00
01915               6.00    -2800.00
01916               0.00    -2800.00
01917               0.00    -2800.00
01918               4.00    -2800.00
01919               2.00    -2600.00
01920               6.00    -2400.00
01921               6.00    -2400.00
01922               6.00    -2400.00
01923               0.00    -2400.00
01924               0.00    -2200.00
01925               2.00    -2200.00
01926               2.00    -2200.00
01927               2.00    -2200.00
01928               0.00    -2000.00
01929               0.00    -2000.00
01930               0.00    -1800.00
01931               0.00    -1800.00
01932               2.00    -2000.00
01933               0.00    -1800.00
01934               0.00    -1600.00
01935               2.00    -1600.00
01936               0.00    -1600.00
01937              -2.00    -1400.00
01938               0.00    -1400.00
01939               0.00    -1400.00
01940               0.00    -1000.00
01941               0.00    -1200.00
01942              -2.00    -1000.00
01943              -2.00    -1200.00
01944               0.00     -800.00
01945               0.00    -1000.00
01946               0.00     -800.00
01947               2.00     -800.00
01948               0.00     -800.00
01949              -2.00     -600.00
01950              -2.00     -600.00
01951              -2.00     -600.00
01952               0.00     -600.00
01953               0.00     -400.00
01954               0.00     -400.00
01955               0.00     -400.00
01956              -2.00     -400.00
01957              -2.00        0.00
01958              -2.00        0.00
01959               0.00        0.00
01960              -4.00      200.00
01961              -4.00        0.00
01962               2.00      200.00
01963               2.00      400.00
01964               0.00      200.00
01965               4.00      400.00
01966               8.00      400.00
01967               0.00      400.00
01968              -8.00      400.00
01969              -6.00      800.00
01970               2.00      800.00
01971              72.00      800.00
01972             198.00     1000.00
01973             -58.00      800.00
01974            -254.00      800.00
01975            -158.00     1000.00
01976             246.00     1200.00
01977             246.00     1400.00
01978            -254.00      800.00
01979            -254.00     1200.00
01980             246.00     1600.00
01981             246.00     1200.00
01982            -254.00     1200.00
01983            -206.00     1800.00
01984             246.00     1800.00
01985             -26.00     1600.00
01986            -202.00     1600.00
01987              98.00     2000.00
01988            -116.00     1800.00
01989             -32.00     1800.00
01990             240.00     2000.00
01991             -94.00     1800.00
01992            -186.00     2000.00
01993             116.00     2400.00
01994               6.00     2000.00
01995             -34.00     2200.00
01996              88.00     2400.00
01997            -168.00     2200.00
01998             -30.00     2600.00
01999             238.00     2600.00
02000            -144.00     2400.00
02001            -160.00     2800.00
02002             182.00     2800.00
02003             -16.00     2600.00
02004             -90.00     2800.00
02005              66.00     3200.00
02006             -68.00     2800.00
02007             -16.00     3200.00
02008              78.00     3200.00
02009             -82.00     3000.00
02010             -10.00     3200.00
02011              24.00     3200.00
02012             -60.00     3200.00
02013              42.00     3200.00
02014               6.00     3400.00
02015             -88.00     3200.00
02016              30.00     3400.00
02017              14.00     3400.00
02018             -48.00     3400.00
02019              14.00     3600.00
02020              -2.00     3400.00
02021             -26.00     3600.00
02022             -16.00     3600.00
02023             -16.00     3600.00
02024              10.00     3600.00
02025               0.00     3800.00
02026             -34.00     3600.00
02027             -10.00     3800.00
02028              -2.00     3800.00
02029             -26.00     4000.00
02030              -6.00     4000.00
02031               8.00     4000.00
02032             -24.00     4000.00
02033             -18.00     4000.00
02034               0.00     4000.00
02035             -16.00     4000.00
02036             -18.00     4000.00
02037              -2.00     4200.00
02038              -6.00     4200.00
02039              -4.00     4200.00
02040             -24.00     4000.00
02041             -22.00     4200.00
02042              -2.00     4200.00
02043             -16.00     4400.00
02044             -14.00     4000.00
02045               2.00     4200.00
02046             -16.00     4200.00
02047             -22.00     4400.00
02048              -6.00     4400.00
02049             -10.00     4400.00
02050             -16.00     4400.00
02051             -14.00     4200.00
02052             -10.00     4400.00
02053              -6.00     4400.00
02054             -14.00     4200.00
02055             -16.00     4400.00
02056             -10.00     4400.00
02057             -14.00     4200.00
02058             -16.00     4200.00
02059              -6.00     4400.00
02060              -8.00     4200.00
02061             -14.00     4400.00
02062             -18.00     4200.00
02063             -26.00     4200.00
02064             -24.00     4400.00
02065               0.00     4400.00
02066               8.00     4200.00
02067              -6.00     4400.00
02068             -26.00     4400.00
02069             -32.00     4200.00
02070             -18.00     4200.00
02071              -4.00     4200.00
02072               0.00     4400.00
02073               0.00     4400.00
02074             -14.00     4200.00
02075             -30.00     4200.00
02076             -22.00     4200.00
02077              -6.00     4200.00
02078              -8.00     4000.00
02079             -16.00     4000.00
02080             -14.00     4000.00
02081             -14.00     4000.00
02082             -14.00     4000.00
02083             -16.00     4000.00
02084             -16.00     4000.00
02085             -10.00     3800.00
02086              -8.00     4000.00
02087              -8.00     4000.00
02088             -10.00     4000.00
02089             -18.00     3800.00
02090             -18.00     3600.00
02091              -8.00     3800.00
02092              -6.00     3600.00
02093              -8.00     3600.00
02094             -10.00     3600.00
02095             -16.00     3600.00
02096             -10.00     3600.00
02097             -14.00     3400.00
02098             -16.00     3600.00
02099             -12.00     3400.00
02100             -10.00     3400.00
02101              -6.00     3400.00
02102              -2.00     3200.00
02103             -10.00     3200.00
02104             -16.00     3200.00
02105             -14.00     3200.00
02106             -10.00     3200.00
02107              -8.00     3200.00
02108              -4.00     3000.00
02109              -8.00     3000.00
02110             -10.00     2800.00
02111             -10.00     2800.00
02112              -2.00     2800.00
02113              -8.00     2600.00
02114              -8.00     2800.00
02115             -14.00     2800.00
02116              -8.00     2400.00
02117             -10.00     2600.00
02118              -8.00     2400.00
02119             -10.00     2400.00
02120              -6.00     2400.00
02121              -8.00     2400.00
02122             -10.00     2200.00
02123              -8.00     2000.00
02124             -10.00     2000.00
02125             -12.00     2000.00
02126              -2.00     2000.00
02127              -6.00     1800.00
02128              -8.00     2000.00
02129             -10.00     1800.00
02130             -10.00     1600.00
02131              -6.00     1600.00
02132              -6.00     1600.00
02133              -6.00     1600.00
02134              -6.00     1400.00
02135              -8.00     1600.00
02136              -8.00     1200.00
02137              -6.00     1200.00
02138              -2.00     1200.00
02139              -6.00     1000.00
02140              -6.00     1200.00
02141              -8.00     1000.00
02142              -6.00      800.00
02143              -8.00      800.00
02144              -2.00     1000.00
02145              -2.00      800.00
02146               0.00      800.00
02147              -6.00      600.00
02148              -2.00      400.00
02149              -2.00      600.00
02150              -2.00      400.00
02151              -8.00      200.00
02152              -8.00      200.00
02153              -2.00      200.00
02154               8.00      200.00
02155               0.00      200.00
02156               0.00        0.00
02157               6.00        0.00
02158               0.00        0.00
02159              -2.00        0.00
02160               0.00     -200.00
02161               0.00     -400.00
02162              14.00     -400.00
02163              74.00     -400.00
02164             164.00     -600.00
02165             -48.00     -800.00
02166            -254.00     -800.00
02167            -206.00     -400.00
02168             246.00     -800.00
02169             246.00     -800.00
02170            -254.00    -1000.00
02171            -254.00     -800.00
02172             246.00    -1400.00
02173             246.00    -1000.00
02174            -254.00    -1000.00
02175            -254.00    -1200.00
02176             246.00    -1400.00
02177             162.00    -1400.00
02178             -16.00    -1400.00
02179             -80.00    -1600.00
02180            -206.00    -1600.00
02181              48.00    -1400.00
02182             246.00    -1600.00
02183             -62.00    -1600.00
02184            -254.00    -1600.00
02185              24.00    -2000.00
02186             180.00    -1800.00
02187              38.00    -2000.00
02188             -56.00    -2200.00
02189            -128.00    -2000.00
02190              28.00    -2000.00
02191             184.00    -2200.00
02192             -56.00    -2400.00
02193            -142.00    -2200.00
02194              58.00    -2600.00
02195              90.00    -2400.00
02196             -32.00    -2400.00
02197             -24.00    -2600.00
02198             -20.00    -2800.00
02199              18.00    -2600.00
02200              52.00    -2800.00
02201             -16.00    -2800.00
02202             -42.00    -2800.00
02203              14.00    -2800.00
02204              38.00    -3000.00
02205               0.00    -3000.00
02206             -14.00    -3000.00
02207             -14.00    -3000.00
02208              16.00    -3000.00
02209              24.00    -3200.00
02210              -6.00    -3000.00
02211             -10.00    -3200.00
02212              30.00    -3200.00
02213              24.00    -3200.00
02214             -18.00    -3200.00
02215             -10.00    -3200.00
02216               8.00    -3400.00
02217               6.00    -3400.00
02218               2.00    -3600.00
02219               0.00    -3400.00
02220               6.00    -3600.00
02221              20.00    -3600.00
02222              26.00    -3600.00
02223              10.00    -3600.00
02224              -2.00    -3800.00
02225             -10.00    -3600.00
02226              -2.00    -3600.00
02227               6.00    -3600.00
02228              -2.00    -3800.00
02229              14.00    -3800.00
02230              30.00    -3800.00
02231              14.00    -3800.00
02232               0.00    -3800.00
02233               2.00    -3800.00
02234               2.00    -4000.00
02235               2.00    -3800.00
02236               8.00    -3800.00
02237               8.00    -4000.00
02238               6.00    -3800.00
02239               2.00    -3800.00
02240               8.00    -4000.00
02241              16.00    -4000.00
02242              10.00    -4000.00
02243               2.00    -4000.00
02244              10.00    -3800.00
02245               6.00    -4200.00
02246              -2.00    -4000.00
02247               0.00    -3800.00
02248               8.00    -3800.00
02249              10.00    -4000.00
02250              14.00    -3800.00
02251              10.00    -4000.00
02252              10.00    -4000.00
02253               2.00    -3800.00
02254               0.00    -4000.00
02255               6.00    -4000.00
02256              10.00    -3800.00
02257               4.00    -4000.00
02258               2.00    -4000.00
02259               6.00    -4000.00
02260               8.00    -3800.00
02261               8.00    -4000.00
02262               8.00    -3800.00
02263               6.00    -3800.00
02264               6.00    -4000.00
02265               6.00    -3800.00
02266               0.00    -3800.00
02267               2.00    -3800.00
02268               8.00    -3800.00
02269               8.00    -3600.00
02270              10.00    -3800.00
02271               8.00    -3600.00
02272               2.00    -3600.00
02273               0.00    -3600.00
02274               6.00    -3600.00
02275               2.00    -3600.00
02276              10.00    -3600.00
02277               8.00    -3600.00
02278               8.00    -3600.00
02279               6.00    -3600.00
02280               2.00    -3400.00
02281               2.00    -3600.00
02282               6.00    -3400.00
02283               8.00    -3400.00
02284               8.00    -3200.00
02285               6.00    -3200.00
02286               2.00    -3200.00
02287               0.00    -3200.00
02288               6.00    -3200.00
02289               6.00    -3200.00
02290               6.00    -3000.00
02291               8.00    -3200.00
02292               6.00    -3000.00
02293               0.00    -2800.00
02294               8.00    -2800.00
02295               6.00    -3000.00
02296               2.00    -2800.00
02297               6.00    -2800.00
02298               2.00    -2800.00
02299               6.00    -2800.00
02300               8.00    -2800.00
02301               2.00    -2800.00
02302               2.00    -2400.00
02303               2.00    -2400.00
02304               6.00    -2400.00
02305              10.00    -2400.00
02306               4.00    -2200.00
02307              -8.00    -2200.00
02308               0.00    -2200.00
02309              10.00    -2000.00
02310              10.00    -2000.00
02311               6.00    -2000.00
02312              -2.00    -2000.00
02313               0.00    -2000.00
02314               2.00    -1800.00
02315               6.00    -2000.00
02316               0.00    -1600.00
02317               2.00    -1600.00
02318               0.00    -1600.00
02319               0.00    -1600.00
02320               0.00    -1400.00
02321               0.00    -1400.00
02322               0.00    -1000.00
02323               2.00    -1400.00
02324               0.00    -1400.00
02325              -2.00    -1000.00
02326              -2.00    -1000.00
02327              -2.00     -800.00
02328               0.00    -1000.00
02329               0.00     -800.00
02330               0.00     -800.00
02331               0.00     -600.00
02332              -2.00     -600.00
02333              -4.00     -600.00
02334              -4.00     -400.00
02335              -2.00     -400.00
02336              -2.00     -400.00
02337               6.00     -400.00
02338               0.00        0.00
02339              -6.00     -200.00
02340              -8.00        0.00
02341              -6.00        0.00
02342               2.00        0.00
02343               0.00        0.00
02344              -6.00        0.00
02345              -2.00      200.00
02346               0.00      400.00
02347               0.00      400.00
02348               6.00      400.00
02349               8.00      400.00
02350              -2.00      400.00
02351             -10.00      600.00
02352              -6.00      800.00
02353               2.00      800.00
02354              62.00      800.00
02355             194.00     1000.00
02356             -22.00     1000.00
02357            -254.00      800.00
02358            -232.00     1000.00
02359             246.00     1200.00
02360             246.00     1400.00
02361            -254.00      800.00
02362            -254.00     1200.00
02363             246.00     1600.00
02364             246.00     1600.00
02365            -254.00     1200.00
02366            -254.00     1800.00
02367             246.00     1800.00
02368              24.00     1600.00
02369            -220.00     1600.00
02370              90.00     2200.00
02371             -96.00     1600.00
02372             -58.00     2000.00
02373             238.00     2200.00
02374             -52.00     2000.00
02375            -210.00     2000.00
02376             104.00     2400.00
02377              30.00     2400.00
02378             -42.00     2400.00
02379              94.00     2400.00
02380            -152.00     2200.00
02381             -64.00     2600.00
02382             240.00     2400.00
02383            -106.00     2600.00
02384            -190.00     2600.00
02385             174.00     2800.00
02386              10.00     2800.00
02387            -104.00     2600.00
02388              64.00     3200.00
02389             -58.00     2800.00
02390             -32.00     3200.00
02391              84.00     3200.00
02392             -72.00     3200.00
02393             -22.00     3200.00
02394              30.00     3400.00
02395             -60.00     3200.00
02396              30.00     3400.00
02397              18.00     3400.00
02398             -86.00     3400.00
02399              20.00     3400.00
02400              22.00     3400.00
02401             -48.00     3600.00
02402               8.00     3600.00
02403              -2.00     3600.00
02404             -32.00     3600.00
02405              -6.00     3600.00
02406             -16.00     3600.00
02407              -2.00     3600.00
02408               6.00     4000.00
02409             -32.00     3600.00
02410             -10.00     3800.00
02411               2.00     3800.00
02412             -30.00     4000.00
02413             -10.00     4000.00
02414               8.00     4000.00
02415             -18.00     4000.00
02416             -14.00     4000.00
02417              -6.00     4000.00
02418             -32.00     4000.00
02419             -26.00     4000.00
02420               6.00     4200.00
02421              16.00     4200.00
02422               6.00     4200.00
02423             -32.00     4200.00
02424             -38.00     4200.00
02425              -8.00     4200.00
02426             -10.00     4200.00
02427              -8.00     4400.00
02428               8.00     4200.00
02429             -16.00     4200.00
02430             -38.00     4200.00
02431             -22.00     4400.00
02432              -2.00     4400.00
02433              14.00     4200.00
02434               8.00     4400.00
02435             -22.00     4400.00
02436             -34.00     4400.00
02437             -26.00     4400.00
02438              -6.00     4400.00
02439              10.00     4400.00
02440              -4.00     4400.00
02441             -26.00     4400.00
02442             -18.00     4800.00
02443              -8.00     4400.00
02444             -10.00     4200.00
02445             -10.00     4200.00
02446             -14.00     4400.00
02447             -18.00     4400.00
02448             -10.00     4200.00
02449             -10.00     4200.00
02450             -16.00     4400.00
02451             -14.00     4400.00
02452             -10.00     4200.00
02453              -8.00     4400.00
02454             -10.00     4000.00
02455             -16.00     4200.00
02456             -14.00     4200.00
02457             -16.00     4200.00
02458             -16.00     4000.00
02459             -14.00     4200.00
02460              -8.00     4000.00
02461             -14.00     4200.00
02462             -16.00     4000.00
02463             -10.00     4000.00
02464             -10.00     4000.00
02465             -18.00     4000.00
02466             -14.00     4000.00
02467              -8.00     4000.00
02468             -10.00     3800.00
02469             -14.00     3800.00
02470             -16.00     3800.00
02471             -14.00     3800.00
02472             -10.00     3800.00
02473              -8.00     3600.00
02474             -10.00     3800.00
02475             -14.00     3600.00
02476             -16.00     3800.00
02477             -12.00     3600.00
02478              -8.00     3600.00
02479             -10.00     3600.00
02480             -10.00     3400.00
02481              -8.00     3400.00
02482             -10.00     3400.00
02483             -10.00     3400.00
02484             -16.00     3400.00
02485              -8.00     3400.00
02486              -8.00     3200.00
02487              -8.00     3200.00
02488              -8.00     3200.00
02489             -10.00     3200.00
02490             -12.00     3000.00
02491              -8.00     3000.00
02492              -6.00     2800.00
02493              -8.00     2800.00
02494             -14.00     2800.00
02495              -8.00     2800.00
02496             -10.00     2800.00
02497             -10.00     2800.00
02498             -10.00     2600.00
02499              -2.00     2600.00
02500              -2.00     2400.00
02501              -6.00     2400.00
02502              -6.00     2400.00
02503              -8.00     2400.00
02504             -10.00     2200.00
02505             -10.00     2200.00
02506              -8.00     2400.00
02507              -2.00     2200.00
02508              -6.00     2000.00
02509              -8.00     2000.00
02510             -10.00     1800.00
02511             -10.00     1800.00
02512              -6.00     1800.00
02513              -6.00     1800.00
02514              -6.00     1600.00
02515             -10.00     1800.00
02516             -10.00     1600.00
02517              -8.00     1400.00
02518              -6.00     1200.00
02519              -8.00     1200.00
02520              -8.00     1200.00
02521              -2.00     1200.00
02522              -2.00     1200.00
02523              -8.00     1000.00
02524              -8.00     1200.00
02525              -6.00     1000.00
02526              -8.00      800.00
02527              -6.00      800.00
02528              -2.00      800.00
02529              -6.00      800.00
02530              -8.00      600.00
02531              -6.00      600.00
02532               0.00      400.00
02533              -2.00      600.00
02534              -8.00      400.00
02535             -10.00      200.00
02536              -2.00        0.00
02537               4.00      200.00
02538               0.00        0.00
02539              -2.00        0.00
02540               6.00        0.00
02541               2.00        0.00
02542              -6.00     -200.00
02543              -8.00     -200.00
02544              -2.00     -400.00
02545              12.00     -400.00
02546              66.00     -400.00
02547             162.00     -600.00
02548             -22.00     -800.00
02549            -254.00     -800.00
02550            -254.00     -600.00
02551             246.00     -600.00
02552             246.00     -800.00
02553            -254.00    -1000.00
02554            -254.00     -800.00
02555             246.00    -1200.00
02556             246.00    -1000.00
02557            -254.00    -1000.00
02558            -254.00    -1200.00
02559             246.00    -1400.00
02560             190.00    -1400.00
02561              -8.00    -1400.00
02562             -66.00    -1600.00
02563            -208.00    -1400.00
02564               8.00    -1600.00
02565             246.00    -1600.00
02566             -10.00    -1600.00
02567            -254.00    -1800.00
02568             -10.00    -2000.00
02569             182.00    -2000.00
02570              52.00    -2000.00
02571             -40.00    -2200.00
02572            -130.00    -2200.00
02573               0.00    -2000.00
02574             186.00    -2200.00
02575             -26.00    -2200.00
02576            -148.00    -2200.00
02577              40.00    -2400.00
02578              98.00    -2400.00
02579             -24.00    -2400.00
02580             -16.00    -2600.00
02581             -22.00    -2800.00
02582               6.00    -2800.00
02583              42.00    -2800.00
02584              -8.00    -2800.00
02585             -38.00    -2800.00
02586              20.00    -3000.00
02587              34.00    -2800.00
02588              -2.00    -3000.00
02589             -16.00    -3000.00
02590             -10.00    -3000.00
02591              18.00    -3000.00
02592              22.00    -3200.00
02593              -8.00    -3200.00
02594             -16.00    -3200.00
02595              26.00    -3200.00
02596              18.00    -3400.00
02597             -24.00    -3200.00
02598              -8.00    -3200.00
02599              20.00    -3600.00
02600              16.00    -3400.00
02601               0.00    -3600.00
02602              -2.00    -3600.00
02603              -4.00    -3600.00
02604               6.00    -3600.00
02605              14.00    -3600.00
02606               8.00    -3600.00
02607               0.00    -3600.00
02608               0.00    -3600.00
02609              16.00    -3600.00
02610              14.00    -3600.00
02611              -2.00    -3800.00
02612              -4.00    -3800.00
02613              14.00    -3600.00
02614              10.00    -3800.00
02615              -2.00    -3800.00
02616               6.00    -3800.00
02617              14.00    -3800.00
02618               6.00    -3800.00
02619               8.00    -3800.00
02620               8.00    -4000.00
02621               2.00    -4000.00
02622               2.00    -4200.00
02623               8.00    -3800.00
02624              14.00    -4000.00
02625              14.00    -3800.00
02626               0.00    -4000.00
02627              -2.00    -3800.00
02628               8.00    -3800.00
02629              10.00    -4000.00
02630              14.00    -4000.00
02631              10.00    -4000.00
02632              -6.00    -4000.00
02633              -2.00    -3800.00
02634              16.00    -4000.00
02635              20.00    -4000.00
02636              10.00    -4000.00
02637               0.00    -4000.00
02638              -2.00    -4000.00
02639               8.00    -3800.00
02640              14.00    -4000.00
02641               8.00    -4000.00
02642               8.00    -4000.00
02643               0.00    -4000.00
02644              -2.00    -3800.00
02645               8.00    -4000.00
02646               8.00    -3800.00
02647               6.00    -4000.00
02648              10.00    -3800.00
02649               2.00    -3800.00
02650               0.00    -3800.00
02651               8.00    -3800.00
02652               8.00    -3800.00
02653               8.00    -3600.00
02654               6.00    -3800.00
02655               2.00    -3600.00
02656               2.00    -3600.00
02657               8.00    -3600.00
02658               0.00    -3600.00
02659               6.00    -3600.00
02660               6.00    -3600.00
02661               6.00    -3600.00
02662               8.00    -3400.00
02663               8.00    -3600.00
02664              -2.00    -3600.00
02665               0.00    -3200.00
02666               6.00    -3400.00
02667              10.00    -3600.00
02668              10.00    -3200.00
02669               4.00    -3200.00
02670              -2.00    -3200.00
02671               2.00    -3200.00
02672               2.00    -3000.00
02673              10.00    -3200.00
02674              12.00    -3000.00
02675               4.00    -3000.00
02676               0.00    -3000.00
02677              -2.00    -3000.00
02678               0.00    -2800.00
02679               6.00    -2800.00
02680              10.00    -2800.00
02681               8.00    -2800.00
02682               2.00    -2800.00
02683              -2.00    -2800.00
02684              -2.00    -2400.00
02685               6.00    -2600.00
02686               8.00    -2400.00
02687               8.00    -2400.00
02688               6.00    -2400.00
02689               0.00    -2400.00
02690              -2.00    -2200.00
02691               2.00    -2200.00
02692               6.00    -2200.00
02693               6.00    -2200.00
02694               6.00    -2000.00
02695               0.00    -2000.00
02696              -2.00    -2000.00
02697               0.00    -1800.00
02698               4.00    -1800.00
02699               6.00    -1600.00
02700               2.00    -1600.00
02701               0.00    -1600.00
02702               0.00    -1400.00
02703               2.00    -1400.00
02704               0.00    -1400.00
02705               2.00    -1400.00
02706               2.00    -1000.00
02707               0.00    -1200.00
02708               0.00    -1000.00
02709              -2.00    -1200.00
02710              -2.00     -800.00
02711               0.00     -800.00
02712               0.00     -800.00
02713              -2.00     -800.00
02714              -2.00     -800.00
02715              -4.00     -600.00
02716              -2.00     -800.00
02717               2.00     -600.00
02718               0.00     -600.00
02719              -6.00     -400.00
02720              -4.00     -600.00
02721              -6.00     -400.00
02722              -2.00     -400.00
02723              -2.00        0.00
02724               2.00        0.00
02725               0.00        0.00
02726              -8.00        0.00
02727             -10.00      200.00
02728              -2.00      200.00
02729               0.00      200.00
02730               2.00      200.00
02731               2.00      400.00
02732               6.00      400.00
02733               0.00      400.00
02734              -6.00      400.00
02735              -6.00      600.00
02736              -2.00      600.00
02737              48.00      800.00
02738             192.00     1000.00
02739              18.00     1000.00
02740            -254.00      800.00
02741            -254.00      800.00
02742             246.00     1200.00
02743             246.00     1400.00
02744            -254.00     1000.00
02745            -254.00     1200.00
02746             246.00     1600.00
02747             246.00     1400.00
02748            -254.00     1200.00
02749            -254.00     1600.00
02750             246.00     1800.00
02751              74.00     1600.00
02752            -232.00     1800.00
02753              78.00     2000.00
02754             -74.00     1800.00
02755             -78.00     1800.00
02756             230.00     2000.00
02757             -14.00     2000.00
02758            -230.00     2000.00
02759              80.00     2200.00
02760              38.00     2400.00
02761             -50.00     2400.00
02762             106.00     2600.00
02763            -114.00     2200.00
02764             -98.00     2600.00
02765             224.00     2600.00
02766             -82.00     2600.00
02767            -210.00     2600.00
02768             174.00     2800.00
02769              48.00     2600.00
02770            -118.00     2600.00
02771              50.00     3200.00
02772             -54.00     2800.00
02773             -46.00     3000.00
02774              96.00     3200.00
02775             -54.00     3000.00
02776             -38.00     2800.00
02777              30.00     3200.00
02778             -62.00     3200.00
02779              24.00     3200.00
02780              32.00     3400.00
02781             -86.00     3200.00
02782               6.00     3400.00
02783              24.00     3600.00
02784             -50.00     3400.00
02785               4.00     3600.00
02786               6.00     3600.00
02787             -26.00     3600.00
02788             -18.00     3600.00
02789             -24.00     3600.00
02790               6.00     3800.00
02791              14.00     3600.00
02792             -34.00     3800.00
02793             -22.00     3600.00
02794              -2.00     3800.00
02795             -24.00     3800.00
02796              -4.00     4000.00
02797              12.00     4000.00
02798             -26.00     4000.00
02799             -26.00     4000.00
02800               0.00     4000.00
02801              -8.00     4000.00
02802             -16.00     4000.00
02803             -10.00     4200.00
02804             -10.00     4000.00
02805              -4.00     4000.00
02806             -18.00     4200.00
02807             -22.00     4000.00
02808              -2.00     4200.00
02809             -16.00     4200.00
02810             -18.00     4200.00
02811               0.00     4400.00
02812              -6.00     4200.00
02813             -22.00     4400.00
02814              -8.00     4400.00
02815             -10.00     4200.00
02816             -18.00     4200.00
02817              -8.00     4400.00
02818              -8.00     4400.00
02819              -8.00     4200.00
02820             -10.00     4400.00
02821             -22.00     4400.00
02822             -10.00     4200.00
02823              -8.00     4400.00
02824             -14.00     4400.00
02825              -6.00     4400.00
02826              -8.00     4400.00
02827             -18.00     4200.00
02828             -16.00     4400.00
02829             -10.00     4200.00
02830             -10.00     4400.00
02831              -6.00     4400.00
02832             -10.00     4200.00
02833             -14.00     4200.00
02834             -14.00     4400.00
02835             -10.00     4200.00
02836             -10.00     4200.00
02837             -10.00     4200.00
02838             -10.00     4200.00
02839             -10.00     4000.00
02840             -14.00     4200.00
02841             -24.00     4200.00
02842             -14.00     4200.00
02843              -2.00     4000.00
02844              -8.00     4000.00
02845             -16.00     4000.00
02846             -14.00     4200.00
02847             -16.00     4000.00
02848             -10.00     4000.00
02849             -10.00     4000.00
02850              -8.00     4000.00
02851             -14.00     4000.00
02852             -16.00     4000.00
02853             -18.00     3800.00
02854              -8.00     3600.00
02855              -6.00     3800.00
02856             -10.00     3800.00
02857             -14.00     3600.00
02858             -16.00     3600.00
02859             -10.00     3600.00
02860              -8.00     3600.00
02861             -14.00     3600.00
02862             -16.00     3600.00
02863             -10.00     3400.00
02864              -6.00     3400.00
02865              -8.00     3200.00
02866             -12.00     3400.00
02867             -16.00     3400.00
02868             -10.00     3200.00
02869             -10.00     3200.00
02870             -10.00     3200.00
02871              -8.00     3200.00
02872             -10.00     3200.00
02873             -12.00     3000.00
02874              -6.00     3000.00
02875             -10.00     3000.00
02876             -10.00     3000.00
02877             -10.00     2800.00
02878              -2.00     2800.00
02879              -2.00     2600.00
02880             -10.00     2800.00
02881             -18.00     2600.00
02882              -8.00     2600.00
02883              -2.00     2400.00
02884              -6.00     2600.00
02885              -8.00     2600.00
02886             -10.00     2400.00
02887             -14.00     2200.00
02888             -10.00     2200.00
02889              -8.00     2400.00
02890              -8.00     2000.00
02891              -4.00     2000.00
02892              -6.00     2000.00
02893              -6.00     1800.00
02894              -8.00     1800.00
02895             -14.00     1800.00
02896              -8.00     1800.00
02897              -2.00     1800.00
02898              -6.00     1600.00
02899              -6.00     1600.00
02900              -6.00     1400.00
02901              -8.00     1400.00
02902             -14.00     1600.00
02903              -8.00     1200.00
02904               0.00     1200.00
02905               0.00     1200.00
02906             -10.00     1000.00
02907             -10.00     1000.00
02908              -8.00     1000.00
02909              -8.00      800.00
02910              -2.00      800.00
02911               0.00      800.00
02912              -2.00      800.00
02913              -8.00      600.00
02914             -10.00      400.00
02915              -6.00      400.00
02916               0.00      400.00
02917              -6.00      400.00
02918              -8.00      400.00
02919              -6.00        0.00
02920               0.00      200.00
02921               0.00        0.00
02922               0.00      200.00
02923               6.00        0.00
02924               0.00        0.00
02925              -8.00        0.00
02926             -10.00     -200.00
02927               0.00     -400.00
02928              12.00     -400.00
02929              58.00     -400.00
02930             162.00     -400.00
02931               8.00     -800.00
02932            -254.00     -800.00
02933            -254.00     -400.00
02934             246.00     -600.00
02935             246.00     -800.00
02936            -254.00    -1000.00
02937            -254.00     -600.00
02938             246.00    -1200.00
02939             246.00    -1000.00
02940            -254.00    -1000.00
02941            -254.00    -1200.00
02942             216.00    -1400.00
02943             216.00    -1000.00
02944              -2.00    -1400.00
02945             -62.00    -1600.00
02946            -206.00    -1600.00
02947             -22.00    -1600.00
02948             246.00    -1800.00
02949              30.00    -1600.00
02950            -254.00    -1600.00
02951             -38.00    -2000.00
02952             186.00    -1800.00
02953              58.00    -2000.00
02954             -34.00    -2200.00
02955            -128.00    -2200.00
02956             -10.00    -2000.00
02957             182.00    -2400.00
02958              -6.00    -2400.00
02959            -154.00    -2200.00
02960              30.00    -2400.00
02961             112.00    -2400.00
02962             -22.00    -2400.00
02963             -24.00    -2400.00
02964             -24.00    -2600.00
02965              10.00    -2600.00
02966              50.00    -2800.00
02967               2.00    -2800.00
02968             -48.00    -2800.00
02969               6.00    -2800.00
02970              38.00    -2800.00
02971              10.00    -3000.00
02972             -12.00    -3000.00
02973             -18.00    -3000.00
02974              14.00    -3000.00
02975              26.00    -3200.00
02976               0.00    -3000.00
02977             -22.00    -3200.00
02978              16.00    -3200.00
02979              22.00    -3200.00
02980             -16.00    -3200.00
02981             -10.00    -3200.00
02982              22.00    -3200.00
02983              16.00    -3400.00
02984               2.00    -3400.00
02985               0.00    -3600.00
02986              -6.00    -3600.00
02987               4.00    -3400.00
02988              16.00    -3600.00
02989              10.00    -3600.00
02990               2.00    -3600.00
02991               0.00    -3800.00
02992               6.00    -3800.00
02993              10.00    -3800.00
02994               0.00    -3800.00
02995               2.00    -3800.00
02996              16.00    -3800.00
02997              10.00    -3800.00
02998              -2.00    -3800.00
02999               0.00    -3800.00
03000               8.00    -3800.00
03001               8.00    -4000.00
03002               8.00    -3800.00
03003               6.00    -3800.00
03004              10.00    -3800.00
03005               6.00    -4000.00
03006               2.00    -4000.00
03007               6.00    -3800.00
03008               8.00    -3800.00
03009               6.00    -4200.00
03010              12.00    -3800.00
03011              10.00    -4000.00
03012               0.00    -4000.00
03013               4.00    -4000.00
03014              10.00    -3800.00
03015              10.00    -4000.00
03016               8.00    -4000.00
03017               8.00    -4000.00
03018               8.00    -4000.00
03019               6.00    -3800.00
03020               2.00    -4000.00
03021               8.00    -4000.00
03022              10.00    -3800.00
03023               8.00    -4000.00
03024              10.00    -4000.00
03025               6.00    -4000.00
03026               4.00    -3800.00
03027               6.00    -4000.00
03028               8.00    -4000.00
03029              10.00    -3800.00
03030              10.00    -3800.00
03031               6.00    -4000.00
03032               4.00    -3800.00
03033               2.00    -3800.00
03034               6.00    -3800.00
03035               6.00    -3800.00
03036               8.00    -3800.00
03037               6.00    -3600.00
03038               6.00    -3800.00
03039               2.00    -3800.00
03040               6.00    -3600.00
03041               8.00    -3600.00
03042               8.00    -3800.00
03043               6.00    -3600.00
03044               6.00    -3600.00
03045               2.00    -3600.00
03046               6.00    -3400.00
03047               2.00    -3400.00
03048               6.00    -3600.00
03049               6.00    -3400.00
03050               6.00    -3200.00
03051               6.00    -3200.00
03052               2.00    -3200.00
03053               2.00    -3200.00
03054               6.00    -3200.00
03055               6.00    -3000.00
03056               8.00    -3000.00
03057               6.00    -3000.00
03058               2.00    -3200.00
03059               2.00    -3000.00
03060               4.00    -2800.00
03061               6.00    -3000.00
03062               6.00    -2800.00
03063               8.00    -2800.00
03064               2.00    -2800.00
03065               2.00    -2800.00
03066               0.00    -2600.00
03067               0.00    -2600.00
03068               4.00    -2400.00
03069               4.00    -2400.00
03070               6.00    -2400.00
03071               2.00    -2400.00
03072               2.00    -2400.00
03073               0.00    -2200.00
03074               2.00    -2200.00
03075               2.00    -2200.00
03076               6.00    -2000.00
03077               6.00    -2000.00
03078               2.00    -1800.00
03079               0.00    -2000.00
03080               0.00    -2000.00
03081               2.00    -2000.00
03082               6.00    -1600.00
03083               2.00    -1600.00
03084               0.00    -1600.00
03085               0.00    -1600.00
03086               0.00    -1600.00
03087               0.00    -1400.00
03088               0.00    -1000.00
03089               6.00    -1200.00
03090               0.00    -1200.00
03091               0.00    -1000.00
03092               0.00    -1000.00
03093               0.00    -1000.00
03094               0.00     -800.00
03095               0.00     -800.00
03096               2.00     -800.00
03097               4.00     -800.00
03098               0.00     -600.00
03099               0.00     -600.00
03100              -2.00     -600.00
03101              -2.00     -400.00
03102              -2.00     -400.00
03103               0.00     -400.00
03104               0.00     -400.00
03105              -2.00     -200.00
03106              -6.00     -200.00
03107              -2.00        0.00
03108              -2.00        0.00
03109              -2.00      200.00
03110              -6.00      200.00
03111               2.00        0.00
03112               0.00      200.00
03113               0.00      200.00
03114               0.00      400.00
03115               6.00      400.00
03116              -2.00      400.00
03117              -8.00      400.00
03118              -8.00      600.00
03119               0.00      800.00
03120              46.00      800.00
03121             182.00     1000.00
03122              46.00     1000.00
03123            -254.00      800.00
03124            -254.00      800.00
03125             246.00     1200.00
03126             246.00     1400.00
03127            -254.00     1000.00
03128            -254.00     1000.00
03129             246.00     1600.00
03130             246.00     1600.00
03131            -254.00     1200.00
03132            -254.00     1600.00
03133             246.00     1800.00
03134             130.00     1600.00
03135            -242.00     1600.00
03136              56.00     2000.00
03137             -48.00     1800.00
03138             -98.00     1800.00
03139             214.00     2000.00
03140              26.00     2000.00
03141            -242.00     2000.00
03142              70.00     2200.00
03143              64.00     2400.00
03144             -64.00     2200.00
03145              94.00     2600.00
03146            -104.00     2400.00
03147            -120.00     2400.00
03148             236.00     2600.00
03149             -30.00     2600.00
03150            -234.00     2600.00
03151             138.00     2800.00
03152              64.00     2600.00
03153            -120.00     2600.00
03154              56.00     3200.00
03155             -30.00     2800.00
03156             -60.00     2800.00
03157              86.00     3200.00
03158             -48.00     3000.00
03159             -38.00     3200.00
03160              42.00     3200.00
03161             -56.00     3200.00
03162              10.00     3200.00
03163              40.00     3400.00
03164             -86.00     3200.00
03165               0.00     3400.00
03166              34.00     3400.00
03167             -48.00     3400.00
03168              -2.00     3400.00
03169              16.00     3600.00
03170             -24.00     3400.00
03171             -26.00     3600.00
03172             -26.00     3600.00
03173               6.00     3600.00
03174              16.00     3600.00
03175             -28.00     4000.00
03176             -30.00     3800.00
03177             -10.00     4000.00
03178             -22.00     4000.00
03179               0.00     3800.00
03180              22.00     4000.00
03181             -26.00     4000.00
03182             -40.00     4000.00
03183               0.00     4000.00
03184               2.00     4000.00
03185             -20.00     4000.00
03186             -18.00     4000.00
03187             -14.00     4000.00
03188              -2.00     4200.00
03189             -12.00     4200.00
03190             -16.00     4200.00
03191              -2.00     4200.00
03192             -14.00     4200.00
03193             -26.00     4200.00
03194              -2.00     4200.00
03195              -2.00     4200.00
03196             -18.00     4200.00
03197              -8.00     4400.00
03198              -6.00     4200.00
03199             -16.00     4400.00
03200             -22.00     4200.00
03201             -14.00     4200.00
03202              -2.00     4400.00
03203              -8.00     4400.00
03204             -20.00     4200.00
03205             -18.00     4400.00
03206             -10.00     4200.00
03207             -10.00     4200.00
03208               0.00     4400.00
03209              -6.00     4200.00
03210             -24.00     4400.00
03211             -22.00     4200.00
03212             -14.00     4400.00
03213              -8.00     4400.00
03214               0.00     4200.00
03215              -8.00     4200.00
03216             -18.00     4200.00
03217             -18.00     4200.00
03218             -10.00     4200.00
03219              -8.00     4200.00
03220              -2.00     4200.00
03221             -14.00     4200.00
03222             -16.00     4200.00
03223             -16.00     4200.00
03224             -18.00     4200.00
03225             -10.00     4000.00
03226              -2.00     4000.00
03227              -6.00     4000.00
03228             -14.00     4000.00
03229             -16.00     4000.00
03230             -16.00     4200.00
03231             -16.00     4000.00
03232             -10.00     4000.00
03233              -8.00     4000.00
03234              -6.00     3800.00
03235             -16.00     4000.00
03236             -16.00     3800.00
03237             -12.00     3600.00
03238             -10.00     4000.00
03239             -10.00     3600.00
03240             -10.00     3800.00
03241             -10.00     3600.00
03242             -18.00     3600.00
03243             -14.00     3600.00
03244             -10.00     3600.00
03245              -8.00     3600.00
03246             -16.00     3400.00
03247              -8.00     3400.00
03248              -8.00     3400.00
03249             -10.00     3200.00
03250             -14.00     3200.00
03251             -14.00     3200.00
03252             -10.00     3200.00
03253              -8.00     3200.00
03254              -8.00     3200.00
03255             -10.00     3200.00
03256             -14.00     3000.00
03257             -14.00     3000.00
03258             -10.00     2800.00
03259              -8.00     2800.00
03260              -8.00     2800.00
03261             -10.00     2800.00
03262             -10.00     2800.00
03263             -10.00     2600.00
03264             -10.00     2600.00
03265              -8.00     2600.00
03266              -6.00     2400.00
03267              -8.00     2400.00
03268              -8.00     2400.00
03269              -8.00     2400.00
03270             -10.00     2400.00
03271              -8.00     2200.00
03272              -6.00     2000.00
03273              -6.00     2200.00
03274              -8.00     2000.00
03275              -8.00     2000.00
03276              -8.00     1800.00
03277              -8.00     1800.00
03278              -8.00     1800.00
03279              -8.00     1800.00
03280              -2.00     1800.00
03281              -8.00     1600.00
03282              -8.00     1600.00
03283              -6.00     1600.00
03284              -6.00     1600.00
03285              -8.00     1400.00
03286              -8.00     1200.00
03287              -2.00     1200.00
03288              -2.00     1000.00
03289              -6.00     1000.00
03290              -8.00     1000.00
03291              -6.00     1000.00
03292              -6.00     1000.00
03293              -6.00      800.00
03294               0.00      800.00
03295              -2.00      800.00
03296              -8.00      800.00
03297             -10.00      600.00
03298              -6.00      600.00
03299              -2.00      400.00
03300              -2.00      400.00
03301              -6.00      400.00
03302              -6.00      200.00
03303               0.00      200.00
03304               0.00      200.00
03305              -2.00        0.00
03306               8.00        0.00
03307               6.00     -200.00
03308              -6.00        0.00
03309             -10.00     -400.00
03310              -2.00     -200.00
03311               8.00     -400.00
03312              50.00     -400.00
03313             158.00     -400.00
03314              34.00     -800.00
03315            -254.00     -800.00
03316            -254.00     -400.00
03317             246.00     -600.00
03318             246.00     -800.00
03319            -254.00    -1200.00
03320            -254.00     -800.00
03321             246.00    -1200.00
03322             246.00    -1000.00
03323            -254.00    -1200.00
03324            -254.00    -1200.00
03325             176.00    -1400.00
03326             238.00    -1400.00
03327               6.00    -1400.00
03328             -54.00    -1600.00
03329            -198.00    -1600.00
03330             -54.00    -1600.00
03331             246.00    -1800.00
03332              78.00    -1800.00
03333            -254.00    -1800.00
03334             -68.00    -2000.00
03335             190.00    -1800.00
03336              66.00    -2000.00
03337             -26.00    -2200.00
03338            -124.00    -2200.00
03339             -30.00    -2000.00
03340             176.00    -2200.00
03341              22.00    -2200.00
03342            -162.00    -2400.00
03343              14.00    -2400.00
03344             114.00    -2400.00
03345             -14.00    -2400.00
03346             -24.00    -2600.00
03347             -22.00    -2600.00
03348               6.00    -2600.00
03349              50.00    -2600.00
03350              10.00    -2800.00
03351             -48.00    -2800.00
03352               6.00    -2800.00
03353              42.00    -2800.00
03354              14.00    -3000.00
03355              -8.00    -3000.00
03356             -16.00    -3000.00
03357              14.00    -3000.00
03358              28.00    -3200.00
03359               6.00    -3000.00
03360             -22.00    -3000.00
03361              14.00    -3200.00
03362              26.00    -3200.00
03363             -14.00    -3200.00
03364             -10.00    -3200.00
03365              18.00    -3400.00
03366              16.00    -3400.00
03367               8.00    -3600.00
03368              -2.00    -3600.00
03369              -6.00    -3600.00
03370               4.00    -3400.00
03371              14.00    -3600.00
03372              14.00    -3600.00
03373               0.00    -3600.00
03374               0.00    -3600.00
03375               6.00    -3800.00
03376               8.00    -3800.00
03377               0.00    -3600.00
03378               0.00    -3800.00
03379              14.00    -3800.00
03380              14.00    -3800.00
03381              -2.00    -3800.00
03382               0.00    -4000.00
03383               6.00    -3800.00
03384               8.00    -4000.00
03385               8.00    -3800.00
03386               8.00    -3800.00
03387               8.00    -4000.00
03388               6.00    -4000.00
03389               0.00    -4000.00
03390               6.00    -4000.00
03391               8.00    -4000.00
03392               6.00    -4000.00
03393              14.00    -4000.00
03394              10.00    -4000.00
03395               2.00    -3800.00
03396              -2.00    -4000.00
03397               8.00    -4000.00
03398              10.00    -3800.00
03399              10.00    -4000.00
03400               8.00    -4000.00
03401               8.00    -4200.00
03402               6.00    -4000.00
03403               2.00    -4000.00
03404               6.00    -4000.00
03405              14.00    -4000.00
03406               8.00    -3800.00
03407               6.00    -4000.00
03408               6.00    -3800.00
03409               6.00    -3800.00
03410               2.00    -3800.00
03411               8.00    -4000.00
03412              10.00    -3800.00
03413               6.00    -3800.00
03414               8.00    -3800.00
03415               8.00    -3800.00
03416               2.00    -3800.00
03417               2.00    -3800.00
03418              10.00    -3800.00
03419              10.00    -3800.00
03420              10.00    -3600.00
03421               6.00    -3800.00
03422               2.00    -3600.00
03423               2.00    -3600.00
03424               6.00    -3600.00
03425               8.00    -3600.00
03426               8.00    -3600.00
03427               6.00    -3600.00
03428               2.00    -3600.00
03429               2.00    -3600.00
03430               2.00    -3400.00
03431               6.00    -3400.00
03432              10.00    -3400.00
03433               6.00    -3200.00
03434               0.00    -3200.00
03435               0.00    -3200.00
03436               6.00    -3200.00
03437               8.00    -3200.00
03438               6.00    -3000.00
03439               2.00    -3000.00
03440               0.00    -3000.00
03441               0.00    -3000.00
03442               2.00    -3000.00
03443               6.00    -3000.00
03444               6.00    -2800.00
03445               0.00    -2800.00
03446               0.00    -2800.00
03447               0.00    -2800.00
03448               2.00    -2800.00
03449               6.00    -2800.00
03450               6.00    -2600.00
03451               2.00    -2400.00
03452              -2.00    -2400.00
03453               2.00    -2400.00
03454               8.00    -2400.00
03455               8.00    -2400.00
03456               2.00    -2200.00
03457              -6.00    -2400.00
03458              -6.00    -2200.00
03459               6.00    -2000.00
03460              10.00    -2000.00
03461              10.00    -2000.00
03462               0.00    -2000.00
03463              -8.00    -2000.00
03464               0.00    -1800.00
03465               6.00    -1600.00
03466              10.00    -1600.00
03467               6.00    -1600.00
03468              -2.00    -1400.00
03469              -6.00    -1400.00
03470              -2.00    -1400.00
03471               6.00    -1400.00
03472               8.00    -1200.00
03473               2.00    -1000.00
03474              -2.00    -1200.00
03475              -6.00    -1000.00
03476              -6.00    -1000.00
03477              -2.00    -1000.00
03478               2.00     -800.00
03479               6.00     -800.00
03480               0.00     -600.00
03481              -6.00     -800.00
03482              -4.00     -600.00
03483               0.00     -400.00
03484               2.00     -600.00
03485               0.00     -400.00
03486               0.00     -400.00
03487               0.00     -200.00
03488              -2.00        0.00
03489               0.00     -200.00
03490               0.00        0.00
03491               0.00        0.00
03492              -4.00        0.00
03493              -6.00      200.00
03494              -2.00      200.00
03495               2.00      400.00
03496              -2.00      200.00
03497               0.00      400.00
03498               8.00      400.00
03499               0.00      400.00
03500              -8.00      400.00
03501             -10.00      800.00
03502              -2.00      600.00
03503              40.00      800.00
03504             178.00     1000.00
03505              74.00     1000.00
03506            -254.00      800.00
03507            -254.00      800.00
03508             246.00     1200.00
03509             246.00     1400.00
03510            -254.00     1200.00
03511            -254.00     1200.00
03512             246.00     1600.00
03513             246.00     1600.00
03514            -254.00     1200.00
03515            -254.00     1600.00
03516             246.00     2000.00
03517             190.00     1400.00
03518            -240.00     1600.00
03519              30.00     2000.00
03520             -38.00     1800.00
03521            -118.00     1800.00
03522             198.00     2000.00
03523              78.00     2000.00
03524            -240.00     2000.00
03525              42.00     2200.00
03526              80.00     2400.00
03527             -76.00     2000.00
03528              82.00     2400.00
03529             -66.00     2400.00
03530            -136.00     2400.00
03531             214.00     2800.00
03532              -2.00     2600.00
03533            -254.00     2600.00
03534             126.00     2800.00
03535             112.00     2800.00
03536            -126.00     2600.00
03537              30.00     3000.00
03538             -30.00     2800.00
03539             -74.00     2800.00
03540              98.00     3000.00
03541             -24.00     3200.00
03542             -62.00     3200.00
03543              40.00     3200.00
03544             -42.00     3200.00
03545               6.00     3200.00
03546              50.00     3400.00
03547             -90.00     3200.00
03548             -14.00     3400.00
03549              46.00     3600.00
03550             -40.00     3400.00
03551             -12.00     3400.00
03552              14.00     3600.00
03553             -24.00     3600.00
03554             -10.00     3600.00
03555             -10.00     4000.00
03556              -2.00     3600.00
03557               8.00     3600.00
03558             -32.00     3800.00
03559             -26.00     4000.00
03560               2.00     3800.00
03561             -16.00     3800.00
03562             -10.00     4000.00
03563               6.00     4000.00
03564             -18.00     4000.00
03565             -26.00     4000.00
03566               2.00     4200.00
03567              -8.00     4000.00
03568             -26.00     4000.00
03569             -10.00     4200.00
03570              -8.00     4200.00
03571              -6.00     4000.00
03572             -14.00     4200.00
03573             -22.00     4200.00
03574              -2.00     4200.00
03575             -10.00     4200.00
03576             -28.00     4200.00
03577              -8.00     4200.00
03578              -8.00     4200.00
03579             -18.00     4200.00
03580             -10.00     4200.00
03581             -10.00     4200.00
03582             -18.00     4200.00
03583             -10.00     4200.00
03584              -8.00     4200.00
03585             -10.00     4400.00
03586             -16.00     4400.00
03587             -18.00     4400.00
03588             -10.00     4400.00
03589              -8.00     4200.00
03590             -16.00     4200.00
03591             -14.00     4400.00
03592              -8.00     4200.00
03593             -14.00     4200.00
03594             -14.00     4400.00
03595             -14.00     4200.00
03596             -14.00     4200.00
03597             -10.00     4400.00
03598              -8.00     4400.00
03599             -10.00     4400.00
03600             -16.00     4200.00
03601             -14.00     4200.00
03602             -10.00     4400.00
03603             -10.00     4200.00
03604             -12.00     4200.00
03605              -8.00     4200.00
03606             -10.00     4200.00
03607             -18.00     4000.00
03608             -18.00     4200.00
03609              -6.00     4200.00
03610              -8.00     4000.00
03611             -10.00     4000.00
03612             -12.00     4200.00
03613             -10.00     4000.00
03614             -14.00     4000.00
03615             -16.00     4000.00
03616              -8.00     4000.00
03617              -8.00     4000.00
03618             -14.00     4000.00
03619             -12.00     4000.00
03620             -10.00     3600.00
03621             -14.00     4000.00
03622             -14.00     3800.00
03623              -8.00     3600.00
03624              -8.00     3600.00
03625             -14.00     3600.00
03626             -14.00     3600.00
03627             -10.00     3600.00
03628             -14.00     3600.00
03629             -12.00     3400.00
03630             -10.00     3400.00
03631              -8.00     3400.00
03632             -10.00     3400.00
03633             -14.00     3200.00
03634             -10.00     3400.00
03635             -12.00     3200.00
03636             -16.00     3200.00
03637              -8.00     3200.00
03638              -6.00     3200.00
03639             -14.00     3000.00
03640             -14.00     3000.00
03641             -14.00     3000.00
03642             -10.00     2800.00
03643             -10.00     2800.00
03644             -10.00     2800.00
03645              -8.00     2800.00
03646             -10.00     2600.00
03647             -12.00     2600.00
03648              -8.00     2600.00
03649              -8.00     2400.00
03650             -10.00     2400.00
03651              -8.00     2400.00
03652              -6.00     2400.00
03653             -10.00     2200.00
03654             -10.00     2200.00
03655             -10.00     2200.00
03656              -8.00     2000.00
03657              -6.00     2000.00
03658              -6.00     2000.00
03659              -2.00     2000.00
03660              -6.00     1800.00
03661              -8.00     1800.00
03662              -8.00     1800.00
03663              -6.00     1600.00
03664              -6.00     1600.00
03665              -2.00     1600.00
03666              -6.00     1400.00
03667              -6.00     1400.00
03668             -10.00     1200.00
03669              -8.00     1200.00
03670              -2.00     1200.00
03671              -2.00     1200.00
03672              -6.00     1000.00
03673              -8.00     1000.00
03674              -6.00      800.00
03675              -2.00     1000.00
03676              -4.00      800.00
03677              -2.00      800.00
03678               0.00      800.00
03679              -2.00      600.00
03680              -8.00      600.00
03681              -2.00      400.00
03682              -2.00      400.00
03683              -2.00      200.00
03684              -6.00      400.00
03685              -6.00      200.00
03686               0.00      200.00
03687               2.00        0.00
03688               0.00        0.00
03689               8.00        0.00
03690               2.00        0.00
03691              -6.00        0.00
03692              -8.00     -200.00
03693               0.00     -200.00
03694               8.00     -400.00
03695              48.00     -400.00
03696             152.00     -600.00
03697              58.00     -800.00
03698            -254.00     -800.00
03699            -254.00     -600.00
03700             246.00     -600.00
03701             246.00     -800.00
03702            -254.00    -1000.00
03703            -254.00     -800.00
03704             198.00    -1000.00
03705             246.00    -1000.00
03706            -202.00    -1200.00
03707            -254.00    -1200.00
03708             130.00    -1200.00
03709             246.00    -1400.00
03710              14.00    -1400.00
03711             -48.00    -1600.00
03712            -190.00    -1600.00
03713             -80.00    -1400.00
03714             246.00    -2000.00
03715             118.00    -1600.00
03716            -254.00    -1600.00
03717             -96.00    -2000.00
03718             184.00    -1800.00
03719              74.00    -2000.00
03720             -18.00    -2000.00
03721            -122.00    -2200.00
03722             -44.00    -2000.00
03723             168.00    -2200.00
03724              46.00    -2400.00
03725            -162.00    -2200.00
03726               0.00    -2400.00
03727             118.00    -2600.00
03728              -6.00    -2400.00
03729             -26.00    -2400.00
03730             -26.00    -2800.00
03731               6.00    -2800.00
03732              48.00    -2600.00
03733              16.00    -2800.00
03734             -48.00    -2800.00
03735               0.00    -2800.00
03736              40.00    -2800.00
03737              14.00    -3000.00
03738             -14.00    -3000.00
03739             -14.00    -3000.00
03740              16.00    -3000.00
03741              32.00    -3200.00
03742               2.00    -3000.00
03743             -30.00    -3200.00
03744              14.00    -3200.00
03745              34.00    -3200.00
03746              -6.00    -3200.00
03747             -12.00    -3200.00
03748              16.00    -3400.00
03749              16.00    -3400.00
03750               6.00    -3600.00
03751               2.00    -3600.00
03752              -2.00    -3600.00
03753               6.00    -3600.00
03754              12.00    -3600.00
03755              10.00    -3600.00
03756               6.00    -3600.00
03757               2.00    -3600.00
03758               8.00    -3800.00
03759               8.00    -3800.00
03760             -10.00    -3800.00
03761              -8.00    -3800.00
03762              18.00    -3800.00
03763              26.00    -3800.00
03764              14.00    -3800.00
03765              -2.00    -3800.00
03766             -10.00    -4000.00
03767             -10.00    -3800.00
03768               6.00    -3800.00
03769              22.00    -3800.00
03770              24.00    -3800.00
03771               6.00    -4000.00
03772             -14.00    -4000.00
03773             -10.00    -4000.00
03774               6.00    -3800.00
03775              18.00    -4000.00
03776              22.00    -3800.00
03777               8.00    -4000.00
03778             -12.00    -4000.00
03779             -10.00    -4000.00
03780              10.00    -4000.00
03781              18.00    -3800.00
03782              16.00    -4000.00
03783               2.00    -3800.00
03784               0.00    -4000.00
03785               0.00    -4000.00
03786               6.00    -3800.00
03787              10.00    -4000.00
03788              12.00    -3800.00
03789               2.00    -4000.00
03790               2.00    -4000.00
03791               8.00    -4000.00
03792               6.00    -4000.00
03793               6.00    -4000.00
03794               6.00    -4000.00
03795               6.00    -4000.00
03796               8.00    -3800.00
03797              14.00    -3800.00
03798              10.00    -3800.00
03799               4.00    -3800.00
03800              -2.00    -3800.00
03801               2.00    -3800.00
03802              14.00    -3600.00
03803              18.00    -3600.00
03804              10.00    -3800.00
03805              -2.00    -3600.00
03806              -2.00    -3800.00
03807               6.00    -3600.00
03808              16.00    -3600.00
03809              10.00    -3600.00
03810               0.00    -3600.00
03811              -6.00    -3400.00
03812               6.00    -3600.00
03813              10.00    -3200.00
03814              14.00    -3200.00
03815              10.00    -3200.00
03816               2.00    -3200.00
03817              -2.00    -3200.00
03818               2.00    -3200.00
03819               2.00    -3200.00
03820               6.00    -3000.00
03821               6.00    -3200.00
03822               6.00    -3000.00
03823               6.00    -3000.00
03824               0.00    -3000.00
03825               2.00    -3000.00
03826               6.00    -2800.00
03827               6.00    -3000.00
03828               2.00    -2800.00
03829               6.00    -2800.00
03830               6.00    -2800.00
03831              -2.00    -2800.00
03832              -4.00    -2800.00
03833               0.00    -2600.00
03834              10.00    -2400.00
03835              10.00    -2600.00
03836               0.00    -2400.00
03837              -2.00    -2400.00
03838              -2.00    -2400.00
03839               0.00    -2200.00
03840               6.00    -2200.00
03841               6.00    -2200.00
03842               2.00    -2000.00
03843               0.00    -2000.00
03844               0.00    -2000.00
03845               2.00    -2000.00
03846               2.00    -1800.00
03847               2.00    -1600.00
03848               0.00    -1600.00
03849               0.00    -1600.00
03850               2.00    -1600.00
03851               0.00    -1600.00
03852               0.00    -1400.00
03853              -2.00    -1600.00
03854               0.00    -1400.00
03855               2.00    -1400.00
03856               2.00    -1200.00
03857               2.00    -1000.00
03858               2.00    -1000.00
03859               0.00    -1000.00
03860              -6.00     -800.00
03861               0.00    -1000.00
03862               0.00     -600.00
03863               6.00     -800.00
03864               2.00     -600.00
03865              -2.00     -600.00
03866              -2.00     -600.00
03867               0.00     -600.00
03868               0.00     -200.00
03869               2.00     -400.00
03870               0.00     -400.00
03871              -2.00     -200.00
03872              -2.00        0.00
03873              -4.00        0.00
03874              -2.00        0.00
03875              -2.00        0.00
03876               0.00      200.00
03877               0.00      200.00
03878               6.00      200.00
03879               0.00      200.00
03880               0.00      400.00
03881               8.00      400.00
03882               2.00      400.00
03883              -4.00      400.00
03884              -8.00      400.00
03885              -4.00      800.00
03886              30.00      800.00
03887             166.00      800.00
03888             102.00     1000.00
03889            -254.00      800.00
03890            -254.00      800.00
03891             246.00     1200.00
03892             246.00     1400.00
03893            -254.00     1000.00
03894            -254.00     1000.00
03895             246.00     1600.00
03896             246.00     1600.00
03897            -254.00     1200.00
03898            -254.00     1600.00
03899             246.00     1800.00
03900             234.00     1600.00
03901            -242.00     1600.00
03902               8.00     2200.00
03903               6.00     1800.00
03904            -130.00     1800.00
03905             176.00     2000.00
03906             102.00     2000.00
03907            -254.00     1800.00
03908              22.00     2200.00
03909             102.00     2000.00
03910             -74.00     2000.00
03911              78.00     2400.00
03912             -56.00     2200.00
03913            -162.00     2400.00
03914             206.00     2600.00
03915              46.00     2600.00
03916            -254.00     2400.00
03917              90.00     2800.00
03918             112.00     2800.00
03919            -130.00     2600.00
03920              34.00     3200.00
03921               0.00     2800.00
03922             -80.00     2800.00
03923              80.00     3200.00
03924             -18.00     3200.00
03925             -64.00     3200.00
03926              46.00     3200.00
03927             -40.00     3200.00
03928             -10.00     3400.00
03929              54.00     3400.00
03930             -74.00     3200.00
03931             -22.00     3400.00
03932              46.00     3400.00
03933             -38.00     3400.00
03934             -14.00     3400.00
03935              16.00     3600.00
03936             -26.00     3600.00
03937             -16.00     3600.00
03938             -16.00     3800.00
03939               0.00     3600.00
03940              16.00     3600.00
03941             -26.00     3800.00
03942             -24.00     3800.00
03943               2.00     4000.00
03944             -20.00     3800.00
03945             -16.00     4000.00
03946               8.00     4000.00
03947             -14.00     3800.00
03948             -30.00     3800.00
03949              -2.00     4000.00
03950              -8.00     4000.00
03951             -22.00     4000.00
03952             -10.00     4000.00
03953              -8.00     4200.00
03954              -4.00     4000.00
03955             -16.00     4200.00
03956             -24.00     4200.00
03957              -6.00     4200.00
03958             -10.00     4200.00
03959             -24.00     4200.00
03960              -6.00     4200.00
03961              -8.00     4400.00
03962             -24.00     4200.00
03963             -14.00     4200.00
03964             -10.00     4400.00
03965             -16.00     4400.00
03966             -14.00     4200.00
03967             -10.00     4400.00
03968             -10.00     4200.00
03969             -12.00     4200.00
03970             -18.00     4400.00
03971             -12.00     4400.00
03972             -10.00     4200.00
03973             -16.00     4400.00
03974             -10.00     4400.00
03975              -4.00     4400.00
03976             -14.00     4200.00
03977             -16.00     4200.00
03978             -16.00     4400.00
03979             -18.00     4400.00
03980             -10.00     4200.00
03981              -2.00     4400.00
03982              -8.00     4200.00
03983             -16.00     4400.00
03984             -22.00     4200.00
03985             -22.00     4200.00
03986             -10.00     4200.00
03987              -6.00     4200.00
03988              -2.00     4200.00
03989              -6.00     4200.00
03990             -22.00     4200.00
03991             -24.00     4200.00
03992             -10.00     4000.00
03993              -6.00     4200.00
03994              -8.00     4000.00
03995             -10.00     4200.00
03996             -14.00     4000.00
03997             -16.00     4000.00
03998             -16.00     4000.00
03999             -12.00     4000.00
04000              -8.00     4000.00
04001              -8.00     4000.00
04002             -10.00     3800.00
04003             -10.00     4000.00
04004             -16.00     3600.00
04005             -16.00     3800.00
04006             -10.00     3600.00
04007              -4.00     3800.00
04008             -10.00     3600.00
04009             -10.00     3600.00
04010             -12.00     3600.00
04011             -14.00     3600.00
04012             -14.00     3400.00
04013              -6.00     3400.00
04014              -6.00     3400.00
04015             -10.00     3400.00
04016             -16.00     3200.00
04017             -16.00     3200.00
04018             -10.00     3200.00
04019             -10.00     3200.00
04020              -6.00     3200.00
04021              -6.00     3000.00
04022             -14.00     3000.00
04023             -16.00     2800.00
04024             -12.00     2800.00
04025             -10.00     2800.00
04026              -8.00     2800.00
04027             -10.00     2800.00
04028             -10.00     2800.00
04029             -10.00     2600.00
04030             -14.00     2600.00
04031              -8.00     2600.00
04032              -4.00     2400.00
04033              -8.00     2600.00
04034              -8.00     2400.00
04035             -10.00     2400.00
04036             -10.00     2200.00
04037             -10.00     2400.00
04038             -10.00     2200.00
04039              -6.00     2200.00
04040              -8.00     2000.00
04041              -8.00     1800.00
04042              -6.00     2000.00
04043              -8.00     1800.00
04044             -10.00     1800.00
04045             -10.00     1800.00
04046              -6.00     1600.00
04047              -4.00     1600.00
04048              -4.00     1600.00
04049              -2.00     1400.00
04050              -8.00     1400.00
04051             -10.00     1200.00
04052              -6.00     1200.00
04053              -2.00     1200.00
04054              -2.00     1200.00
04055              -2.00     1200.00
04056              -6.00     1000.00
04057              -8.00     1000.00
04058              -8.00     1000.00
04059              -8.00      800.00
04060               0.00      800.00
04061               2.00      800.00
04062              -2.00      600.00
04063              -8.00      800.00
04064              -6.00      600.00
04065              -2.00      400.00
04066               0.00      400.00
04067              -2.00      400.00
04068               0.00      200.00
04069               2.00        0.00
04070               2.00      200.00
04071               0.00        0.00
04072               2.00        0.00
04073               8.00        0.00
04074               0.00     -200.00
04075              -6.00     -400.00
04076               0.00     -200.00
04077               4.00     -400.00
04078              38.00     -400.00
04079             146.00     -400.00
04080              82.00     -600.00
04081            -254.00     -800.00
04082            -254.00     -600.00
04083             246.00     -600.00
04084             246.00     -800.00
04085            -160.00    -1200.00
04086            -254.00     -800.00
04087              96.00    -1200.00
04088             246.00    -1000.00
04089            -118.00    -1200.00
04090            -254.00    -1000.00
04091              78.00    -1400.00
04092             246.00    -1400.00
04093              22.00    -1400.00
04094             -46.00    -1600.00
04095            -176.00    -1600.00
04096            -106.00    -1400.00
04097             246.00    -1800.00
04098             160.00    -1600.00
04099            -254.00    -1600.00
04100            -126.00    -2000.00
04101             178.00    -1800.00
04102              86.00    -2000.00
04103             -12.00    -2200.00
04104            -118.00    -2200.00
04105             -58.00    -2000.00
04106             158.00    -2200.00
04107              72.00    -2400.00
04108            -162.00    -2200.00
04109             -22.00    -2200.00
04110             118.00    -2400.00
04111               6.00    -2400.00
04112             -28.00    -2400.00
04113             -26.00    -2600.00
04114               0.00    -2600.00
04115              46.00    -2800.00
04116              24.00    -2800.00
04117             -48.00    -2800.00
04118              -6.00    -2800.00
04119              38.00    -2800.00
04120              18.00    -3000.00
04121             -10.00    -3000.00
04122             -16.00    -3000.00
04123               6.00    -3000.00
04124              30.00    -3200.00
04125               8.00    -3200.00
04126             -22.00    -3200.00
04127              10.00    -3200.00
04128              32.00    -3200.00
04129              -8.00    -3200.00
04130             -16.00    -3200.00
04131              14.00    -3400.00
04132              22.00    -3400.00
04133               8.00    -3600.00
04134               2.00    -3600.00
04135              -8.00    -3600.00
04136               0.00    -3600.00
04137              16.00    -3600.00
04138              16.00    -3600.00
04139               4.00    -3600.00
04140               0.00    -3600.00
04141               6.00    -3600.00
04142              14.00    -3800.00
04143               4.00    -3600.00
04144              -2.00    -3800.00
04145              14.00    -3800.00
04146              14.00    -3800.00
04147               0.00    -3800.00
04148               0.00    -3800.00
04149               6.00    -3800.00
04150               6.00    -3800.00
04151               6.00    -3800.00
04152               8.00    -3800.00
04153              10.00    -4000.00
04154               6.00    -3800.00
04155               0.00    -4000.00
04156               2.00    -4000.00
04157               6.00    -4000.00
04158               8.00    -4000.00
04159              10.00    -4000.00
04160               8.00    -4000.00
04161               0.00    -4000.00
04162               0.00    -4000.00
04163               6.00    -4000.00
04164               8.00    -4000.00
04165              10.00    -3800.00
04166               4.00    -4000.00
04167               6.00    -4000.00
04168               6.00    -4000.00
04169               2.00    -4000.00
04170               6.00    -4000.00
04171              10.00    -4000.00
04172               6.00    -3800.00
04173               6.00    -4000.00
04174               8.00    -4000.00
04175               2.00    -4000.00
04176               6.00    -3800.00
04177               6.00    -3800.00
04178               8.00    -3800.00
04179               8.00    -3800.00
04180               6.00    -3800.00
04181               2.00    -3800.00
04182               4.00    -3800.00
04183               2.00    -3800.00
04184              10.00    -3800.00
04185              10.00    -3600.00
04186              10.00    -3600.00
04187               2.00    -3600.00
04188               2.00    -3600.00
04189               8.00    -3800.00
04190               6.00    -3600.00
04191               6.00    -3600.00
04192               8.00    -3600.00
04193              10.00    -3600.00
04194               6.00    -3400.00
04195               4.00    -3600.00
04196               2.00    -3200.00
04197               2.00    -3400.00
04198              10.00    -3200.00
04199               8.00    -3200.00
04200               6.00    -3400.00
04201               6.00    -3200.00
04202               2.00    -3200.00
04203               2.00    -3200.00
04204               8.00    -3000.00
04205               8.00    -3000.00
04206               2.00    -3000.00
04207               2.00    -3000.00
04208               0.00    -3000.00
04209               6.00    -2800.00
04210               6.00    -2800.00
04211               0.00    -2800.00
04212               2.00    -2800.00
04213               6.00    -2800.00
04214               0.00    -2800.00
04215               4.00    -2800.00
04216               0.00    -2600.00
04217              -2.00    -2400.00
04218               2.00    -2400.00
04219               8.00    -2400.00
04220              10.00    -2400.00
04221               0.00    -2400.00
04222              -2.00    -2200.00
04223              -2.00    -2200.00
04224               6.00    -2200.00
04225               2.00    -2000.00
04226               2.00    -2200.00
04227               6.00    -2000.00
04228              -2.00    -2000.00
04229              -2.00    -2000.00
04230               2.00    -1800.00
04231               2.00    -1600.00
04232               0.00    -1600.00
04233               2.00    -1600.00
04234               0.00    -1600.00
04235              -2.00    -1400.00
04236              -2.00    -1400.00
04237               0.00    -1400.00
04238               6.00    -1200.00
04239               2.00    -1400.00
04240               0.00    -1000.00
04241               0.00    -1200.00
04242               2.00    -1000.00
04243              -2.00    -1000.00
04244              -2.00     -800.00
04245               0.00     -800.00
04246               0.00     -800.00
04247               6.00     -600.00
04248               2.00     -600.00
04249              -2.00     -600.00
04250              -6.00     -600.00
04251              -2.00     -600.00
04252               6.00     -400.00
04253               6.00     -400.00
04254              -2.00     -200.00
04255              -6.00        0.00
04256              -6.00        0.00
04257               0.00        0.00
04258              -2.00        0.00
04259              -2.00      200.00
04260               0.00      200.00
04261               4.00      200.00
04262               0.00      200.00
04263               0.00      400.00
04264               8.00      400.00
04265               2.00      400.00
04266              -6.00      600.00
04267              -6.00      600.00
04268               0.00      600.00
04269              22.00      800.00
04270             156.00      800.00
04271             128.00     1000.00
04272            -254.00      800.00
04273            -254.00      800.00
04274             246.00     1200.00
04275             246.00     1400.00
04276            -202.00     1200.00
04277            -254.00      800.00
04278             154.00     1400.00
04279             246.00     1600.00
04280            -254.00     1200.00
04281            -254.00     1400.00
04282             246.00     1800.00
04283             246.00     1600.00
04284            -234.00     1600.00
04285             -22.00     2000.00
04286              26.00     2000.00
04287            -144.00     1800.00
04288             150.00     2000.00
04289             136.00     2000.00
04290            -254.00     1800.00
04291              -6.00     2200.00
04292             112.00     2400.00
04293             -70.00     2200.00
04294              68.00     2600.00
04295             -32.00     2400.00
04296            -182.00     2400.00
04297             182.00     2600.00
04298              84.00     2600.00
04299            -254.00     2600.00
04300              58.00     2800.00
04301             136.00     2800.00
04302            -128.00     2600.00
04303              22.00     3000.00
04304              14.00     3000.00
04305             -88.00     2800.00
04306              72.00     3200.00
04307              -6.00     3000.00
04308             -72.00     3000.00
04309              46.00     3200.00
04310             -38.00     3200.00
04311             -22.00     3200.00
04312              56.00     3400.00
04313             -68.00     3200.00
04314             -30.00     3400.00
04315              48.00     3600.00
04316             -36.00     3400.00
04317             -20.00     3400.00
04318              16.00     3600.00
04319             -24.00     3600.00
04320             -14.00     3600.00
04321             -22.00     3800.00
04322              -8.00     3600.00
04323              16.00     3600.00
04324             -24.00     3800.00
04325             -24.00     3800.00
04326               6.00     3800.00
04327             -22.00     4000.00
04328             -22.00     3800.00
04329              10.00     4000.00
04330              -8.00     4000.00
04331             -24.00     4000.00
04332              -2.00     4200.00
04333              -4.00     4000.00
04334             -24.00     4000.00
04335             -16.00     4000.00
04336             -10.00     4200.00
04337              -2.00     4000.00
04338              -8.00     4000.00
04339             -18.00     4200.00
04340              -8.00     4200.00
04341             -10.00     4200.00
04342             -30.00     4000.00
04343              -6.00     4200.00
04344               0.00     4200.00
04345             -16.00     4200.00
04346             -12.00     4200.00
04347             -14.00     4200.00
04348             -16.00     4200.00
04349             -14.00     4200.00
04350              -8.00     4400.00
04351             -10.00     4200.00
04352             -14.00     4400.00
04353             -22.00     4200.00
04354             -14.00     4400.00
04355              -8.00     4400.00
04356             -14.00     4400.00
04357             -14.00     4400.00
04358              -8.00     4200.00
04359             -16.00     4400.00
04360             -16.00     4400.00
04361             -14.00     4200.00
04362             -16.00     4400.00
04363             -14.00     4200.00
04364             -10.00     4400.00
04365             -10.00     4200.00
04366             -14.00     4200.00
04367             -16.00     4400.00
04368             -10.00     4200.00
04369             -10.00     4400.00
04370             -14.00     4200.00
04371             -10.00     4200.00
04372             -10.00     4200.00
04373             -16.00     4200.00
04374             -16.00     4000.00
04375              -8.00     4200.00
04376              -8.00     4200.00
04377             -14.00     4000.00
04378             -12.00     4000.00
04379             -10.00     4000.00
04380             -14.00     4000.00
04381             -14.00     4000.00
04382             -10.00     4000.00
04383              -8.00     4000.00
04384             -10.00     4000.00
04385             -10.00     4000.00
04386             -10.00     4000.00
04387             -10.00     3800.00
04388             -14.00     3800.00
04389             -10.00     3800.00
04390              -6.00     3600.00
04391             -10.00     3600.00
04392             -10.00     3600.00
04393             -10.00     3600.00
04394             -14.00     3600.00
04395             -10.00     3400.00
04396              -8.00     3400.00
04397              -6.00     3400.00
04398              -8.00     3200.00
04399             -14.00     3400.00
04400             -14.00     3400.00
04401             -10.00     3400.00
04402             -10.00     3200.00
04403              -8.00     3200.00
04404              -6.00     3200.00
04405             -10.00     3200.00
04406             -10.00     3000.00
04407             -10.00     2800.00
04408             -10.00     2800.00
04409             -10.00     2800.00
04410             -10.00     2800.00
04411              -6.00     2800.00
04412              -8.00     2800.00
04413             -10.00     2800.00
04414             -10.00     2600.00
04415              -8.00     2600.00
04416              -8.00     2600.00
04417             -10.00     2400.00
04418              -6.00     2400.00
04419              -8.00     2600.00
04420             -10.00     2000.00
04421             -10.00     2000.00
04422             -10.00     2000.00
04423              -8.00     2000.00
04424              -6.00     1800.00
04425              -6.00     2000.00
04426              -6.00     2000.00
04427             -10.00     1800.00
04428             -10.00     1600.00
04429              -6.00     1800.00
04430              -6.00     1600.00
04431              -6.00     1600.00
04432              -6.00     1600.00
04433              -8.00     1400.00
04434             -10.00     1400.00
04435              -8.00     1200.00
04436              -2.00     1200.00
04437               0.00     1200.00
04438              -6.00     1200.00
04439             -10.00     1000.00
04440              -8.00     1000.00
04441              -8.00     1000.00
04442              -8.00     1000.00
04443              -2.00      800.00
04444               0.00      600.00
04445              -6.00      800.00
04446              -6.00      600.00
04447              -8.00      400.00
04448               0.00      400.00
04449               0.00      400.00
04450              -6.00      400.00
04451              -6.00      200.00
04452               0.00      200.00
04453               2.00        0.00
04454               0.00      200.00
04455               4.00        0.00
04456               6.00        0.00
04457              -6.00        0.00
04458              -8.00     -200.00
04459              -4.00        0.00
04460               6.00     -400.00
04461              34.00     -400.00
04462             138.00     -400.00
04463              98.00     -600.00
04464            -254.00     -800.00
04465            -254.00     -600.00
04466             246.00     -600.00
04467             246.00     -800.00
04468             -42.00    -1200.00
04469            -254.00     -800.00
04470              -6.00    -1200.00
04471             246.00    -1200.00
04472             -32.00    -1000.00
04473            -254.00    -1000.00
04474              22.00    -1200.00
04475             246.00    -1400.00
04476              32.00    -1400.00
04477             -38.00    -1600.00
04478            -166.00    -1600.00
04479            -134.00    -1400.00
04480             246.00    -1800.00
04481             200.00    -1600.00
04482            -254.00    -1600.00
04483            -154.00    -2000.00
04484             166.00    -2000.00
04485              96.00    -2000.00
04486              -6.00    -2000.00
04487            -112.00    -2200.00
04488             -74.00    -2000.00
04489             142.00    -2400.00
04490              94.00    -2400.00
04491            -164.00    -2400.00
04492             -38.00    -2400.00
04493             118.00    -2400.00
04494              14.00    -2400.00
04495             -30.00    -2600.00
04496             -26.00    -2600.00
04497              -8.00    -2600.00
04498              40.00    -2800.00
04499              30.00    -2800.00
04500             -46.00    -2800.00
04501             -12.00    -2800.00
04502              38.00    -3000.00
04503              22.00    -2800.00
04504             -14.00    -3000.00
04505             -18.00    -3000.00
04506               0.00    -3000.00
04507              30.00    -3000.00
04508              16.00    -3200.00
04509             -20.00    -3000.00
04510               2.00    -3200.00
04511              30.00    -3200.00
04512              -6.00    -3200.00
04513             -14.00    -3200.00
04514              22.00    -3200.00
04515              16.00    -3200.00
04516               0.00    -3600.00
04517               8.00    -3400.00
04518              -2.00    -3600.00
04519              -4.00    -3400.00
04520              10.00    -3600.00
04521              14.00    -3600.00
04522               8.00    -3600.00
04523              12.00    -3600.00
04524               6.00    -3600.00
04525              -2.00    -3800.00
04526              -6.00    -3600.00
04527               2.00    -3600.00
04528              26.00    -3800.00
04529              26.00    -3800.00
04530              -8.00    -3800.00
04531             -18.00    -4000.00
04532               6.00    -3800.00
04533              22.00    -3800.00
04534              18.00    -3800.00
04535               8.00    -4000.00
04536              -8.00    -3800.00
04537               0.00    -4000.00
04538              10.00    -4000.00
04539               8.00    -3800.00
04540               6.00    -4000.00
04541               4.00    -4000.00
04542               2.00    -4000.00
04543              14.00    -4000.00
04544               6.00    -4000.00
04545               0.00    -4000.00
04546              10.00    -4000.00
04547               6.00    -4000.00
04548               0.00    -4000.00
04549               8.00    -3800.00
04550              14.00    -4000.00
04551              10.00    -4000.00
04552               8.00    -4000.00
04553              -2.00    -3800.00
04554              -2.00    -4000.00
04555               8.00    -3800.00
04556              10.00    -3800.00
04557              14.00    -4000.00
04558               8.00    -4000.00
04559              -6.00    -3800.00
04560               0.00    -4000.00
04561               8.00    -3800.00
04562               6.00    -4000.00
04563               6.00    -3800.00
04564               2.00    -3800.00
04565               2.00    -4000.00
04566              14.00    -3800.00
04567              14.00    -3800.00
04568               2.00    -3800.00
04569              -2.00    -3800.00
04570               0.00    -3600.00
04571              10.00    -3600.00
04572              18.00    -3600.00
04573              10.00    -3800.00
04574               0.00    -3600.00
04575              -2.00    -3600.00
04576               0.00    -3600.00
04577               8.00    -3600.00
04578              16.00    -3400.00
04579              12.00    -3400.00
04580               2.00    -3600.00
04581               0.00    -3200.00
04582               2.00    -3200.00
04583               2.00    -3400.00
04584              12.00    -3200.00
04585              10.00    -3200.00
04586              10.00    -3000.00
04587               2.00    -3000.00
04588               0.00    -3200.00
04589               2.00    -3000.00
04590               6.00    -3000.00
04591               6.00    -3000.00
04592              10.00    -3000.00
04593               6.00    -3000.00
04594               0.00    -2800.00
04595               0.00    -2800.00
04596               2.00    -2800.00
04597               8.00    -2800.00
04598               8.00    -2800.00
04599               2.00    -2800.00
04600              -2.00    -2600.00
04601               0.00    -2400.00
04602               6.00    -2400.00
04603               8.00    -2400.00
04604               6.00    -2400.00
04605              -2.00    -2400.00
04606              -2.00    -2200.00
04607               2.00    -2000.00
04608               8.00    -2200.00
04609               6.00    -2000.00
04610               2.00    -2000.00
04611              -2.00    -2000.00
04612              -4.00    -2000.00
04613               0.00    -1600.00
04614               2.00    -1800.00
04615               6.00    -1600.00
04616               2.00    -1600.00
04617              -2.00    -1600.00
04618              -2.00    -1600.00
04619              -2.00    -1400.00
04620               0.00    -1400.00
04621               2.00    -1400.00
04622               6.00    -1000.00
04623               0.00    -1200.00
04624              -2.00     -800.00
04625              -2.00    -1000.00
04626               0.00    -1000.00
04627               0.00     -800.00
04628               6.00     -800.00
04629               2.00     -800.00
04630               0.00     -600.00
04631              -2.00     -600.00
04632               0.00     -600.00
04633              -2.00     -600.00
04634              -2.00     -400.00
04635               0.00     -400.00
04636               0.00     -400.00
04637               0.00     -200.00
04638              -4.00        0.00
04639              -2.00        0.00
04640              -2.00        0.00
04641               0.00        0.00
04642              -4.00      200.00
04643               0.00      200.00
04644               4.00      200.00
04645               2.00      200.00
04646               0.00      400.00
04647               2.00      400.00
04648               0.00      600.00
04649              -6.00      400.00
04650              -4.00      600.00
04651               0.00      800.00
04652              18.00      800.00
04653             138.00      800.00
04654             146.00     1000.00
04655            -254.00     1000.00
04656            -254.00      800.00
04657             246.00     1200.00
04658             246.00     1400.00
04659             -64.00     1200.00
04660            -254.00     1000.00
04661              38.00     1600.00
04662             246.00     1600.00
04663            -158.00     1200.00
04664            -254.00     1600.00
04665             234.00     1800.00
04666             246.00     1600.00
04667            -222.00     1600.00
04668             -50.00     1800.00
04669              50.00     1800.00
04670            -154.00     1800.00
04671             122.00     2000.00
04672             168.00     2000.00
04673            -248.00     1800.00
04674             -32.00     2200.00
04675             120.00     2400.00
04676             -70.00     2000.00
04677              54.00     2400.00
04678              -4.00     2400.00
04679            -194.00     2200.00
04680             158.00     2800.00
04681             118.00     2600.00
04682            -254.00     2800.00
04683              26.00     2800.00
04684             152.00     2800.00
04685            -120.00     2600.00
04686               6.00     3000.00
04687              24.00     3000.00
04688             -94.00     2800.00
04689              60.00     3200.00
04690               8.00     3000.00
04691             -82.00     3000.00
04692              42.00     3200.00
04693             -26.00     3200.00
04694             -32.00     3200.00
04695              60.00     3400.00
04696             -58.00     3200.00
04697             -42.00     3400.00
04698              48.00     3400.00
04699             -26.00     3400.00
04700             -26.00     3400.00
04701              22.00     3600.00
04702             -24.00     3400.00
04703             -22.00     3600.00
04704             -16.00     3800.00
04705              -8.00     3600.00
04706              14.00     3600.00
04707             -16.00     3800.00
04708             -32.00     3600.00
04709               2.00     3800.00
04710             -14.00     4000.00
04711             -26.00     3800.00
04712               8.00     4000.00
04713              -6.00     4000.00
04714             -24.00     4000.00
04715              -2.00     4000.00
04716              -8.00     4000.00
04717             -26.00     4200.00
04718             -16.00     4000.00
04719              -6.00     4200.00
04720              -2.00     4200.00
04721              -8.00     4200.00
04722             -26.00     4200.00
04723             -14.00     4200.00
04724              -6.00     4400.00
04725             -24.00     4200.00
04726              -8.00     4200.00
04727               2.00     4400.00
04728             -16.00     4200.00
04729             -14.00     4200.00
04730             -16.00     4400.00
04731             -18.00     4400.00
04732             -14.00     4200.00
04733              -8.00     4400.00
04734              -8.00     4400.00
04735             -10.00     4400.00
04736             -24.00     4400.00
04737             -18.00     4400.00
04738              -6.00     4400.00
04739             -10.00     4400.00
04740             -10.00     4200.00
04741              -8.00     4400.00
04742             -18.00     4200.00
04743             -18.00     4400.00
04744              -8.00     4200.00
04745             -14.00     4200.00
04746             -14.00     4200.00
04747             -10.00     4200.00
04748             -14.00     4200.00
04749             -10.00     4200.00
04750             -16.00     4200.00
04751             -16.00     4200.00
04752              -8.00     4200.00
04753              -8.00     4200.00
04754             -10.00     4200.00
04755             -10.00     4200.00
04756             -16.00     4000.00
04757             -18.00     4200.00
04758             -10.00     4200.00
04759             -10.00     4200.00
04760             -12.00     4000.00
04761             -10.00     4000.00
04762             -10.00     4000.00
04763             -10.00     4000.00
04764             -16.00     4000.00
04765             -16.00     4000.00
04766             -10.00     4000.00
04767              -8.00     3800.00
04768              -8.00     3800.00
04769             -10.00     3800.00
04770             -16.00     3800.00
04771             -16.00     3800.00
04772              -6.00     3600.00
04773              -6.00     3600.00
04774             -14.00     3800.00
04775             -14.00     3600.00
04776             -10.00     3600.00
04777             -10.00     3600.00
04778             -10.00     3600.00
04779             -10.00     3600.00
04780              -6.00     3400.00
04781              -8.00     3400.00
04782             -10.00     3200.00
04783             -10.00     3400.00
04784             -10.00     3200.00
04785             -14.00     3200.00
04786              -8.00     3200.00
04787              -2.00     3000.00
04788             -10.00     3000.00
04789             -10.00     3200.00
04790             -10.00     3200.00
04791              -8.00     2800.00
04792             -10.00     2800.00
04793             -10.00     2800.00
04794              -4.00     2800.00
04795             -10.00     2800.00
04796             -14.00     2800.00
04797             -10.00     2600.00
04798              -4.00     2400.00
04799              -6.00     2400.00
04800             -10.00     2400.00
04801              -8.00     2400.00
04802              -8.00     2200.00
04803             -14.00     2200.00
04804              -8.00     2200.00
04805              -6.00     2000.00
04806              -4.00     2000.00
04807              -8.00     2000.00
04808             -10.00     2000.00
04809             -10.00     1800.00
04810             -12.00     1800.00
04811              -8.00     1800.00
04812              -2.00     1600.00
04813              -4.00     1600.00
04814             -10.00     1600.00
04815             -10.00     1600.00
04816              -8.00     1400.00
04817              -6.00     1600.00
04818              -8.00     1200.00
04819              -2.00     1400.00
04820              -6.00     1200.00
04821             -10.00     1000.00
04822              -8.00     1000.00
04823              -8.00     1000.00
04824              -6.00     1000.00
04825              -4.00      800.00
04826              -2.00      800.00
04827               0.00      800.00
04828              -6.00      800.00
04829             -10.00      600.00
04830              -6.00      600.00
04831              -2.00      400.00
04832              -6.00      400.00
04833              -8.00      400.00
04834              -6.00      200.00
04835               2.00      200.00
04836               2.00      200.00
04837              -2.00      200.00
04838               6.00        0.00
04839               6.00        0.00
04840              -2.00        0.00
04841              -6.00     -200.00
04842              -6.00        0.00
04843               8.00     -200.00
04844              32.00     -400.00
04845             130.00     -400.00
04846             118.00     -600.00
04847            -254.00     -800.00
04848            -254.00     -800.00
04849             208.00     -600.00
04850             246.00     -800.00
04851              82.00    -1200.00
04852            -254.00     -800.00
04853            -106.00    -1000.00
04854             246.00    -1000.00
04855              64.00    -1000.00
04856            -254.00    -1000.00
04857             -34.00    -1200.00
04858             246.00    -1400.00
04859              48.00    -1200.00
04860             -38.00    -1600.00
04861            -152.00    -1600.00
04862            -154.00    -1400.00
04863             236.00    -1800.00
04864             236.00    -1600.00
04865            -250.00    -1600.00
04866            -178.00    -2000.00
04867             154.00    -2000.00
04868             108.00    -2000.00
04869               4.00    -2200.00
04870            -104.00    -2200.00
04871             -90.00    -2000.00
04872             128.00    -2200.00
04873             118.00    -2400.00
04874            -156.00    -2200.00
04875             -54.00    -2400.00
04876             112.00    -2400.00
04877              24.00    -2600.00
04878             -32.00    -2400.00
04879             -24.00    -2600.00
04880             -10.00    -2800.00
04881              34.00    -2800.00
04882              34.00    -2800.00
04883             -46.00    -2800.00
04884             -16.00    -2800.00
04885              34.00    -3000.00
04886              22.00    -3000.00
04887              -8.00    -3000.00
04888             -16.00    -3000.00
04889               0.00    -3000.00
04890              30.00    -3000.00
04891              16.00    -3200.00
04892             -24.00    -3000.00
04893               0.00    -3200.00
04894              32.00    -3200.00
04895               0.00    -3200.00
04896             -22.00    -3200.00
04897              14.00    -3600.00
04898              20.00    -3200.00
04899               8.00    -3600.00
04900               0.00    -3600.00
04901              -2.00    -3400.00
04902               0.00    -3600.00
04903              14.00    -3600.00
04904              14.00    -3600.00
04905               6.00    -3600.00
04906               0.00    -3600.00
04907               0.00    -3600.00
04908              14.00    -3600.00
04909               6.00    -3800.00
04910              -2.00    -3600.00
04911              10.00    -3800.00
04912              16.00    -3800.00
04913               6.00    -3800.00
04914               0.00    -3800.00
04915               6.00    -3800.00
04916               8.00    -3800.00
04917               8.00    -3800.00
04918              10.00    -3800.00
04919              10.00    -3800.00
04920               6.00    -4000.00
04921               2.00    -4000.00
04922               6.00    -4000.00
04923               8.00    -3800.00
04924               8.00    -4000.00
04925              10.00    -4000.00
04926              14.00    -4000.00
04927               2.00    -3800.00
04928               0.00    -4000.00
04929               6.00    -3800.00
04930              10.00    -4000.00
04931               8.00    -4000.00
04932               6.00    -4000.00
04933               6.00    -3800.00
04934               2.00    -4000.00
04935               2.00    -4000.00
04936               6.00    -4000.00
04937               8.00    -4000.00
04938              12.00    -4000.00
04939               6.00    -4000.00
04940               6.00    -4000.00
04941               2.00    -4000.00
04942               2.00    -4000.00
04943               6.00    -4000.00
04944               8.00    -3800.00
04945              10.00    -3800.00
04946               2.00    -3800.00
04947               4.00    -3800.00
04948               0.00    -3800.00
04949               2.00    -3800.00
04950               8.00    -3800.00
04951              10.00    -3800.00
04952              10.00    -3800.00
04953               6.00    -3800.00
04954               2.00    -3600.00
04955               0.00    -3600.00
04956               6.00    -3600.00
04957               8.00    -3600.00
04958              12.00    -3600.00
04959               6.00    -3600.00
04960               6.00    -3600.00
04961               6.00    -3600.00
04962               6.00    -3400.00
04963               4.00    -3600.00
04964               8.00    -3200.00
04965               8.00    -3400.00
04966               8.00    -3200.00
04967               6.00    -3200.00
04968               2.00    -3200.00
04969               6.00    -3200.00
04970               6.00    -3200.00
04971               8.00    -3000.00
04972               8.00    -3000.00
04973               6.00    -3000.00
04974               0.00    -3000.00
04975               2.00    -2800.00
04976               6.00    -3000.00
04977               6.00    -2800.00
04978               6.00    -2800.00
04979               6.00    -2800.00
04980               2.00    -2800.00
04981               6.00    -2800.00
04982               2.00    -2800.00
04983               6.00    -2600.00
04984               6.00    -2400.00
04985               8.00    -2400.00
04986               6.00    -2400.00
04987               2.00    -2400.00
04988               0.00    -2200.00
04989               0.00    -2200.00
04990               2.00    -2200.00
04991               2.00    -2200.00
04992               2.00    -2000.00
04993               0.00    -2000.00
04994               0.00    -2000.00
04995               0.00    -1800.00
04996               2.00    -1800.00
04997               0.00    -1600.00
04998               6.00    -1600.00
04999               0.00    -1600.00
05000               0.00    -1600.00
