Unit:(mV)
                     CH1         CH2
Frequency              ?  98.428 kHz
00001            -140.00    -2560.00
00002            -140.00    -2560.00
00003            -160.00    -2560.00
00004            -180.00    -2640.00
00005            -180.00    -2720.00
00006            -180.00    -2720.00
00007            -180.00    -2880.00
00008            -200.00    -2880.00
00009            -200.00    -2880.00
00010            -200.00    -2880.00
00011            -200.00    -3040.00
00012            -200.00    -2960.00
00013            -200.00    -3040.00
00014            -220.00    -3040.00
00015            -220.00    -3040.00
00016            -220.00    -3120.00
00017            -220.00    -3200.00
00018            -260.00    -3200.00
00019            -220.00    -3280.00
00020            -240.00    -3360.00
00021            -260.00    -3360.00
00022            -260.00    -3360.00
00023            -260.00    -3440.00
00024            -280.00    -3520.00
00025            -260.00    -3520.00
00026            -280.00    -3600.00
00027            -280.00    -3600.00
00028            -280.00    -3600.00
00029            -300.00    -3680.00
00030            -300.00    -3680.00
00031            -300.00    -3760.00
00032            -300.00    -3760.00
00033            -300.00    -3840.00
00034            -320.00    -3840.00
00035            -300.00    -3920.00
00036            -340.00    -4000.00
00037            -340.00    -4000.00
00038            -340.00    -4000.00
00039            -360.00    -4080.00
00040            -360.00    -4080.00
00041            -360.00    -4080.00
00042            -360.00    -4160.00
00043            -360.00    -4240.00
00044            -380.00    -4240.00
00045            -360.00    -4320.00
00046            -380.00    -4320.00
00047            -380.00    -4320.00
00048            -420.00    -4320.00
00049            -380.00    -4400.00
00050            -420.00    -4480.00
00051            -420.00    -4480.00
00052            -400.00    -4480.00
00053            -420.00    -4560.00
00054            -440.00    -4640.00
00055            -420.00    -4640.00
00056            -440.00    -4640.00
00057            -440.00    -4720.00
00058            -440.00    -4800.00
00059            -460.00    -4800.00
00060            -460.00    -4800.00
00061            -460.00    -4880.00
00062            -460.00    -4880.00
00063            -480.00    -4960.00
00064            -500.00    -4960.00
00065            -500.00    -4960.00
00066            -500.00    -5040.00
00067            -500.00    -5040.00
00068            -520.00    -5120.00
00069            -520.00    -5120.00
00070            -520.00    -5120.00
00071            -520.00    -5200.00
00072            -520.00    -5200.00
00073            -520.00    -5280.00
00074            -540.00    -5280.00
00075            -540.00    -5280.00
00076            -540.00    -5280.00
00077            -540.00    -5360.00
00078            -540.00    -5440.00
00079            -540.00    -5440.00
00080            -580.00    -5440.00
00081            -560.00    -5520.00
00082            -580.00    -5520.00
00083            -580.00    -5600.00
00084            -580.00    -5600.00
00085            -580.00    -5600.00
00086            -580.00    -5600.00
00087            -580.00    -5680.00
00088            -600.00    -5680.00
00089            -580.00    -5760.00
00090            -600.00    -5760.00
00091            -600.00    -5840.00
00092            -620.00    -5760.00
00093            -620.00    -5840.00
00094            -620.00    -5840.00
00095            -620.00    -5920.00
00096            -620.00    -5920.00
00097            -620.00    -5920.00
00098            -620.00    -6000.00
00099            -660.00    -6000.00
00100            -640.00    -6000.00
00101            -660.00    -6080.00
00102            -660.00    -6080.00
00103            -660.00    -6080.00
00104            -660.00    -6160.00
00105            -660.00    -6160.00
00106            -680.00    -6160.00
00107            -680.00    -6160.00
00108            -680.00    -6240.00
00109            -680.00    -6240.00
00110            -680.00    -6240.00
00111            -680.00    -6240.00
00112            -700.00    -6240.00
00113            -700.00    -6240.00
00114            -700.00    -6400.00
00115            -700.00    -6320.00
00116            -700.00    -6400.00
00117            -700.00    -6480.00
00118            -720.00    -6480.00
00119            -700.00    -6480.00
00120            -740.00    -6480.00
00121            -700.00    -6480.00
00122            -740.00    -6560.00
00123            -740.00    -6560.00
00124            -740.00    -6560.00
00125            -760.00    -6560.00
00126            -760.00    -6560.00
00127            -760.00    -6640.00
00128            -760.00    -6640.00
00129            -780.00    -6720.00
00130            -760.00    -6720.00
00131            -760.00    -6720.00
00132            -760.00    -6720.00
00133            -780.00    -6720.00
00134            -780.00    -6720.00
00135            -780.00    -6720.00
00136            -780.00    -6800.00
00137            -800.00    -6800.00
00138            -780.00    -6800.00
00139            -800.00    -6800.00
00140            -820.00    -6880.00
00141            -780.00    -6880.00
00142            -820.00    -6880.00
00143            -820.00    -6800.00
00144            -820.00    -6880.00
00145            -780.00    -6880.00
00146            -820.00    -6880.00
00147            -800.00    -6880.00
00148            -840.00    -6880.00
00149            -820.00    -6880.00
00150            -840.00    -7040.00
00151            -820.00    -6960.00
00152            -840.00    -6960.00
00153            -840.00    -6960.00
00154            -840.00    -7040.00
00155            -840.00    -7040.00
00156            -840.00    -7040.00
00157            -840.00    -7040.00
00158            -840.00    -7120.00
00159            -860.00    -6960.00
00160            -840.00    -7120.00
00161            -860.00    -7120.00
00162            -860.00    -7040.00
00163            -860.00    -7120.00
00164            -860.00    -7120.00
00165            -860.00    -7120.00
00166            -860.00    -7120.00
00167            -860.00    -7200.00
00168            -860.00    -7120.00
00169            -860.00    -7120.00
00170            -860.00    -7200.00
00171            -860.00    -7200.00
00172            -860.00    -7200.00
00173            -860.00    -7120.00
00174            -880.00    -7200.00
00175            -860.00    -7200.00
00176            -880.00    -7200.00
00177            -880.00    -7200.00
00178            -900.00    -7200.00
00179            -900.00    -7200.00
00180            -900.00    -7200.00
00181            -900.00    -7200.00
00182            -900.00    -7280.00
00183            -900.00    -7200.00
00184            -880.00    -7280.00
00185            -900.00    -7200.00
00186            -920.00    -7280.00
00187            -900.00    -7200.00
00188            -920.00    -7360.00
00189            -920.00    -7280.00
00190            -920.00    -7360.00
00191            -920.00    -7200.00
00192            -920.00    -7360.00
00193            -920.00    -7360.00
00194            -920.00    -7280.00
00195            -920.00    -7360.00
00196            -920.00    -7360.00
00197            -920.00    -7200.00
00198            -920.00    -7280.00
00199            -920.00    -7360.00
00200            -920.00    -7200.00
00201            -920.00    -7280.00
00202            -920.00    -7200.00
00203            -940.00    -7360.00
00204            -920.00    -7280.00
00205            -920.00    -7280.00
00206            -940.00    -7280.00
00207            -940.00    -7280.00
00208            -940.00    -7200.00
00209            -920.00    -7200.00
00210            -940.00    -7200.00
00211            -940.00    -7200.00
00212            -940.00    -7200.00
00213            -940.00    -7200.00
00214            -940.00    -7200.00
00215            -940.00    -7200.00
00216            -940.00    -7200.00
00217            -920.00    -7200.00
00218            -920.00    -7200.00
00219            -940.00    -7200.00
00220            -940.00    -7200.00
00221            -940.00    -7120.00
00222            -940.00    -7120.00
00223            -940.00    -7200.00
00224            -940.00    -7200.00
00225            -940.00    -7200.00
00226            -940.00    -7120.00
00227            -940.00    -7120.00
00228            -940.00    -7120.00
00229            -940.00    -7120.00
00230            -920.00    -7120.00
00231            -920.00    -7120.00
00232            -920.00    -7120.00
00233            -940.00    -7040.00
00234            -940.00    -6960.00
00235            -940.00    -7040.00
00236            -940.00    -7040.00
00237            -920.00    -6960.00
00238            -940.00    -7040.00
00239            -920.00    -6960.00
00240            -940.00    -6960.00
00241            -940.00    -7040.00
00242            -940.00    -6960.00
00243            -920.00    -6880.00
00244            -940.00    -6960.00
00245            -940.00    -7040.00
00246            -940.00    -6960.00
00247            -940.00    -6880.00
00248            -920.00    -6880.00
00249            -940.00    -6880.00
00250            -940.00    -6880.00
00251            -940.00    -6880.00
00252            -920.00    -6800.00
00253            -920.00    -6800.00
00254            -940.00    -6800.00
00255            -940.00    -6800.00
00256            -940.00    -6800.00
00257            -940.00    -6720.00
00258            -940.00    -6720.00
00259            -920.00    -6720.00
00260            -940.00    -6720.00
00261            -920.00    -6720.00
00262            -940.00    -6720.00
00263            -920.00    -6640.00
00264            -940.00    -6720.00
00265            -940.00    -6640.00
00266            -920.00    -6560.00
00267            -920.00    -6560.00
00268            -920.00    -6560.00
00269            -920.00    -6560.00
00270            -920.00    -6560.00
00271            -920.00    -6480.00
00272            -920.00    -6480.00
00273            -920.00    -6480.00
00274            -920.00    -6400.00
00275            -920.00    -6400.00
00276            -920.00    -6400.00
00277            -920.00    -6400.00
00278            -920.00    -6320.00
00279            -900.00    -6400.00
00280            -920.00    -6320.00
00281            -900.00    -6240.00
00282            -900.00    -6240.00
00283            -920.00    -6240.00
00284            -900.00    -6240.00
00285            -900.00    -6160.00
00286            -900.00    -6160.00
00287            -900.00    -6080.00
00288            -900.00    -6160.00
00289            -900.00    -6080.00
00290            -900.00    -6080.00
00291            -860.00    -6080.00
00292            -880.00    -6000.00
00293            -880.00    -6000.00
00294            -880.00    -5920.00
00295            -880.00    -5920.00
00296            -860.00    -5920.00
00297            -860.00    -5920.00
00298            -860.00    -5840.00
00299            -860.00    -5840.00
00300            -860.00    -5840.00
00301            -860.00    -5760.00
00302            -860.00    -5760.00
00303            -860.00    -5760.00
00304            -860.00    -5680.00
00305            -860.00    -5680.00
00306            -860.00    -5680.00
00307            -860.00    -5600.00
00308            -840.00    -5600.00
00309            -840.00    -5520.00
00310            -840.00    -5520.00
00311            -840.00    -5520.00
00312            -840.00    -5440.00
00313            -840.00    -5440.00
00314            -820.00    -5440.00
00315            -840.00    -5440.00
00316            -820.00    -5280.00
00317            -840.00    -5280.00
00318            -820.00    -5280.00
00319            -840.00    -5200.00
00320            -840.00    -5200.00
00321            -820.00    -5200.00
00322            -820.00    -5120.00
00323            -820.00    -5120.00
00324            -820.00    -5120.00
00325            -820.00    -5120.00
00326            -820.00    -5040.00
00327            -820.00    -5040.00
00328            -780.00    -4960.00
00329            -800.00    -4960.00
00330            -800.00    -4880.00
00331            -780.00    -4880.00
00332            -780.00    -4800.00
00333            -780.00    -4800.00
00334            -780.00    -4800.00
00335            -760.00    -4640.00
00336            -760.00    -4720.00
00337            -760.00    -4640.00
00338            -760.00    -4640.00
00339            -760.00    -4560.00
00340            -760.00    -4400.00
00341            -760.00    -4400.00
00342            -760.00    -4480.00
00343            -740.00    -4400.00
00344            -760.00    -4400.00
00345            -740.00    -4320.00
00346            -740.00    -4320.00
00347            -740.00    -4320.00
00348            -720.00    -4240.00
00349            -740.00    -4240.00
00350            -700.00    -4160.00
00351            -700.00    -4160.00
00352            -700.00    -4160.00
00353            -700.00    -4080.00
00354            -700.00    -4080.00
00355            -700.00    -4000.00
00356            -700.00    -3920.00
00357            -680.00    -3920.00
00358            -680.00    -3840.00
00359            -680.00    -3840.00
00360            -680.00    -3840.00
00361            -680.00    -3760.00
00362            -680.00    -3760.00
00363            -660.00    -3680.00
00364            -660.00    -3600.00
00365            -660.00    -3680.00
00366            -660.00    -3600.00
00367            -640.00    -3600.00
00368            -660.00    -3520.00
00369            -620.00    -3520.00
00370            -620.00    -3440.00
00371            -620.00    -3360.00
00372            -600.00    -3360.00
00373            -600.00    -3280.00
00374            -620.00    -3280.00
00375            -620.00    -3200.00
00376            -600.00    -3200.00
00377            -600.00    -3120.00
00378            -600.00    -3200.00
00379            -600.00    -3040.00
00380            -580.00    -3040.00
00381            -600.00    -2960.00
00382            -600.00    -2960.00
00383            -580.00    -2880.00
00384            -580.00    -2880.00
00385            -580.00    -2880.00
00386            -580.00    -2720.00
00387            -540.00    -2800.00
00388            -540.00    -2720.00
00389            -540.00    -2640.00
00390            -540.00    -2640.00
00391            -540.00    -2640.00
00392            -520.00    -2560.00
00393            -540.00    -2480.00
00394            -540.00    -2400.00
00395            -520.00    -2400.00
00396            -520.00    -2400.00
00397            -520.00    -2320.00
00398            -500.00    -2240.00
00399            -520.00    -2320.00
00400            -500.00    -2240.00
00401            -500.00    -2240.00
00402            -500.00    -2080.00
00403            -480.00    -2000.00
00404            -480.00    -2000.00
00405            -460.00    -2000.00
00406            -460.00    -1920.00
00407            -460.00    -1840.00
00408            -460.00    -1840.00
00409            -440.00    -1760.00
00410            -440.00    -1760.00
00411            -440.00    -1760.00
00412            -440.00    -1680.00
00413            -440.00    -1600.00
00414            -420.00    -1600.00
00415            -420.00    -1520.00
00416            -420.00    -1520.00
00417            -420.00    -1440.00
00418            -400.00    -1440.00
00419            -380.00    -1440.00
00420            -380.00    -1360.00
00421            -380.00    -1280.00
00422            -380.00    -1200.00
00423            -360.00    -1120.00
00424            -380.00    -1120.00
00425            -360.00    -1120.00
00426            -360.00    -1120.00
00427            -340.00    -1040.00
00428            -360.00     -960.00
00429            -340.00     -960.00
00430            -340.00     -880.00
00431            -300.00     -800.00
00432            -300.00     -800.00
00433            -300.00     -720.00
00434            -300.00     -720.00
00435            -300.00     -720.00
00436            -300.00     -560.00
00437            -300.00     -640.00
00438            -280.00     -480.00
00439            -280.00     -480.00
00440            -280.00     -400.00
00441            -260.00     -400.00
00442            -260.00     -320.00
00443            -260.00     -320.00
00444            -260.00     -160.00
00445            -260.00     -160.00
00446            -240.00     -240.00
00447            -240.00      -80.00
00448            -220.00     -160.00
00449            -220.00        0.00
00450            -220.00        0.00
00451            -220.00        0.00
00452            -220.00       80.00
00453            -200.00       80.00
00454            -200.00      160.00
00455            -200.00      160.00
00456            -200.00      240.00
00457            -200.00      240.00
00458            -180.00      320.00
00459            -180.00      400.00
00460            -180.00      480.00
00461            -160.00      480.00
00462            -140.00      720.00
00463            -160.00      640.00
00464            -140.00      560.00
00465            -140.00      560.00
00466            -120.00      800.00
00467            -120.00      880.00
00468            -140.00      640.00
00469            -120.00      800.00
00470             -60.00     1120.00
00471            -100.00      880.00
00472            -100.00      800.00
00473             -60.00     1200.00
00474             -60.00     1120.00
00475             -80.00      960.00
00476             -60.00     1200.00
00477             -40.00     1280.00
00478             -60.00     1200.00
00479             -40.00     1280.00
00480             -20.00     1440.00
00481             -20.00     1280.00
00482             -20.00     1360.00
00483             -20.00     1600.00
00484               0.00     1520.00
00485              20.00     1600.00
00486               0.00     1600.00
00487              20.00     1600.00
00488              20.00     1680.00
00489              40.00     1760.00
00490              20.00     1760.00
00491              20.00     1840.00
00492              40.00     1840.00
00493              40.00     1920.00
00494              60.00     2000.00
00495              40.00     2080.00
00496              60.00     2000.00
00497              60.00     2160.00
00498             100.00     2160.00
00499             100.00     2160.00
00500             100.00     2240.00
00501              80.00     2240.00
00502             100.00     2320.00
00503             120.00     2400.00
00504             100.00     2400.00
00505             120.00     2480.00
00506             120.00     2560.00
00507             120.00     2560.00
00508             120.00     2560.00
00509             140.00     2720.00
00510             120.00     2640.00
00511             160.00     2720.00
00512             140.00     2720.00
00513             160.00     2880.00
00514             160.00     2880.00
00515             160.00     2880.00
00516             180.00     2880.00
00517             180.00     2960.00
00518             180.00     3040.00
00519             200.00     3040.00
00520             180.00     3120.00
00521             200.00     3120.00
00522             200.00     3120.00
00523             220.00     3280.00
00524             200.00     3280.00
00525             220.00     3280.00
00526             220.00     3360.00
00527             260.00     3360.00
00528             220.00     3440.00
00529             260.00     3440.00
00530             260.00     3520.00
00531             260.00     3520.00
00532             260.00     3520.00
00533             260.00     3520.00
00534             260.00     3680.00
00535             280.00     3680.00
00536             280.00     3680.00
00537             280.00     3760.00
00538             300.00     3840.00
00539             300.00     3840.00
00540             320.00     3840.00
00541             300.00     3920.00
00542             320.00     4000.00
00543             300.00     4000.00
00544             340.00     4080.00
00545             340.00     4080.00
00546             340.00     4160.00
00547             340.00     4160.00
00548             360.00     4160.00
00549             360.00     4240.00
00550             360.00     4320.00
00551             360.00     4320.00
00552             360.00     4400.00
00553             380.00     4400.00
00554             380.00     4400.00
00555             420.00     4480.00
00556             380.00     4480.00
00557             400.00     4560.00
00558             380.00     4480.00
00559             420.00     4640.00
00560             420.00     4640.00
00561             420.00     4640.00
00562             420.00     4800.00
00563             420.00     4720.00
00564             420.00     4720.00
00565             440.00     4800.00
00566             440.00     4800.00
00567             440.00     4880.00
00568             440.00     4880.00
00569             460.00     4960.00
00570             460.00     4960.00
00571             460.00     5040.00
00572             460.00     4960.00
00573             460.00     5040.00
00574             500.00     5120.00
00575             500.00     5120.00
00576             500.00     5200.00
00577             500.00     5120.00
00578             520.00     5280.00
00579             520.00     5280.00
00580             500.00     5280.00
00581             520.00     5360.00
00582             520.00     5360.00
00583             520.00     5360.00
00584             540.00     5440.00
00585             520.00     5440.00
00586             540.00     5440.00
00587             540.00     5520.00
00588             540.00     5600.00
00589             540.00     5600.00
00590             580.00     5680.00
00591             580.00     5680.00
00592             580.00     5680.00
00593             580.00     5680.00
00594             580.00     5760.00
00595             580.00     5840.00
00596             580.00     5760.00
00597             600.00     5840.00
00598             600.00     5840.00
00599             580.00     5920.00
00600             600.00     5920.00
00601             600.00     5920.00
00602             620.00     5920.00
00603             620.00     6000.00
00604             620.00     6000.00
00605             620.00     6000.00
00606             640.00     6080.00
00607             620.00     6080.00
00608             640.00     6080.00
00609             660.00     6160.00
00610             660.00     6080.00
00611             660.00     6160.00
00612             660.00     6240.00
00613             660.00     6240.00
00614             660.00     6320.00
00615             680.00     6320.00
00616             680.00     6320.00
00617             680.00     6320.00
00618             680.00     6320.00
00619             680.00     6400.00
00620             680.00     6400.00
00621             700.00     6480.00
00622             700.00     6400.00
00623             700.00     6480.00
00624             700.00     6480.00
00625             700.00     6560.00
00626             720.00     6560.00
00627             740.00     6560.00
00628             740.00     6560.00
00629             740.00     6640.00
00630             740.00     6640.00
00631             740.00     6640.00
00632             740.00     6640.00
00633             740.00     6720.00
00634             740.00     6720.00
00635             740.00     6720.00
00636             760.00     6720.00
00637             760.00     6720.00
00638             760.00     6720.00
00639             760.00     6880.00
00640             760.00     6720.00
00641             760.00     6800.00
00642             780.00     6880.00
00643             780.00     6880.00
00644             780.00     6880.00
00645             760.00     6880.00
00646             780.00     6960.00
00647             780.00     6960.00
00648             780.00     6960.00
00649             780.00     6960.00
00650             800.00     7040.00
00651             800.00     6960.00
00652             820.00     7040.00
00653             820.00     7040.00
00654             820.00     7040.00
00655             820.00     7040.00
00656             820.00     7040.00
00657             820.00     7040.00
00658             820.00     7040.00
00659             820.00     7040.00
00660             820.00     7040.00
00661             820.00     7040.00
00662             820.00     7200.00
00663             820.00     7120.00
00664             840.00     7120.00
00665             840.00     7120.00
00666             840.00     7200.00
00667             840.00     7200.00
00668             840.00     7200.00
00669             840.00     7200.00
00670             840.00     7200.00
00671             840.00     7200.00
00672             840.00     7280.00
00673             860.00     7280.00
00674             840.00     7200.00
00675             860.00     7280.00
00676             840.00     7200.00
00677             860.00     7280.00
00678             860.00     7280.00
00679             860.00     7280.00
00680             900.00     7280.00
00681             900.00     7360.00
00682             860.00     7360.00
00683             900.00     7360.00
00684             880.00     7360.00
00685             900.00     7360.00
00686             900.00     7360.00
00687             900.00     7360.00
00688             900.00     7360.00
00689             900.00     7360.00
00690             900.00     7360.00
00691             900.00     7360.00
00692             900.00     7360.00
00693             900.00     7360.00
00694             900.00     7360.00
00695             920.00     7360.00
00696             900.00     7360.00
00697             920.00     7360.00
00698             900.00     7360.00
00699             920.00     7360.00
00700             900.00     7360.00
00701             920.00     7360.00
00702             900.00     7360.00
00703             920.00     7360.00
00704             920.00     7360.00
00705             920.00     7360.00
00706             920.00     7360.00
00707             920.00     7360.00
00708             920.00     7360.00
00709             920.00     7360.00
00710             920.00     7360.00
00711             920.00     7360.00
00712             920.00     7360.00
00713             940.00     7360.00
00714             900.00     7360.00
00715             920.00     7360.00
00716             920.00     7360.00
00717             920.00     7360.00
00718             920.00     7360.00
00719             940.00     7360.00
00720             920.00     7280.00
00721             940.00     7360.00
00722             940.00     7280.00
00723             920.00     7360.00
00724             940.00     7360.00
00725             940.00     7280.00
00726             920.00     7280.00
00727             920.00     7360.00
00728             920.00     7360.00
00729             940.00     7360.00
00730             940.00     7280.00
00731             920.00     7280.00
00732             940.00     7280.00
00733             920.00     7280.00
00734             940.00     7200.00
00735             940.00     7280.00
00736             940.00     7280.00
00737             940.00     7200.00
00738             940.00     7200.00
00739             920.00     7200.00
00740             940.00     7200.00
00741             940.00     7200.00
00742             940.00     7200.00
00743             940.00     7200.00
00744             940.00     7120.00
00745             920.00     7120.00
00746             940.00     7120.00
00747             940.00     7040.00
00748             940.00     7040.00
00749             940.00     7040.00
00750             940.00     7040.00
00751             940.00     7040.00
00752             940.00     7040.00
00753             940.00     7040.00
00754             940.00     7040.00
00755             940.00     7040.00
00756             940.00     6960.00
00757             960.00     6960.00
00758             940.00     6960.00
00759             940.00     6960.00
00760             940.00     6880.00
00761             940.00     6960.00
00762             940.00     6880.00
00763             940.00     6880.00
00764             940.00     6880.00
00765             940.00     6880.00
00766             940.00     6880.00
00767             940.00     6880.00
00768             940.00     6800.00
00769             920.00     6800.00
00770             920.00     6720.00
00771             940.00     6720.00
00772             920.00     6720.00
00773             940.00     6720.00
00774             920.00     6640.00
00775             920.00     6640.00
00776             920.00     6640.00
00777             920.00     6560.00
00778             920.00     6640.00
00779             920.00     6640.00
00780             900.00     6560.00
00781             900.00     6560.00
00782             900.00     6480.00
00783             900.00     6560.00
00784             900.00     6480.00
00785             920.00     6400.00
00786             900.00     6400.00
00787             900.00     6400.00
00788             900.00     6400.00
00789             900.00     6400.00
00790             900.00     6320.00
00791             900.00     6400.00
00792             900.00     6320.00
00793             900.00     6240.00
00794             900.00     6240.00
00795             900.00     6240.00
00796             860.00     6240.00
00797             900.00     6240.00
00798             900.00     6240.00
00799             900.00     6080.00
00800             900.00     6080.00
00801             900.00     6080.00
00802             900.00     6080.00
00803             860.00     6000.00
00804             880.00     5920.00
00805             900.00     6000.00
00806             860.00     6000.00
00807             880.00     5920.00
00808             860.00     5920.00
00809             860.00     5920.00
00810             860.00     5840.00
00811             860.00     5840.00
00812             860.00     5760.00
00813             840.00     5840.00
00814             860.00     5760.00
00815             860.00     5680.00
00816             840.00     5680.00
00817             860.00     5600.00
00818             840.00     5680.00
00819             840.00     5600.00
00820             840.00     5600.00
00821             840.00     5600.00
00822             840.00     5520.00
00823             840.00     5520.00
00824             820.00     5440.00
00825             840.00     5360.00
00826             820.00     5360.00
00827             820.00     5280.00
00828             840.00     5280.00
00829             820.00     5280.00
00830             780.00     5280.00
00831             820.00     5200.00
00832             820.00     5120.00
00833             820.00     5120.00
00834             820.00     5120.00
00835             820.00     5120.00
00836             780.00     5040.00
00837             780.00     5040.00
00838             780.00     5040.00
00839             780.00     4960.00
00840             780.00     4960.00
00841             760.00     4960.00
00842             760.00     4800.00
00843             760.00     4800.00
00844             760.00     4800.00
00845             760.00     4720.00
00846             760.00     4720.00
00847             740.00     4720.00
00848             740.00     4640.00
00849             760.00     4640.00
00850             740.00     4560.00
00851             740.00     4560.00
00852             740.00     4480.00
00853             700.00     4480.00
00854             740.00     4480.00
00855             700.00     4400.00
00856             700.00     4400.00
00857             700.00     4320.00
00858             700.00     4320.00
00859             720.00     4320.00
00860             700.00     4240.00
00861             700.00     4160.00
00862             680.00     4080.00
00863             680.00     4080.00
00864             680.00     4160.00
00865             680.00     4000.00
00866             680.00     4000.00
00867             680.00     4000.00
00868             680.00     3840.00
00869             660.00     3840.00
00870             680.00     3840.00
00871             660.00     3840.00
00872             680.00     3760.00
00873             660.00     3760.00
00874             660.00     3680.00
00875             660.00     3680.00
00876             640.00     3680.00
00877             660.00     3520.00
00878             620.00     3520.00
00879             640.00     3520.00
00880             640.00     3440.00
00881             620.00     3360.00
00882             620.00     3440.00
00883             620.00     3360.00
00884             600.00     3280.00
00885             600.00     3200.00
00886             600.00     3280.00
00887             580.00     3200.00
00888             580.00     3200.00
00889             580.00     3120.00
00890             580.00     3040.00
00891             580.00     3040.00
00892             580.00     2960.00
00893             560.00     2880.00
00894             540.00     2880.00
00895             540.00     2800.00
00896             540.00     2800.00
00897             540.00     2720.00
00898             540.00     2720.00
00899             540.00     2720.00
00900             520.00     2560.00
00901             520.00     2560.00
00902             500.00     2560.00
00903             500.00     2480.00
00904             520.00     2480.00
00905             500.00     2400.00
00906             500.00     2400.00
00907             460.00     2400.00
00908             500.00     2320.00
00909             500.00     2240.00
00910             460.00     2160.00
00911             480.00     2160.00
00912             460.00     2160.00
00913             460.00     2160.00
00914             460.00     2080.00
00915             440.00     1920.00
00916             440.00     1920.00
00917             440.00     1920.00
00918             420.00     1840.00
00919             420.00     1840.00
00920             420.00     1760.00
00921             420.00     1760.00
00922             420.00     1680.00
00923             420.00     1600.00
00924             380.00     1600.00
00925             400.00     1520.00
00926             380.00     1520.00
00927             380.00     1440.00
00928             360.00     1440.00
00929             380.00     1360.00
00930             360.00     1360.00
00931             360.00     1280.00
00932             360.00     1280.00
00933             360.00     1200.00
00934             360.00     1200.00
00935             360.00     1120.00
00936             340.00     1120.00
00937             340.00     1040.00
00938             320.00      960.00
00939             320.00      880.00
00940             300.00      880.00
00941             300.00      800.00
00942             340.00      800.00
00943             280.00      800.00
00944             300.00      720.00
00945             280.00      720.00
00946             280.00      640.00
00947             280.00      640.00
00948             260.00      560.00
00949             260.00      480.00
00950             260.00      400.00
00951             260.00      320.00
00952             260.00      320.00
00953             260.00      320.00
00954             240.00      240.00
00955             220.00      240.00
00956             220.00      160.00
00957             220.00      160.00
00958             220.00       80.00
00959             220.00      160.00
00960             200.00        0.00
00961             200.00        0.00
00962             200.00      -80.00
00963             200.00     -160.00
00964             200.00     -160.00
00965             200.00     -160.00
00966             180.00     -320.00
00967             180.00     -320.00
00968             180.00     -320.00
00969             180.00     -400.00
00970             140.00     -400.00
00971             140.00     -400.00
00972             120.00     -560.00
00973             120.00     -720.00
00974             120.00     -640.00
00975             120.00     -480.00
00976             100.00     -640.00
00977              60.00     -880.00
00978              60.00     -800.00
00979             100.00     -720.00
00980              40.00     -960.00
00981              40.00    -1040.00
00982              60.00     -800.00
00983              40.00     -960.00
00984              20.00    -1200.00
00985              40.00    -1040.00
00986              20.00    -1120.00
00987              20.00    -1280.00
00988              20.00    -1200.00
00989              20.00    -1280.00
00990              20.00    -1440.00
00991             -20.00    -1440.00
00992               0.00    -1360.00
00993             -20.00    -1440.00
00994             -20.00    -1520.00
00995             -20.00    -1600.00
00996             -20.00    -1600.00
00997             -40.00    -1600.00
00998             -40.00    -1760.00
00999             -40.00    -1760.00
01000             -40.00    -1760.00
01001             -40.00    -1840.00
01002             -60.00    -1920.00
01003             -60.00    -1840.00
01004             -60.00    -2000.00
01005             -60.00    -2000.00
01006             -60.00    -2080.00
01007            -100.00    -2080.00
01008            -100.00    -2160.00
01009            -100.00    -2160.00
01010            -120.00    -2240.00
01011            -120.00    -2240.00
01012            -120.00    -2320.00
01013            -120.00    -2400.00
01014            -120.00    -2400.00
01015            -120.00    -2400.00
01016            -120.00    -2480.00
01017            -140.00    -2560.00
01018            -140.00    -2640.00
01019            -120.00    -2560.00
01020            -140.00    -2640.00
01021            -140.00    -2640.00
01022            -180.00    -2720.00
01023            -180.00    -2800.00
01024            -180.00    -2800.00
01025            -180.00    -2880.00
01026            -180.00    -2880.00
01027            -200.00    -2880.00
01028            -200.00    -2960.00
01029            -200.00    -3040.00
01030            -220.00    -3120.00
01031            -220.00    -3120.00
01032            -220.00    -3200.00
01033            -220.00    -3200.00
01034            -260.00    -3280.00
01035            -220.00    -3360.00
01036            -280.00    -3360.00
01037            -280.00    -3360.00
01038            -280.00    -3360.00
01039            -280.00    -3440.00
01040            -280.00    -3520.00
01041            -280.00    -3520.00
01042            -280.00    -3600.00
01043            -300.00    -3600.00
01044            -280.00    -3600.00
01045            -300.00    -3680.00
01046            -300.00    -3680.00
01047            -300.00    -3760.00
01048            -300.00    -3840.00
01049            -300.00    -3840.00
01050            -340.00    -3840.00
01051            -340.00    -3920.00
01052            -340.00    -3920.00
01053            -360.00    -4000.00
01054            -340.00    -4000.00
01055            -360.00    -4000.00
01056            -380.00    -4080.00
01057            -360.00    -4160.00
01058            -380.00    -4160.00
01059            -380.00    -4240.00
01060            -380.00    -4240.00
01061            -380.00    -4320.00
01062            -400.00    -4320.00
01063            -380.00    -4400.00
01064            -380.00    -4400.00
01065            -400.00    -4400.00
01066            -380.00    -4480.00
01067            -420.00    -4560.00
01068            -440.00    -4560.00
01069            -440.00    -4560.00
01070            -440.00    -4640.00
01071            -440.00    -4640.00
01072            -440.00    -4720.00
01073            -440.00    -4720.00
01074            -440.00    -4800.00
01075            -460.00    -4800.00
01076            -460.00    -4880.00
01077            -460.00    -4880.00
01078            -460.00    -4880.00
01079            -460.00    -4960.00
01080            -460.00    -4960.00
01081            -500.00    -4960.00
01082            -460.00    -4960.00
01083            -500.00    -5120.00
01084            -500.00    -5120.00
01085            -500.00    -5200.00
01086            -500.00    -5200.00
01087            -520.00    -5120.00
01088            -520.00    -5200.00
01089            -540.00    -5280.00
01090            -520.00    -5280.00
01091            -520.00    -5360.00
01092            -540.00    -5360.00
01093            -540.00    -5280.00
01094            -540.00    -5440.00
01095            -540.00    -5440.00
01096            -540.00    -5440.00
01097            -540.00    -5440.00
01098            -580.00    -5520.00
01099            -580.00    -5520.00
01100            -600.00    -5520.00
01101            -600.00    -5600.00
01102            -600.00    -5680.00
01103            -600.00    -5680.00
01104            -600.00    -5760.00
01105            -600.00    -5760.00
01106            -600.00    -5760.00
01107            -620.00    -5760.00
01108            -620.00    -5760.00
01109            -620.00    -5840.00
01110            -620.00    -5840.00
01111            -640.00    -5920.00
01112            -620.00    -5920.00
01113            -660.00    -5920.00
01114            -640.00    -6000.00
01115            -660.00    -6080.00
01116            -620.00    -6000.00
01117            -660.00    -6080.00
01118            -660.00    -6080.00
01119            -680.00    -6080.00
01120            -680.00    -6080.00
01121            -680.00    -6160.00
01122            -680.00    -6240.00
01123            -680.00    -6160.00
01124            -680.00    -6240.00
01125            -700.00    -6240.00
01126            -700.00    -6320.00
01127            -700.00    -6240.00
01128            -700.00    -6320.00
01129            -700.00    -6400.00
01130            -700.00    -6400.00
01131            -700.00    -6400.00
01132            -700.00    -6400.00
01133            -720.00    -6400.00
01134            -700.00    -6400.00
01135            -720.00    -6480.00
01136            -740.00    -6480.00
01137            -740.00    -6480.00
01138            -740.00    -6480.00
01139            -740.00    -6560.00
01140            -740.00    -6560.00
01141            -740.00    -6560.00
01142            -740.00    -6560.00
01143            -760.00    -6640.00
01144            -760.00    -6720.00
01145            -760.00    -6720.00
01146            -760.00    -6720.00
01147            -760.00    -6720.00
01148            -760.00    -6720.00
01149            -760.00    -6720.00
01150            -780.00    -6720.00
01151            -780.00    -6800.00
01152            -780.00    -6800.00
01153            -760.00    -6800.00
01154            -780.00    -6800.00
01155            -780.00    -6800.00
01156            -820.00    -6880.00
01157            -800.00    -6880.00
01158            -800.00    -6880.00
01159            -800.00    -6880.00
01160            -820.00    -6880.00
01161            -800.00    -6960.00
01162            -820.00    -6960.00
01163            -820.00    -6960.00
01164            -820.00    -6880.00
01165            -840.00    -6960.00
01166            -840.00    -6960.00
01167            -840.00    -7040.00
01168            -840.00    -6960.00
01169            -840.00    -7040.00
01170            -840.00    -6960.00
01171            -840.00    -7040.00
01172            -860.00    -7040.00
01173            -840.00    -7040.00
01174            -860.00    -7120.00
01175            -860.00    -7120.00
01176            -860.00    -7040.00
01177            -860.00    -7120.00
01178            -860.00    -7120.00
01179            -860.00    -7120.00
01180            -860.00    -7120.00
01181            -860.00    -7200.00
01182            -860.00    -7120.00
01183            -860.00    -7200.00
01184            -880.00    -7200.00
01185            -880.00    -7200.00
01186            -880.00    -7120.00
01187            -860.00    -7200.00
01188            -860.00    -7200.00
01189            -900.00    -7200.00
01190            -880.00    -7200.00
01191            -900.00    -7280.00
01192            -860.00    -7280.00
01193            -900.00    -7200.00
01194            -900.00    -7280.00
01195            -900.00    -7280.00
01196            -900.00    -7200.00
01197            -900.00    -7280.00
01198            -900.00    -7280.00
01199            -900.00    -7280.00
01200            -920.00    -7200.00
01201            -920.00    -7360.00
01202            -900.00    -7200.00
01203            -900.00    -7280.00
01204            -900.00    -7360.00
01205            -920.00    -7280.00
01206            -900.00    -7280.00
01207            -900.00    -7280.00
01208            -920.00    -7360.00
01209            -920.00    -7360.00
01210            -900.00    -7360.00
01211            -920.00    -7360.00
01212            -920.00    -7280.00
01213            -920.00    -7280.00
01214            -920.00    -7360.00
01215            -920.00    -7280.00
01216            -920.00    -7360.00
01217            -940.00    -7280.00
01218            -920.00    -7360.00
01219            -920.00    -7280.00
01220            -920.00    -7280.00
01221            -920.00    -7280.00
01222            -920.00    -7280.00
01223            -920.00    -7280.00
01224            -920.00    -7200.00
01225            -920.00    -7280.00
01226            -940.00    -7200.00
01227            -920.00    -7280.00
01228            -920.00    -7200.00
01229            -920.00    -7200.00
01230            -920.00    -7200.00
01231            -920.00    -7200.00
01232            -940.00    -7200.00
01233            -940.00    -7200.00
01234            -940.00    -7200.00
01235            -940.00    -7200.00
01236            -940.00    -7200.00
01237            -940.00    -7200.00
01238            -940.00    -7200.00
01239            -940.00    -7120.00
01240            -940.00    -7200.00
01241            -940.00    -7120.00
01242            -940.00    -7200.00
01243            -940.00    -7120.00
01244            -940.00    -7120.00
01245            -940.00    -7120.00
01246            -940.00    -7120.00
01247            -940.00    -7120.00
01248            -940.00    -7120.00
01249            -940.00    -6960.00
01250            -940.00    -7040.00
01251            -940.00    -7040.00
01252            -940.00    -7120.00
01253            -940.00    -6960.00
01254            -940.00    -6960.00
01255            -980.00    -6960.00
01256            -940.00    -7040.00
01257            -940.00    -6960.00
01258            -940.00    -6960.00
01259            -940.00    -6960.00
01260            -940.00    -6960.00
01261            -940.00    -6880.00
01262            -940.00    -6960.00
01263            -940.00    -6880.00
01264            -940.00    -6880.00
01265            -940.00    -6880.00
01266            -940.00    -6880.00
01267            -920.00    -6880.00
01268            -940.00    -6800.00
01269            -940.00    -6880.00
01270            -920.00    -6800.00
01271            -940.00    -6800.00
01272            -920.00    -6800.00
01273            -920.00    -6720.00
01274            -920.00    -6720.00
01275            -940.00    -6720.00
01276            -940.00    -6720.00
01277            -940.00    -6720.00
01278            -920.00    -6640.00
01279            -920.00    -6640.00
01280            -940.00    -6720.00
01281            -940.00    -6560.00
01282            -920.00    -6640.00
01283            -920.00    -6560.00
01284            -920.00    -6560.00
01285            -920.00    -6560.00
01286            -920.00    -6480.00
01287            -920.00    -6480.00
01288            -920.00    -6480.00
01289            -920.00    -6400.00
01290            -920.00    -6480.00
01291            -920.00    -6400.00
01292            -920.00    -6400.00
01293            -920.00    -6400.00
01294            -920.00    -6400.00
01295            -920.00    -6320.00
01296            -920.00    -6320.00
01297            -920.00    -6240.00
01298            -920.00    -6240.00
01299            -920.00    -6240.00
01300            -900.00    -6160.00
01301            -920.00    -6160.00
01302            -920.00    -6160.00
01303            -900.00    -6160.00
01304            -900.00    -6080.00
01305            -900.00    -6080.00
01306            -920.00    -6080.00
01307            -900.00    -6080.00
01308            -900.00    -6080.00
01309            -920.00    -6000.00
01310            -880.00    -5920.00
01311            -900.00    -5920.00
01312            -860.00    -5920.00
01313            -900.00    -5840.00
01314            -860.00    -5840.00
01315            -900.00    -5840.00
01316            -860.00    -5840.00
01317            -860.00    -5840.00
01318            -860.00    -5760.00
01319            -880.00    -5760.00
01320            -860.00    -5760.00
01321            -860.00    -5600.00
01322            -860.00    -5600.00
01323            -860.00    -5600.00
01324            -840.00    -5600.00
01325            -840.00    -5520.00
01326            -840.00    -5520.00
01327            -860.00    -5440.00
01328            -840.00    -5440.00
01329            -860.00    -5440.00
01330            -840.00    -5440.00
01331            -840.00    -5440.00
01332            -840.00    -5360.00
01333            -840.00    -5280.00
01334            -820.00    -5280.00
01335            -820.00    -5280.00
01336            -820.00    -5200.00
01337            -820.00    -5200.00
01338            -820.00    -5120.00
01339            -780.00    -5120.00
01340            -820.00    -5040.00
01341            -800.00    -5040.00
01342            -820.00    -5120.00
01343            -820.00    -5040.00
01344            -780.00    -4960.00
01345            -780.00    -4960.00
01346            -780.00    -4880.00
01347            -780.00    -4800.00
01348            -780.00    -4880.00
01349            -760.00    -4720.00
01350            -780.00    -4800.00
01351            -760.00    -4720.00
01352            -760.00    -4640.00
01353            -760.00    -4640.00
01354            -760.00    -4560.00
01355            -740.00    -4560.00
01356            -760.00    -4560.00
01357            -760.00    -4560.00
01358            -740.00    -4400.00
01359            -740.00    -4480.00
01360            -740.00    -4320.00
01361            -740.00    -4400.00
01362            -740.00    -4320.00
01363            -740.00    -4320.00
01364            -740.00    -4240.00
01365            -740.00    -4240.00
01366            -740.00    -4160.00
01367            -740.00    -4160.00
01368            -700.00    -4160.00
01369            -700.00    -4000.00
01370            -700.00    -4000.00
01371            -700.00    -4000.00
01372            -700.00    -3920.00
01373            -700.00    -3920.00
01374            -700.00    -3920.00
01375            -680.00    -3840.00
01376            -680.00    -3840.00
01377            -680.00    -3760.00
01378            -680.00    -3760.00
01379            -680.00    -3680.00
01380            -680.00    -3680.00
01381            -660.00    -3600.00
01382            -680.00    -3600.00
01383            -660.00    -3600.00
01384            -660.00    -3520.00
01385            -660.00    -3520.00
01386            -660.00    -3440.00
01387            -640.00    -3360.00
01388            -620.00    -3360.00
01389            -620.00    -3280.00
01390            -600.00    -3360.00
01391            -620.00    -3280.00
01392            -600.00    -3200.00
01393            -600.00    -3200.00
01394            -600.00    -3200.00
01395            -600.00    -3120.00
01396            -600.00    -3040.00
01397            -600.00    -2960.00
01398            -600.00    -2960.00
01399            -540.00    -2880.00
01400            -600.00    -2880.00
01401            -580.00    -2800.00
01402            -540.00    -2880.00
01403            -540.00    -2720.00
01404            -540.00    -2720.00
01405            -540.00    -2640.00
01406            -540.00    -2640.00
01407            -540.00    -2640.00
01408            -540.00    -2560.00
01409            -520.00    -2560.00
01410            -520.00    -2480.00
01411            -520.00    -2400.00
01412            -500.00    -2400.00
01413            -520.00    -2320.00
01414            -500.00    -2320.00
01415            -500.00    -2240.00
01416            -500.00    -2240.00
01417            -500.00    -2160.00
01418            -480.00    -2160.00
01419            -460.00    -2080.00
01420            -460.00    -2000.00
01421            -460.00    -2000.00
01422            -460.00    -2000.00
01423            -460.00    -1840.00
01424            -460.00    -1840.00
01425            -440.00    -1840.00
01426            -460.00    -1760.00
01427            -440.00    -1760.00
01428            -440.00    -1680.00
01429            -440.00    -1600.00
01430            -440.00    -1600.00
01431            -440.00    -1600.00
01432            -420.00    -1440.00
01433            -420.00    -1440.00
01434            -420.00    -1360.00
01435            -400.00    -1440.00
01436            -420.00    -1360.00
01437            -380.00    -1280.00
01438            -380.00    -1280.00
01439            -380.00    -1200.00
01440            -380.00    -1120.00
01441            -380.00    -1120.00
01442            -360.00    -1120.00
01443            -360.00    -1040.00
01444            -340.00    -1040.00
01445            -340.00     -960.00
01446            -360.00     -960.00
01447            -340.00     -880.00
01448            -320.00     -800.00
01449            -320.00     -720.00
01450            -340.00     -720.00
01451            -300.00     -720.00
01452            -300.00     -640.00
01453            -280.00     -560.00
01454            -280.00     -480.00
01455            -280.00     -480.00
01456            -280.00     -480.00
01457            -280.00     -400.00
01458            -280.00     -400.00
01459            -260.00     -320.00
01460            -260.00     -320.00
01461            -260.00     -160.00
01462            -260.00     -160.00
01463            -220.00      -80.00
01464            -240.00      -80.00
01465            -220.00      -80.00
01466            -220.00        0.00
01467            -220.00        0.00
01468            -220.00       80.00
01469            -200.00      160.00
01470            -200.00      160.00
01471            -200.00      160.00
01472            -200.00      240.00
01473            -200.00      320.00
01474            -180.00      320.00
01475            -180.00      320.00
01476            -160.00      480.00
01477            -180.00      560.00
01478            -140.00      720.00
01479            -140.00      560.00
01480            -180.00      560.00
01481            -120.00      560.00
01482            -120.00      800.00
01483            -100.00      880.00
01484            -120.00      720.00
01485            -100.00      800.00
01486             -60.00     1040.00
01487            -100.00      880.00
01488             -60.00      880.00
01489             -60.00     1120.00
01490             -60.00     1200.00
01491            -100.00      960.00
01492             -60.00     1200.00
01493             -40.00     1280.00
01494             -60.00     1200.00
01495             -60.00     1280.00
01496             -40.00     1440.00
01497             -40.00     1280.00
01498             -20.00     1440.00
01499             -20.00     1520.00
01500             -20.00     1520.00
01501              20.00     1600.00
01502             -20.00     1680.00
01503               0.00     1520.00
01504              20.00     1600.00
01505              20.00     1760.00
01506              20.00     1760.00
01507              20.00     1760.00
01508              40.00     1920.00
01509              40.00     1920.00
01510              40.00     1920.00
01511              40.00     2080.00
01512              60.00     2080.00
01513              60.00     2160.00
01514              60.00     2160.00
01515              80.00     2240.00
01516              60.00     2240.00
01517             100.00     2320.00
01518              80.00     2240.00
01519             100.00     2400.00
01520             100.00     2480.00
01521             100.00     2480.00
01522             120.00     2560.00
01523             120.00     2560.00
01524             120.00     2560.00
01525             140.00     2640.00
01526             140.00     2720.00
01527             140.00     2720.00
01528             160.00     2720.00
01529             180.00     2800.00
01530             180.00     2800.00
01531             180.00     2880.00
01532             160.00     2960.00
01533             200.00     2960.00
01534             180.00     3040.00
01535             200.00     3040.00
01536             200.00     3120.00
01537             200.00     3120.00
01538             220.00     3280.00
01539             200.00     3280.00
01540             220.00     3280.00
01541             200.00     3360.00
01542             220.00     3360.00
01543             220.00     3360.00
01544             240.00     3440.00
01545             260.00     3440.00
01546             260.00     3520.00
01547             260.00     3520.00
01548             280.00     3600.00
01549             260.00     3680.00
01550             260.00     3680.00
01551             280.00     3680.00
01552             280.00     3760.00
01553             280.00     3760.00
01554             280.00     3760.00
01555             300.00     3840.00
01556             300.00     3840.00
01557             300.00     4000.00
01558             300.00     4000.00
01559             320.00     4000.00
01560             340.00     4080.00
01561             340.00     4080.00
01562             340.00     4160.00
01563             340.00     4160.00
01564             340.00     4160.00
01565             360.00     4240.00
01566             360.00     4320.00
01567             360.00     4320.00
01568             360.00     4320.00
01569             360.00     4400.00
01570             380.00     4480.00
01571             360.00     4480.00
01572             380.00     4480.00
01573             380.00     4480.00
01574             420.00     4560.00
01575             400.00     4640.00
01576             420.00     4640.00
01577             420.00     4640.00
01578             420.00     4720.00
01579             420.00     4800.00
01580             420.00     4800.00
01581             440.00     4800.00
01582             420.00     4880.00
01583             440.00     4960.00
01584             440.00     4960.00
01585             460.00     4960.00
01586             460.00     5040.00
01587             460.00     5040.00
01588             460.00     5040.00
01589             460.00     5120.00
01590             460.00     5120.00
01591             500.00     5120.00
01592             500.00     5120.00
01593             500.00     5280.00
01594             500.00     5280.00
01595             520.00     5280.00
01596             520.00     5360.00
01597             520.00     5360.00
01598             520.00     5360.00
01599             540.00     5440.00
01600             520.00     5440.00
01601             540.00     5440.00
01602             540.00     5440.00
01603             560.00     5600.00
01604             540.00     5600.00
01605             580.00     5600.00
01606             580.00     5600.00
01607             580.00     5680.00
01608             580.00     5680.00
01609             580.00     5680.00
01610             580.00     5680.00
01611             600.00     5760.00
01612             600.00     5840.00
01613             600.00     5840.00
01614             600.00     5840.00
01615             600.00     5920.00
01616             620.00     5920.00
01617             600.00     5920.00
01618             620.00     5920.00
01619             620.00     6000.00
01620             620.00     6080.00
01621             640.00     6000.00
01622             620.00     6080.00
01623             620.00     6080.00
01624             640.00     6160.00
01625             640.00     6160.00
01626             660.00     6240.00
01627             660.00     6240.00
01628             660.00     6240.00
01629             660.00     6240.00
01630             660.00     6240.00
01631             660.00     6320.00
01632             660.00     6320.00
01633             680.00     6320.00
01634             680.00     6320.00
01635             680.00     6400.00
01636             680.00     6400.00
01637             680.00     6400.00
01638             680.00     6400.00
01639             700.00     6480.00
01640             700.00     6560.00
01641             700.00     6560.00
01642             700.00     6560.00
01643             700.00     6560.00
01644             720.00     6560.00
01645             740.00     6560.00
01646             740.00     6640.00
01647             720.00     6640.00
01648             740.00     6720.00
01649             720.00     6640.00
01650             740.00     6720.00
01651             740.00     6720.00
01652             740.00     6720.00
01653             760.00     6720.00
01654             760.00     6720.00
01655             760.00     6800.00
01656             760.00     6800.00
01657             760.00     6880.00
01658             780.00     6880.00
01659             780.00     6880.00
01660             760.00     6880.00
01661             780.00     6880.00
01662             800.00     6880.00
01663             780.00     6880.00
01664             820.00     6960.00
01665             780.00     6960.00
01666             820.00     6960.00
01667             820.00     6960.00
01668             820.00     7040.00
01669             820.00     6960.00
01670             820.00     7040.00
01671             820.00     7040.00
01672             820.00     7040.00
01673             820.00     7040.00
01674             820.00     7040.00
01675             820.00     7040.00
01676             840.00     7120.00
01677             820.00     7120.00
01678             820.00     7200.00
01679             840.00     7200.00
01680             840.00     7200.00
01681             840.00     7200.00
01682             840.00     7200.00
01683             840.00     7200.00
01684             840.00     7200.00
01685             840.00     7200.00
01686             840.00     7280.00
01687             840.00     7280.00
01688             840.00     7200.00
01689             840.00     7280.00
01690             840.00     7280.00
01691             860.00     7280.00
01692             860.00     7280.00
01693             860.00     7280.00
01694             840.00     7280.00
01695             860.00     7280.00
01696             860.00     7280.00
01697             880.00     7280.00
01698             860.00     7280.00
01699             860.00     7360.00
01700             860.00     7360.00
01701             900.00     7280.00
01702             860.00     7280.00
01703             900.00     7360.00
01704             860.00     7360.00
01705             900.00     7360.00
01706             900.00     7360.00
01707             900.00     7360.00
01708             900.00     7360.00
01709             900.00     7360.00
01710             900.00     7360.00
01711             900.00     7360.00
01712             900.00     7360.00
01713             900.00     7360.00
01714             900.00     7440.00
01715             920.00     7360.00
01716             900.00     7360.00
01717             920.00     7360.00
01718             920.00     7360.00
01719             920.00     7360.00
01720             900.00     7360.00
01721             920.00     7360.00
01722             920.00     7360.00
01723             920.00     7360.00
01724             900.00     7360.00
01725             920.00     7360.00
01726             920.00     7360.00
01727             920.00     7360.00
01728             920.00     7360.00
01729             920.00     7360.00
01730             940.00     7360.00
01731             940.00     7280.00
01732             940.00     7360.00
01733             920.00     7360.00
01734             940.00     7280.00
01735             920.00     7360.00
01736             940.00     7360.00
01737             940.00     7360.00
01738             940.00     7360.00
01739             940.00     7280.00
01740             940.00     7280.00
01741             940.00     7280.00
01742             940.00     7360.00
01743             940.00     7280.00
01744             940.00     7280.00
01745             960.00     7280.00
01746             940.00     7280.00
01747             940.00     7280.00
01748             940.00     7280.00
01749             940.00     7360.00
01750             940.00     7280.00
01751             940.00     7280.00
01752             920.00     7280.00
01753             940.00     7200.00
01754             920.00     7200.00
01755             940.00     7280.00
01756             940.00     7200.00
01757             940.00     7200.00
01758             940.00     7200.00
01759             920.00     7120.00
01760             940.00     7200.00
01761             920.00     7120.00
01762             920.00     7040.00
01763             920.00     7040.00
01764             940.00     7040.00
01765             940.00     7120.00
01766             920.00     7040.00
01767             920.00     7040.00
01768             940.00     7040.00
01769             920.00     7040.00
01770             940.00     6960.00
01771             940.00     6960.00
01772             940.00     6960.00
01773             920.00     6960.00
01774             920.00     6960.00
01775             920.00     6960.00
01776             940.00     6960.00
01777             920.00     6880.00
01778             920.00     6880.00
01779             940.00     6960.00
01780             920.00     6880.00
01781             920.00     6880.00
01782             940.00     6880.00
01783             920.00     6800.00
01784             940.00     6880.00
01785             940.00     6720.00
01786             920.00     6720.00
01787             920.00     6720.00
01788             920.00     6720.00
01789             920.00     6720.00
01790             920.00     6640.00
01791             920.00     6720.00
01792             920.00     6640.00
01793             920.00     6560.00
01794             940.00     6640.00
01795             900.00     6560.00
01796             920.00     6560.00
01797             920.00     6560.00
01798             920.00     6560.00
01799             920.00     6560.00
01800             920.00     6480.00
01801             900.00     6480.00
01802             920.00     6400.00
01803             920.00     6480.00
01804             920.00     6400.00
01805             900.00     6400.00
01806             900.00     6400.00
01807             920.00     6320.00
01808             900.00     6320.00
01809             920.00     6240.00
01810             900.00     6320.00
01811             900.00     6240.00
01812             900.00     6240.00
01813             900.00     6240.00
01814             900.00     6160.00
01815             880.00     6160.00
01816             860.00     6080.00
01817             860.00     6080.00
01818             900.00     6000.00
01819             860.00     6080.00
01820             860.00     6000.00
01821             860.00     5920.00
01822             860.00     5920.00
01823             860.00     5920.00
01824             860.00     5920.00
01825             840.00     5920.00
01826             840.00     5840.00
01827             860.00     5840.00
01828             840.00     5760.00
01829             860.00     5760.00
01830             860.00     5760.00
01831             840.00     5680.00
01832             840.00     5680.00
01833             840.00     5600.00
01834             840.00     5600.00
01835             840.00     5600.00
01836             840.00     5600.00
01837             840.00     5600.00
01838             820.00     5440.00
01839             840.00     5440.00
01840             820.00     5440.00
01841             820.00     5440.00
01842             820.00     5360.00
01843             820.00     5280.00
01844             820.00     5360.00
01845             820.00     5280.00
01846             820.00     5280.00
01847             820.00     5280.00
01848             780.00     5200.00
01849             780.00     5120.00
01850             780.00     5120.00
01851             800.00     5120.00
01852             780.00     5040.00
01853             820.00     5040.00
01854             760.00     4960.00
01855             780.00     4960.00
01856             780.00     4960.00
01857             780.00     4960.00
01858             780.00     4800.00
01859             760.00     4880.00
01860             760.00     4800.00
01861             760.00     4720.00
01862             760.00     4720.00
01863             740.00     4720.00
01864             760.00     4640.00
01865             760.00     4640.00
01866             740.00     4560.00
01867             740.00     4560.00
01868             740.00     4480.00
01869             740.00     4480.00
01870             720.00     4480.00
01871             740.00     4320.00
01872             720.00     4400.00
01873             740.00     4320.00
01874             700.00     4320.00
01875             720.00     4240.00
01876             700.00     4160.00
01877             700.00     4160.00
01878             700.00     4160.00
01879             700.00     4080.00
01880             700.00     4080.00
01881             680.00     4000.00
01882             680.00     4000.00
01883             680.00     4000.00
01884             660.00     3840.00
01885             660.00     3920.00
01886             660.00     3840.00
01887             640.00     3760.00
01888             660.00     3760.00
01889             640.00     3760.00
01890             660.00     3680.00
01891             620.00     3680.00
01892             620.00     3680.00
01893             620.00     3520.00
01894             640.00     3600.00
01895             600.00     3520.00
01896             600.00     3440.00
01897             600.00     3440.00
01898             600.00     3360.00
01899             600.00     3360.00
01900             600.00     3360.00
01901             600.00     3280.00
01902             580.00     3200.00
01903             580.00     3280.00
01904             580.00     3200.00
01905             580.00     3120.00
01906             580.00     3120.00
01907             580.00     3040.00
01908             580.00     3040.00
01909             540.00     2880.00
01910             540.00     2880.00
01911             540.00     2880.00
01912             540.00     2800.00
01913             540.00     2800.00
01914             520.00     2720.00
01915             520.00     2640.00
01916             540.00     2720.00
01917             520.00     2560.00
01918             520.00     2560.00
01919             520.00     2560.00
01920             500.00     2480.00
01921             500.00     2400.00
01922             520.00     2400.00
01923             500.00     2400.00
01924             500.00     2240.00
01925             480.00     2320.00
01926             460.00     2240.00
01927             480.00     2160.00
01928             460.00     2080.00
01929             460.00     2000.00
01930             460.00     2000.00
01931             440.00     2080.00
01932             440.00     1920.00
01933             440.00     1840.00
01934             420.00     1840.00
01935             420.00     1840.00
01936             420.00     1760.00
01937             420.00     1760.00
01938             420.00     1680.00
01939             420.00     1600.00
01940             400.00     1600.00
01941             380.00     1600.00
01942             380.00     1520.00
01943             380.00     1440.00
01944             380.00     1440.00
01945             380.00     1440.00
01946             360.00     1360.00
01947             360.00     1280.00
01948             360.00     1280.00
01949             340.00     1200.00
01950             340.00     1120.00
01951             340.00     1120.00
01952             340.00     1120.00
01953             300.00     1040.00
01954             340.00     1040.00
01955             320.00      960.00
01956             300.00      880.00
01957             300.00      880.00
01958             300.00      800.00
01959             280.00      800.00
01960             280.00      720.00
01961             280.00      720.00
01962             280.00      640.00
01963             260.00      640.00
01964             260.00      560.00
01965             260.00      560.00
01966             260.00      480.00
01967             260.00      320.00
01968             260.00      320.00
01969             240.00      320.00
01970             220.00      240.00
01971             220.00      240.00
01972             220.00      240.00
01973             220.00      160.00
01974             200.00      160.00
01975             200.00        0.00
01976             200.00        0.00
01977             200.00      -80.00
01978             200.00      -80.00
01979             200.00      -80.00
01980             180.00     -160.00
01981             180.00     -160.00
01982             180.00     -320.00
01983             180.00     -320.00
01984             180.00     -320.00
01985             180.00     -320.00
01986             140.00     -400.00
01987             140.00     -480.00
01988             140.00     -640.00
01989             120.00     -720.00
01990             120.00     -720.00
01991             120.00     -480.00
01992             120.00     -640.00
01993              80.00     -880.00
01994             100.00     -800.00
01995             100.00     -720.00
01996              60.00     -960.00
01997              60.00    -1040.00
01998              60.00     -880.00
01999              40.00    -1040.00
02000              40.00    -1200.00
02001              40.00    -1040.00
02002              40.00    -1200.00
02003              20.00    -1280.00
02004              40.00    -1200.00
02005              20.00    -1280.00
02006             -20.00    -1440.00
02007             -20.00    -1360.00
02008              20.00    -1360.00
02009             -20.00    -1440.00
02010             -20.00    -1520.00
02011             -20.00    -1600.00
02012             -40.00    -1600.00
02013             -40.00    -1600.00
02014             -40.00    -1760.00
02015             -40.00    -1760.00
02016             -60.00    -1760.00
02017             -60.00    -1840.00
02018             -60.00    -1920.00
02019             -60.00    -1840.00
02020             -60.00    -1920.00
02021             -80.00    -2000.00
02022             -60.00    -2000.00
02023            -100.00    -2160.00
02024            -100.00    -2080.00
02025            -120.00    -2160.00
02026            -100.00    -2240.00
02027            -120.00    -2320.00
02028            -120.00    -2320.00
02029            -120.00    -2400.00
02030            -120.00    -2400.00
02031            -140.00    -2480.00
02032            -140.00    -2480.00
02033            -140.00    -2560.00
02034            -140.00    -2560.00
02035            -160.00    -2640.00
02036            -180.00    -2720.00
02037            -160.00    -2720.00
02038            -180.00    -2800.00
02039            -180.00    -2720.00
02040            -180.00    -2800.00
02041            -200.00    -2880.00
02042            -200.00    -2880.00
02043            -200.00    -2960.00
02044            -220.00    -3040.00
02045            -200.00    -3040.00
02046            -200.00    -3120.00
02047            -220.00    -3200.00
02048            -220.00    -3200.00
02049            -220.00    -3280.00
02050            -220.00    -3280.00
02051            -240.00    -3280.00
02052            -260.00    -3360.00
02053            -240.00    -3360.00
02054            -260.00    -3440.00
02055            -260.00    -3440.00
02056            -260.00    -3520.00
02057            -280.00    -3600.00
02058            -280.00    -3600.00
02059            -280.00    -3600.00
02060            -280.00    -3680.00
02061            -300.00    -3680.00
02062            -280.00    -3680.00
02063            -300.00    -3680.00
02064            -300.00    -3760.00
02065            -300.00    -3840.00
02066            -340.00    -3920.00
02067            -300.00    -3920.00
02068            -340.00    -3920.00
02069            -340.00    -4000.00
02070            -360.00    -4000.00
02071            -340.00    -4080.00
02072            -360.00    -4000.00
02073            -360.00    -4160.00
02074            -360.00    -4160.00
02075            -360.00    -4240.00
02076            -380.00    -4240.00
02077            -380.00    -4320.00
02078            -380.00    -4320.00
02079            -420.00    -4320.00
02080            -420.00    -4400.00
02081            -420.00    -4480.00
02082            -420.00    -4480.00
02083            -400.00    -4480.00
02084            -420.00    -4560.00
02085            -440.00    -4560.00
02086            -440.00    -4640.00
02087            -440.00    -4640.00
02088            -440.00    -4720.00
02089            -440.00    -4720.00
02090            -440.00    -4800.00
02091            -460.00    -4800.00
02092            -440.00    -4880.00
02093            -460.00    -4880.00
02094            -460.00    -4960.00
02095            -480.00    -4880.00
02096            -460.00    -4960.00
02097            -500.00    -4960.00
02098            -500.00    -4960.00
02099            -500.00    -5040.00
02100            -500.00    -5120.00
02101            -520.00    -5120.00
02102            -520.00    -5200.00
02103            -520.00    -5200.00
02104            -520.00    -5200.00
02105            -520.00    -5280.00
02106            -520.00    -5200.00
02107            -540.00    -5280.00
02108            -520.00    -5280.00
02109            -560.00    -5280.00
02110            -540.00    -5440.00
02111            -540.00    -5440.00
02112            -540.00    -5440.00
02113            -580.00    -5520.00
02114            -580.00    -5520.00
02115            -580.00    -5520.00
02116            -580.00    -5600.00
02117            -580.00    -5600.00
02118            -580.00    -5680.00
02119            -580.00    -5680.00
02120            -600.00    -5760.00
02121            -600.00    -5760.00
02122            -600.00    -5760.00
02123            -620.00    -5760.00
02124            -600.00    -5840.00
02125            -600.00    -5840.00
02126            -600.00    -5840.00
02127            -620.00    -5920.00
02128            -620.00    -5920.00
02129            -640.00    -5920.00
02130            -640.00    -6000.00
02131            -620.00    -5920.00
02132            -620.00    -6000.00
02133            -660.00    -6080.00
02134            -660.00    -6080.00
02135            -660.00    -6080.00
02136            -660.00    -6160.00
02137            -680.00    -6080.00
02138            -680.00    -6240.00
02139            -680.00    -6160.00
02140            -680.00    -6240.00
02141            -680.00    -6240.00
02142            -680.00    -6240.00
02143            -680.00    -6240.00
02144            -700.00    -6320.00
02145            -700.00    -6240.00
02146            -700.00    -6400.00
02147            -700.00    -6400.00
02148            -720.00    -6400.00
02149            -740.00    -6400.00
02150            -740.00    -6400.00
02151            -740.00    -6480.00
02152            -720.00    -6480.00
02153            -740.00    -6560.00
02154            -720.00    -6480.00
02155            -740.00    -6560.00
02156            -760.00    -6560.00
02157            -740.00    -6560.00
02158            -760.00    -6560.00
02159            -760.00    -6640.00
02160            -760.00    -6640.00
02161            -760.00    -6720.00
02162            -760.00    -6720.00
02163            -780.00    -6720.00
02164            -780.00    -6720.00
02165            -760.00    -6800.00
02166            -780.00    -6720.00
02167            -780.00    -6800.00
02168            -800.00    -6720.00
02169            -780.00    -6800.00
02170            -800.00    -6800.00
02171            -780.00    -6800.00
02172            -800.00    -6800.00
02173            -820.00    -6880.00
02174            -780.00    -6880.00
02175            -800.00    -6880.00
02176            -820.00    -6880.00
02177            -800.00    -6880.00
02178            -820.00    -6880.00
02179            -820.00    -6880.00
02180            -840.00    -6880.00
02181            -820.00    -6960.00
02182            -820.00    -6960.00
02183            -840.00    -6960.00
02184            -840.00    -7040.00
02185            -840.00    -6960.00
02186            -840.00    -7040.00
02187            -840.00    -6960.00
02188            -840.00    -7040.00
02189            -860.00    -6960.00
02190            -840.00    -7040.00
02191            -840.00    -7120.00
02192            -860.00    -7040.00
02193            -860.00    -7120.00
02194            -860.00    -7120.00
02195            -860.00    -7120.00
02196            -860.00    -7120.00
02197            -860.00    -7200.00
02198            -860.00    -7120.00
02199            -860.00    -7200.00
02200            -860.00    -7120.00
02201            -860.00    -7200.00
02202            -900.00    -7120.00
02203            -860.00    -7200.00
02204            -860.00    -7200.00
02205            -900.00    -7120.00
02206            -900.00    -7200.00
02207            -900.00    -7200.00
02208            -880.00    -7200.00
02209            -900.00    -7200.00
02210            -900.00    -7200.00
02211            -880.00    -7200.00
02212            -900.00    -7200.00
02213            -900.00    -7280.00
02214            -920.00    -7280.00
02215            -920.00    -7200.00
02216            -900.00    -7200.00
02217            -900.00    -7280.00
02218            -900.00    -7280.00
02219            -920.00    -7280.00
02220            -920.00    -7280.00
02221            -920.00    -7280.00
02222            -920.00    -7360.00
02223            -920.00    -7280.00
02224            -920.00    -7280.00
02225            -920.00    -7360.00
02226            -920.00    -7360.00
02227            -920.00    -7200.00
02228            -920.00    -7200.00
02229            -920.00    -7280.00
02230            -940.00    -7280.00
02231            -920.00    -7360.00
02232            -920.00    -7280.00
02233            -940.00    -7200.00
02234            -920.00    -7280.00
02235            -940.00    -7360.00
02236            -920.00    -7200.00
02237            -940.00    -7280.00
02238            -920.00    -7200.00
02239            -940.00    -7280.00
02240            -940.00    -7280.00
02241            -920.00    -7360.00
02242            -940.00    -7200.00
02243            -940.00    -7280.00
02244            -940.00    -7200.00
02245            -940.00    -7200.00
02246            -940.00    -7200.00
02247            -920.00    -7200.00
02248            -940.00    -7200.00
02249            -940.00    -7200.00
02250            -940.00    -7200.00
02251            -920.00    -7200.00
02252            -940.00    -7200.00
02253            -940.00    -7120.00
02254            -940.00    -7200.00
02255            -940.00    -7120.00
02256            -940.00    -7200.00
02257            -940.00    -7120.00
02258            -940.00    -7200.00
02259            -920.00    -7120.00
02260            -940.00    -7120.00
02261            -940.00    -7120.00
02262            -920.00    -7120.00
02263            -940.00    -7120.00
02264            -940.00    -7120.00
02265            -920.00    -7040.00
02266            -940.00    -7120.00
02267            -920.00    -7120.00
02268            -920.00    -6960.00
02269            -940.00    -7040.00
02270            -940.00    -6960.00
02271            -920.00    -6960.00
02272            -940.00    -7040.00
02273            -940.00    -6960.00
02274            -940.00    -6960.00
02275            -940.00    -6960.00
02276            -940.00    -6960.00
02277            -940.00    -6880.00
02278            -940.00    -6880.00
02279            -940.00    -6880.00
02280            -940.00    -6880.00
02281            -940.00    -6880.00
02282            -940.00    -6880.00
02283            -940.00    -6880.00
02284            -940.00    -6880.00
02285            -940.00    -6880.00
02286            -940.00    -6800.00
02287            -940.00    -6800.00
02288            -940.00    -6800.00
02289            -940.00    -6720.00
02290            -940.00    -6720.00
02291            -940.00    -6720.00
02292            -940.00    -6720.00
02293            -940.00    -6720.00
02294            -920.00    -6720.00
02295            -940.00    -6640.00
02296            -920.00    -6560.00
02297            -940.00    -6560.00
02298            -940.00    -6560.00
02299            -940.00    -6560.00
02300            -940.00    -6560.00
02301            -920.00    -6480.00
02302            -940.00    -6480.00
02303            -940.00    -6480.00
02304            -920.00    -6480.00
02305            -920.00    -6480.00
02306            -920.00    -6480.00
02307            -920.00    -6400.00
02308            -920.00    -6400.00
02309            -920.00    -6400.00
02310            -920.00    -6320.00
02311            -920.00    -6240.00
02312            -920.00    -6240.00
02313            -900.00    -6240.00
02314            -900.00    -6240.00
02315            -900.00    -6160.00
02316            -900.00    -6240.00
02317            -900.00    -6160.00
02318            -900.00    -6160.00
02319            -900.00    -6160.00
02320            -900.00    -6160.00
02321            -880.00    -6160.00
02322            -900.00    -6080.00
02323            -860.00    -6000.00
02324            -880.00    -6080.00
02325            -900.00    -5920.00
02326            -880.00    -5920.00
02327            -860.00    -5920.00
02328            -860.00    -5920.00
02329            -860.00    -5920.00
02330            -860.00    -5840.00
02331            -860.00    -5840.00
02332            -860.00    -5840.00
02333            -860.00    -5840.00
02334            -880.00    -5760.00
02335            -860.00    -5760.00
02336            -860.00    -5760.00
02337            -860.00    -5680.00
02338            -860.00    -5600.00
02339            -860.00    -5680.00
02340            -840.00    -5600.00
02341            -860.00    -5520.00
02342            -860.00    -5520.00
02343            -840.00    -5520.00
02344            -860.00    -5440.00
02345            -860.00    -5440.00
02346            -840.00    -5360.00
02347            -840.00    -5440.00
02348            -840.00    -5360.00
02349            -820.00    -5360.00
02350            -840.00    -5280.00
02351            -840.00    -5200.00
02352            -820.00    -5280.00
02353            -820.00    -5200.00
02354            -820.00    -5200.00
02355            -800.00    -5120.00
02356            -820.00    -5120.00
02357            -820.00    -5120.00
02358            -820.00    -4960.00
02359            -800.00    -5040.00
02360            -820.00    -4960.00
02361            -780.00    -4960.00
02362            -800.00    -4880.00
02363            -780.00    -4960.00
02364            -780.00    -4800.00
02365            -780.00    -4800.00
02366            -780.00    -4800.00
02367            -760.00    -4800.00
02368            -760.00    -4720.00
02369            -760.00    -4640.00
02370            -760.00    -4640.00
02371            -760.00    -4560.00
02372            -760.00    -4560.00
02373            -760.00    -4560.00
02374            -760.00    -4480.00
02375            -740.00    -4400.00
02376            -740.00    -4400.00
02377            -740.00    -4320.00
02378            -740.00    -4320.00
02379            -740.00    -4320.00
02380            -700.00    -4240.00
02381            -700.00    -4240.00
02382            -700.00    -4160.00
02383            -700.00    -4160.00
02384            -700.00    -4160.00
02385            -700.00    -4080.00
02386            -700.00    -4000.00
02387            -700.00    -4000.00
02388            -700.00    -4000.00
02389            -680.00    -3920.00
02390            -680.00    -3840.00
02391            -680.00    -3840.00
02392            -680.00    -3840.00
02393            -660.00    -3760.00
02394            -660.00    -3760.00
02395            -680.00    -3680.00
02396            -660.00    -3680.00
02397            -640.00    -3600.00
02398            -660.00    -3600.00
02399            -660.00    -3520.00
02400            -620.00    -3520.00
02401            -620.00    -3520.00
02402            -620.00    -3440.00
02403            -620.00    -3440.00
02404            -620.00    -3360.00
02405            -620.00    -3280.00
02406            -620.00    -3280.00
02407            -620.00    -3280.00
02408            -620.00    -3200.00
02409            -600.00    -3200.00
02410            -600.00    -3200.00
02411            -600.00    -3040.00
02412            -600.00    -3040.00
02413            -600.00    -2960.00
02414            -580.00    -2960.00
02415            -580.00    -2960.00
02416            -580.00    -2880.00
02417            -580.00    -2880.00
02418            -580.00    -2720.00
02419            -560.00    -2720.00
02420            -580.00    -2720.00
02421            -540.00    -2640.00
02422            -540.00    -2640.00
02423            -540.00    -2640.00
02424            -520.00    -2560.00
02425            -540.00    -2480.00
02426            -540.00    -2480.00
02427            -520.00    -2400.00
02428            -500.00    -2400.00
02429            -500.00    -2320.00
02430            -500.00    -2320.00
02431            -500.00    -2240.00
02432            -500.00    -2160.00
02433            -500.00    -2160.00
02434            -480.00    -2080.00
02435            -460.00    -2080.00
02436            -460.00    -1920.00
02437            -460.00    -2000.00
02438            -460.00    -1920.00
02439            -460.00    -1920.00
02440            -440.00    -1840.00
02441            -440.00    -1760.00
02442            -440.00    -1760.00
02443            -440.00    -1760.00
02444            -440.00    -1680.00
02445            -420.00    -1680.00
02446            -420.00    -1600.00
02447            -420.00    -1600.00
02448            -420.00    -1520.00
02449            -400.00    -1440.00
02450            -420.00    -1440.00
02451            -380.00    -1360.00
02452            -360.00    -1360.00
02453            -380.00    -1360.00
02454            -380.00    -1280.00
02455            -380.00    -1200.00
02456            -380.00    -1200.00
02457            -360.00    -1120.00
02458            -360.00    -1120.00
02459            -360.00    -1040.00
02460            -360.00     -960.00
02461            -300.00     -960.00
02462            -340.00     -960.00
02463            -300.00     -880.00
02464            -340.00     -800.00
02465            -300.00     -800.00
02466            -300.00     -720.00
02467            -300.00     -720.00
02468            -300.00     -720.00
02469            -300.00     -640.00
02470            -300.00     -480.00
02471            -300.00     -480.00
02472            -280.00     -480.00
02473            -280.00     -400.00
02474            -280.00     -320.00
02475            -280.00     -320.00
02476            -260.00     -320.00
02477            -260.00     -160.00
02478            -260.00     -160.00
02479            -240.00     -160.00
02480            -220.00      -80.00
02481            -220.00      -80.00
02482            -220.00      -80.00
02483            -220.00        0.00
02484            -200.00      160.00
02485            -220.00      160.00
02486            -220.00      160.00
02487            -200.00      240.00
02488            -200.00      240.00
02489            -200.00      320.00
02490            -180.00      320.00
02491            -180.00      320.00
02492            -180.00      400.00
02493            -180.00      560.00
02494            -140.00      640.00
02495            -140.00      560.00
02496            -180.00      560.00
02497            -140.00      560.00
02498            -120.00      880.00
02499            -120.00      880.00
02500            -120.00      640.00
02501            -120.00      800.00
02502             -80.00      960.00
02503            -120.00      880.00
02504             -80.00      800.00
02505             -60.00     1120.00
02506             -60.00     1200.00
02507             -60.00      960.00
02508             -40.00     1200.00
02509             -40.00     1280.00
02510             -60.00     1200.00
02511             -40.00     1280.00
02512             -40.00     1440.00
02513             -20.00     1280.00
02514             -20.00     1440.00
02515               0.00     1520.00
02516              20.00     1440.00
02517              20.00     1520.00
02518              20.00     1680.00
02519              20.00     1600.00
02520              40.00     1760.00
02521              40.00     1840.00
02522              20.00     1760.00
02523              40.00     1920.00
02524              40.00     1920.00
02525              40.00     1840.00
02526              60.00     2000.00
02527              60.00     2080.00
02528              40.00     2000.00
02529              60.00     2160.00
02530             100.00     2160.00
02531             100.00     2160.00
02532             100.00     2320.00
02533             100.00     2320.00
02534             100.00     2320.00
02535             100.00     2400.00
02536             100.00     2400.00
02537             120.00     2480.00
02538             100.00     2480.00
02539             120.00     2560.00
02540             120.00     2560.00
02541             120.00     2640.00
02542             140.00     2720.00
02543             140.00     2720.00
02544             140.00     2720.00
02545             140.00     2800.00
02546             160.00     2800.00
02547             160.00     2880.00
02548             180.00     2960.00
02549             180.00     2960.00
02550             180.00     3040.00
02551             180.00     3120.00
02552             200.00     3120.00
02553             200.00     3120.00
02554             200.00     3200.00
02555             200.00     3280.00
02556             220.00     3280.00
02557             200.00     3360.00
02558             220.00     3360.00
02559             240.00     3360.00
02560             240.00     3360.00
02561             220.00     3440.00
02562             260.00     3520.00
02563             260.00     3520.00
02564             260.00     3600.00
02565             260.00     3600.00
02566             280.00     3680.00
02567             260.00     3680.00
02568             300.00     3760.00
02569             280.00     3840.00
02570             280.00     3840.00
02571             280.00     3840.00
02572             300.00     3840.00
02573             300.00     3920.00
02574             300.00     4000.00
02575             340.00     4000.00
02576             360.00     4000.00
02577             340.00     4080.00
02578             340.00     4160.00
02579             360.00     4160.00
02580             360.00     4240.00
02581             360.00     4240.00
02582             360.00     4320.00
02583             360.00     4320.00
02584             380.00     4320.00
02585             380.00     4400.00
02586             380.00     4480.00
02587             380.00     4480.00
02588             400.00     4480.00
02589             400.00     4480.00
02590             420.00     4560.00
02591             420.00     4560.00
02592             440.00     4640.00
02593             420.00     4720.00
02594             420.00     4720.00
02595             440.00     4800.00
02596             420.00     4800.00
02597             440.00     4800.00
02598             440.00     4800.00
02599             440.00     4960.00
02600             440.00     4960.00
02601             440.00     4960.00
02602             460.00     4960.00
02603             460.00     5040.00
02604             460.00     5040.00
02605             460.00     5120.00
02606             480.00     5120.00
02607             500.00     5120.00
02608             500.00     5120.00
02609             500.00     5280.00
02610             500.00     5280.00
02611             520.00     5280.00
02612             520.00     5280.00
02613             500.00     5360.00
02614             520.00     5360.00
02615             520.00     5440.00
02616             540.00     5440.00
02617             540.00     5440.00
02618             540.00     5440.00
02619             540.00     5520.00
02620             520.00     5600.00
02621             580.00     5600.00
02622             540.00     5680.00
02623             580.00     5600.00
02624             580.00     5680.00
02625             580.00     5840.00
02626             580.00     5760.00
02627             600.00     5840.00
02628             580.00     5840.00
02629             580.00     5840.00
02630             600.00     5920.00
02631             600.00     5920.00
02632             600.00     5920.00
02633             600.00     5920.00
02634             600.00     5920.00
02635             620.00     5920.00
02636             640.00     6000.00
02637             620.00     6000.00
02638             660.00     6080.00
02639             660.00     6080.00
02640             660.00     6160.00
02641             660.00     6080.00
02642             660.00     6240.00
02643             680.00     6240.00
02644             660.00     6240.00
02645             680.00     6240.00
02646             680.00     6240.00
02647             680.00     6320.00
02648             680.00     6320.00
02649             680.00     6400.00
02650             680.00     6320.00
02651             680.00     6400.00
02652             680.00     6400.00
02653             700.00     6400.00
02654             700.00     6400.00
02655             700.00     6480.00
02656             700.00     6560.00
02657             700.00     6560.00
02658             740.00     6560.00
02659             700.00     6560.00
02660             720.00     6640.00
02661             740.00     6640.00
02662             740.00     6640.00
02663             740.00     6640.00
02664             740.00     6640.00
02665             740.00     6720.00
02666             740.00     6640.00
02667             740.00     6640.00
02668             740.00     6720.00
02669             740.00     6720.00
02670             740.00     6880.00
02671             760.00     6800.00
02672             760.00     6800.00
02673             760.00     6880.00
02674             760.00     6880.00
02675             760.00     6880.00
02676             760.00     6960.00
02677             780.00     6880.00
02678             780.00     6960.00
02679             780.00     6880.00
02680             800.00     6960.00
02681             780.00     6960.00
02682             780.00     6960.00
02683             820.00     6960.00
02684             800.00     7040.00
02685             820.00     7040.00
02686             820.00     7040.00
02687             820.00     7040.00
02688             820.00     7040.00
02689             820.00     7040.00
02690             820.00     7040.00
02691             820.00     7040.00
02692             820.00     7040.00
02693             820.00     7200.00
02694             840.00     7200.00
02695             840.00     7120.00
02696             840.00     7120.00
02697             840.00     7200.00
02698             840.00     7200.00
02699             840.00     7200.00
02700             840.00     7200.00
02701             840.00     7280.00
02702             840.00     7280.00
02703             840.00     7200.00
02704             860.00     7280.00
02705             860.00     7280.00
02706             860.00     7200.00
02707             900.00     7280.00
02708             860.00     7280.00
02709             900.00     7280.00
02710             900.00     7280.00
02711             860.00     7280.00
02712             900.00     7360.00
02713             900.00     7280.00
02714             900.00     7360.00
02715             900.00     7280.00
02716             900.00     7280.00
02717             880.00     7280.00
02718             900.00     7360.00
02719             900.00     7360.00
02720             920.00     7360.00
02721             900.00     7360.00
02722             900.00     7360.00
02723             900.00     7360.00
02724             900.00     7360.00
02725             900.00     7360.00
02726             920.00     7360.00
02727             900.00     7360.00
02728             900.00     7360.00
02729             900.00     7360.00
02730             900.00     7360.00
02731             920.00     7360.00
02732             900.00     7360.00
02733             920.00     7360.00
02734             920.00     7360.00
02735             900.00     7360.00
02736             900.00     7440.00
02737             920.00     7360.00
02738             920.00     7360.00
02739             920.00     7360.00
02740             920.00     7360.00
02741             920.00     7360.00
02742             920.00     7360.00
02743             920.00     7360.00
02744             920.00     7360.00
02745             920.00     7360.00
02746             920.00     7360.00
02747             920.00     7360.00
02748             920.00     7360.00
02749             920.00     7360.00
02750             920.00     7280.00
02751             940.00     7360.00
02752             920.00     7360.00
02753             940.00     7360.00
02754             920.00     7360.00
02755             940.00     7280.00
02756             940.00     7360.00
02757             940.00     7360.00
02758             940.00     7280.00
02759             940.00     7280.00
02760             940.00     7280.00
02761             940.00     7280.00
02762             940.00     7280.00
02763             920.00     7280.00
02764             940.00     7280.00
02765             940.00     7280.00
02766             940.00     7280.00
02767             940.00     7200.00
02768             940.00     7200.00
02769             940.00     7200.00
02770             940.00     7200.00
02771             940.00     7200.00
02772             960.00     7200.00
02773             960.00     7200.00
02774             960.00     7120.00
02775             940.00     7120.00
02776             980.00     7120.00
02777             940.00     7040.00
02778             960.00     7120.00
02779             940.00     7120.00
02780             940.00     7040.00
02781             940.00     7040.00
02782             940.00     7040.00
02783             960.00     7040.00
02784             940.00     7040.00
02785             940.00     7040.00
02786             940.00     7040.00
02787             940.00     6960.00
02788             960.00     6960.00
02789             940.00     6960.00
02790             940.00     6960.00
02791             940.00     6960.00
02792             940.00     6960.00
02793             940.00     6960.00
02794             940.00     6880.00
02795             940.00     6960.00
02796             920.00     6880.00
02797             920.00     6880.00
02798             920.00     6880.00
02799             940.00     6800.00
02800             920.00     6720.00
02801             920.00     6720.00
02802             940.00     6720.00
02803             920.00     6720.00
02804             920.00     6720.00
02805             920.00     6640.00
02806             920.00     6720.00
02807             920.00     6640.00
02808             920.00     6640.00
02809             920.00     6640.00
02810             920.00     6560.00
02811             920.00     6640.00
02812             920.00     6560.00
02813             900.00     6560.00
02814             900.00     6560.00
02815             920.00     6560.00
02816             920.00     6480.00
02817             920.00     6480.00
02818             900.00     6400.00
02819             900.00     6400.00
02820             900.00     6400.00
02821             900.00     6400.00
02822             900.00     6400.00
02823             900.00     6320.00
02824             900.00     6320.00
02825             900.00     6240.00
02826             900.00     6240.00
02827             900.00     6240.00
02828             900.00     6240.00
02829             900.00     6160.00
02830             860.00     6240.00
02831             900.00     6080.00
02832             900.00     6080.00
02833             880.00     6080.00
02834             900.00     6080.00
02835             880.00     6000.00
02836             900.00     6000.00
02837             860.00     6000.00
02838             900.00     6000.00
02839             860.00     5920.00
02840             860.00     5920.00
02841             860.00     5920.00
02842             860.00     5840.00
02843             860.00     5840.00
02844             860.00     5760.00
02845             860.00     5760.00
02846             840.00     5760.00
02847             860.00     5760.00
02848             840.00     5680.00
02849             860.00     5600.00
02850             840.00     5600.00
02851             840.00     5600.00
02852             840.00     5600.00
02853             840.00     5600.00
02854             840.00     5520.00
02855             840.00     5440.00
02856             840.00     5440.00
02857             820.00     5360.00
02858             820.00     5440.00
02859             820.00     5360.00
02860             820.00     5280.00
02861             820.00     5280.00
02862             820.00     5200.00
02863             820.00     5200.00
02864             800.00     5200.00
02865             820.00     5120.00
02866             780.00     5120.00
02867             780.00     5120.00
02868             800.00     5040.00
02869             780.00     5040.00
02870             780.00     5040.00
02871             780.00     4960.00
02872             760.00     4960.00
02873             760.00     4880.00
02874             780.00     4880.00
02875             760.00     4800.00
02876             760.00     4800.00
02877             760.00     4720.00
02878             740.00     4720.00
02879             760.00     4720.00
02880             740.00     4640.00
02881             740.00     4640.00
02882             740.00     4560.00
02883             740.00     4480.00
02884             720.00     4560.00
02885             740.00     4480.00
02886             740.00     4400.00
02887             740.00     4400.00
02888             720.00     4400.00
02889             700.00     4320.00
02890             720.00     4320.00
02891             740.00     4240.00
02892             700.00     4240.00
02893             680.00     4160.00
02894             680.00     4160.00
02895             700.00     4080.00
02896             700.00     4080.00
02897             680.00     4000.00
02898             680.00     4000.00
02899             680.00     3840.00
02900             680.00     3920.00
02901             660.00     3840.00
02902             660.00     3840.00
02903             660.00     3760.00
02904             660.00     3760.00
02905             660.00     3680.00
02906             660.00     3680.00
02907             660.00     3680.00
02908             620.00     3680.00
02909             660.00     3520.00
02910             620.00     3520.00
02911             620.00     3440.00
02912             620.00     3440.00
02913             620.00     3440.00
02914             620.00     3440.00
02915             600.00     3360.00
02916             600.00     3280.00
02917             600.00     3280.00
02918             600.00     3200.00
02919             600.00     3200.00
02920             580.00     3200.00
02921             580.00     3120.00
02922             580.00     3040.00
02923             580.00     3040.00
02924             580.00     2960.00
02925             580.00     2880.00
02926             580.00     2880.00
02927             540.00     2880.00
02928             540.00     2800.00
02929             540.00     2720.00
02930             540.00     2720.00
02931             520.00     2720.00
02932             520.00     2640.00
02933             520.00     2560.00
02934             520.00     2560.00
02935             520.00     2560.00
02936             520.00     2480.00
02937             500.00     2400.00
02938             500.00     2400.00
02939             500.00     2320.00
02940             460.00     2240.00
02941             480.00     2240.00
02942             480.00     2160.00
02943             460.00     2160.00
02944             460.00     2160.00
02945             440.00     2080.00
02946             460.00     2080.00
02947             440.00     1920.00
02948             440.00     1920.00
02949             420.00     1920.00
02950             420.00     1840.00
02951             420.00     1840.00
02952             420.00     1760.00
02953             420.00     1680.00
02954             420.00     1760.00
02955             380.00     1600.00
02956             420.00     1600.00
02957             380.00     1520.00
02958             380.00     1520.00
02959             380.00     1440.00
02960             380.00     1440.00
02961             380.00     1360.00
02962             360.00     1360.00
02963             360.00     1280.00
02964             360.00     1200.00
02965             360.00     1200.00
02966             360.00     1200.00
02967             360.00     1120.00
02968             340.00     1120.00
02969             340.00     1040.00
02970             340.00     1040.00
02971             320.00      960.00
02972             340.00      960.00
02973             340.00      880.00
02974             300.00      800.00
02975             300.00      800.00
02976             300.00      720.00
02977             280.00      640.00
02978             300.00      640.00
02979             280.00      640.00
02980             280.00      560.00
02981             280.00      480.00
02982             260.00      480.00
02983             260.00      400.00
02984             260.00      320.00
02985             260.00      320.00
02986             240.00      240.00
02987             260.00      240.00
02988             220.00      160.00
02989             220.00      160.00
02990             220.00       80.00
02991             200.00        0.00
02992             200.00        0.00
02993             180.00      -80.00
02994             180.00      -80.00
02995             180.00      -80.00
02996             180.00     -160.00
02997             180.00     -160.00
02998             180.00     -240.00
02999             140.00     -320.00
03000             160.00     -320.00
03001             160.00     -400.00
03002             180.00     -400.00
03003             140.00     -480.00
03004             120.00     -640.00
03005             100.00     -720.00
03006             100.00     -640.00
03007             120.00     -480.00
03008             120.00     -640.00
03009              60.00     -960.00
03010             100.00     -800.00
03011              80.00     -720.00
03012              40.00     -960.00
03013              60.00    -1040.00
03014              60.00     -800.00
03015              40.00     -960.00
03016              20.00    -1200.00
03017              40.00    -1040.00
03018              20.00    -1120.00
03019              20.00    -1280.00
03020              20.00    -1200.00
03021              20.00    -1280.00
03022             -20.00    -1360.00
03023              20.00    -1360.00
03024               0.00    -1440.00
03025             -40.00    -1440.00
03026             -20.00    -1520.00
03027             -20.00    -1600.00
03028             -20.00    -1600.00
03029             -20.00    -1680.00
03030             -40.00    -1680.00
03031             -40.00    -1760.00
03032             -40.00    -1760.00
03033             -40.00    -1840.00
03034             -60.00    -1840.00
03035             -60.00    -1920.00
03036             -60.00    -1920.00
03037             -60.00    -2000.00
03038             -60.00    -2000.00
03039             -80.00    -2080.00
03040            -100.00    -2160.00
03041            -100.00    -2240.00
03042            -100.00    -2240.00
03043            -120.00    -2320.00
03044            -100.00    -2320.00
03045            -120.00    -2320.00
03046            -120.00    -2400.00
03047            -120.00    -2480.00
03048            -120.00    -2480.00
03049            -140.00    -2560.00
03050            -120.00    -2560.00
03051            -140.00    -2640.00
03052            -140.00    -2640.00
03053            -180.00    -2720.00
03054            -160.00    -2720.00
03055            -180.00    -2800.00
03056            -180.00    -2880.00
03057            -200.00    -2880.00
03058            -200.00    -2880.00
03059            -200.00    -2960.00
03060            -220.00    -3040.00
03061            -200.00    -3040.00
03062            -220.00    -3120.00
03063            -220.00    -3120.00
03064            -220.00    -3200.00
03065            -220.00    -3200.00
03066            -260.00    -3280.00
03067            -240.00    -3280.00
03068            -260.00    -3360.00
03069            -260.00    -3360.00
03070            -280.00    -3360.00
03071            -280.00    -3520.00
03072            -280.00    -3520.00
03073            -280.00    -3600.00
03074            -280.00    -3600.00
03075            -280.00    -3600.00
03076            -300.00    -3680.00
03077            -280.00    -3680.00
03078            -300.00    -3680.00
03079            -300.00    -3840.00
03080            -320.00    -3840.00
03081            -300.00    -3840.00
03082            -340.00    -3920.00
03083            -340.00    -3920.00
03084            -340.00    -3920.00
03085            -340.00    -4000.00
03086            -340.00    -4000.00
03087            -360.00    -4000.00
03088            -340.00    -4080.00
03089            -360.00    -4160.00
03090            -380.00    -4160.00
03091            -380.00    -4240.00
03092            -380.00    -4240.00
03093            -380.00    -4320.00
03094            -380.00    -4320.00
03095            -380.00    -4320.00
03096            -400.00    -4400.00
03097            -400.00    -4480.00
03098            -380.00    -4480.00
03099            -420.00    -4480.00
03100            -420.00    -4560.00
03101            -440.00    -4560.00
03102            -440.00    -4640.00
03103            -440.00    -4640.00
03104            -440.00    -4640.00
03105            -440.00    -4720.00
03106            -440.00    -4720.00
03107            -440.00    -4800.00
03108            -460.00    -4880.00
03109            -440.00    -4880.00
03110            -460.00    -4880.00
03111            -460.00    -4960.00
03112            -460.00    -4960.00
03113            -480.00    -4960.00
03114            -500.00    -4960.00
03115            -480.00    -5120.00
03116            -500.00    -5120.00
03117            -500.00    -5120.00
03118            -520.00    -5120.00
03119            -520.00    -5200.00
03120            -520.00    -5200.00
03121            -520.00    -5280.00
03122            -520.00    -5280.00
03123            -540.00    -5280.00
03124            -540.00    -5280.00
03125            -540.00    -5360.00
03126            -540.00    -5440.00
03127            -580.00    -5440.00
03128            -540.00    -5440.00
03129            -580.00    -5520.00
03130            -580.00    -5520.00
03131            -580.00    -5520.00
03132            -580.00    -5600.00
03133            -600.00    -5600.00
03134            -600.00    -5600.00
03135            -600.00    -5760.00
03136            -600.00    -5760.00
03137            -600.00    -5760.00
03138            -600.00    -5760.00
03139            -620.00    -5840.00
03140            -620.00    -5840.00
03141            -620.00    -5760.00
03142            -620.00    -5840.00
03143            -620.00    -5920.00
03144            -620.00    -5920.00
03145            -660.00    -5920.00
03146            -620.00    -5920.00
03147            -660.00    -6080.00
03148            -640.00    -6000.00
03149            -660.00    -6080.00
03150            -660.00    -6080.00
03151            -660.00    -6160.00
03152            -660.00    -6160.00
03153            -660.00    -6080.00
03154            -680.00    -6240.00
03155            -680.00    -6240.00
03156            -680.00    -6160.00
03157            -680.00    -6240.00
03158            -700.00    -6240.00
03159            -700.00    -6240.00
03160            -680.00    -6320.00
03161            -700.00    -6320.00
03162            -700.00    -6400.00
03163            -700.00    -6400.00
03164            -700.00    -6400.00
03165            -700.00    -6400.00
03166            -700.00    -6480.00
03167            -700.00    -6480.00
03168            -720.00    -6480.00
03169            -740.00    -6480.00
03170            -740.00    -6560.00
03171            -740.00    -6560.00
03172            -740.00    -6560.00
03173            -740.00    -6560.00
03174            -760.00    -6640.00
03175            -760.00    -6560.00
03176            -760.00    -6640.00
03177            -760.00    -6640.00
03178            -760.00    -6640.00
03179            -760.00    -6720.00
03180            -760.00    -6720.00
03181            -760.00    -6720.00
03182            -780.00    -6800.00
03183            -780.00    -6800.00
03184            -780.00    -6800.00
03185            -780.00    -6800.00
03186            -780.00    -6800.00
03187            -800.00    -6880.00
03188            -800.00    -6880.00
03189            -820.00    -6880.00
03190            -820.00    -6880.00
03191            -820.00    -6880.00
03192            -820.00    -6880.00
03193            -820.00    -6880.00
03194            -820.00    -6880.00
03195            -840.00    -6880.00
03196            -840.00    -6960.00
03197            -840.00    -6960.00
03198            -840.00    -7040.00
03199            -840.00    -6960.00
03200            -840.00    -7040.00
03201            -840.00    -6960.00
03202            -840.00    -7040.00
03203            -860.00    -7040.00
03204            -840.00    -7120.00
03205            -860.00    -7040.00
03206            -840.00    -7040.00
03207            -860.00    -7040.00
03208            -860.00    -7120.00
03209            -860.00    -7120.00
03210            -860.00    -7120.00
03211            -860.00    -7200.00
03212            -860.00    -7120.00
03213            -860.00    -7200.00
03214            -880.00    -7120.00
03215            -860.00    -7200.00
03216            -860.00    -7120.00
03217            -860.00    -7200.00
03218            -860.00    -7200.00
03219            -860.00    -7120.00
03220            -860.00    -7200.00
03221            -860.00    -7120.00
03222            -900.00    -7200.00
03223            -860.00    -7200.00
03224            -900.00    -7200.00
03225            -900.00    -7200.00
03226            -900.00    -7280.00
03227            -880.00    -7200.00
03228            -900.00    -7280.00
03229            -860.00    -7200.00
03230            -920.00    -7200.00
03231            -900.00    -7280.00
03232            -900.00    -7200.00
03233            -920.00    -7280.00
03234            -900.00    -7360.00
03235            -900.00    -7280.00
03236            -900.00    -7280.00
03237            -920.00    -7280.00
03238            -900.00    -7280.00
03239            -900.00    -7280.00
03240            -900.00    -7360.00
03241            -920.00    -7280.00
03242            -920.00    -7280.00
03243            -920.00    -7200.00
03244            -920.00    -7280.00
03245            -920.00    -7360.00
03246            -920.00    -7280.00
03247            -920.00    -7280.00
03248            -920.00    -7280.00
03249            -920.00    -7280.00
03250            -940.00    -7280.00
03251            -940.00    -7280.00
03252            -920.00    -7200.00
03253            -920.00    -7200.00
03254            -920.00    -7360.00
03255            -940.00    -7280.00
03256            -920.00    -7280.00
03257            -940.00    -7200.00
03258            -920.00    -7200.00
03259            -940.00    -7360.00
03260            -940.00    -7200.00
03261            -940.00    -7280.00
03262            -920.00    -7200.00
03263            -940.00    -7280.00
03264            -940.00    -7200.00
03265            -940.00    -7200.00
03266            -940.00    -7200.00
03267            -940.00    -7200.00
03268            -940.00    -7200.00
03269            -940.00    -7200.00
03270            -940.00    -7200.00
03271            -940.00    -7200.00
03272            -940.00    -7120.00
03273            -940.00    -7120.00
03274            -940.00    -7120.00
03275            -940.00    -7200.00
03276            -940.00    -7120.00
03277            -940.00    -7120.00
03278            -940.00    -7040.00
03279            -940.00    -7120.00
03280            -940.00    -7120.00
03281            -920.00    -7120.00
03282            -940.00    -6960.00
03283            -940.00    -7040.00
03284            -940.00    -7120.00
03285            -940.00    -6960.00
03286            -960.00    -7040.00
03287            -940.00    -6960.00
03288            -960.00    -7040.00
03289            -940.00    -6960.00
03290            -940.00    -6960.00
03291            -940.00    -6960.00
03292            -940.00    -6880.00
03293            -920.00    -6960.00
03294            -940.00    -6880.00
03295            -940.00    -6880.00
03296            -920.00    -6880.00
03297            -940.00    -6880.00
03298            -920.00    -6880.00
03299            -940.00    -6880.00
03300            -920.00    -6800.00
03301            -940.00    -6880.00
03302            -920.00    -6800.00
03303            -920.00    -6800.00
03304            -920.00    -6800.00
03305            -920.00    -6720.00
03306            -920.00    -6720.00
03307            -920.00    -6720.00
03308            -920.00    -6720.00
03309            -920.00    -6720.00
03310            -920.00    -6720.00
03311            -920.00    -6640.00
03312            -920.00    -6640.00
03313            -920.00    -6560.00
03314            -920.00    -6560.00
03315            -920.00    -6560.00
03316            -920.00    -6560.00
03317            -920.00    -6560.00
03318            -920.00    -6480.00
03319            -920.00    -6560.00
03320            -920.00    -6480.00
03321            -920.00    -6480.00
03322            -920.00    -6400.00
03323            -920.00    -6400.00
03324            -920.00    -6320.00
03325            -920.00    -6320.00
03326            -920.00    -6400.00
03327            -920.00    -6320.00
03328            -920.00    -6240.00
03329            -920.00    -6320.00
03330            -900.00    -6240.00
03331            -920.00    -6240.00
03332            -920.00    -6160.00
03333            -900.00    -6240.00
03334            -920.00    -6160.00
03335            -900.00    -6160.00
03336            -920.00    -6080.00
03337            -920.00    -6080.00
03338            -920.00    -6000.00
03339            -900.00    -6080.00
03340            -900.00    -6080.00
03341            -900.00    -6000.00
03342            -860.00    -5920.00
03343            -900.00    -5920.00
03344            -860.00    -5920.00
03345            -900.00    -5920.00
03346            -880.00    -5840.00
03347            -860.00    -5920.00
03348            -860.00    -5760.00
03349            -860.00    -5760.00
03350            -860.00    -5760.00
03351            -860.00    -5760.00
03352            -860.00    -5600.00
03353            -860.00    -5600.00
03354            -860.00    -5600.00
03355            -840.00    -5600.00
03356            -840.00    -5600.00
03357            -840.00    -5520.00
03358            -840.00    -5520.00
03359            -840.00    -5440.00
03360            -840.00    -5440.00
03361            -840.00    -5440.00
03362            -840.00    -5440.00
03363            -820.00    -5360.00
03364            -840.00    -5360.00
03365            -820.00    -5280.00
03366            -820.00    -5280.00
03367            -820.00    -5280.00
03368            -800.00    -5280.00
03369            -820.00    -5200.00
03370            -820.00    -5120.00
03371            -820.00    -5120.00
03372            -820.00    -5120.00
03373            -820.00    -5040.00
03374            -820.00    -5120.00
03375            -820.00    -4960.00
03376            -780.00    -4960.00
03377            -780.00    -4880.00
03378            -780.00    -4880.00
03379            -780.00    -4880.00
03380            -800.00    -4800.00
03381            -780.00    -4800.00
03382            -780.00    -4800.00
03383            -760.00    -4800.00
03384            -780.00    -4720.00
03385            -760.00    -4640.00
03386            -760.00    -4640.00
03387            -760.00    -4640.00
03388            -760.00    -4560.00
03389            -760.00    -4480.00
03390            -760.00    -4480.00
03391            -740.00    -4400.00
03392            -760.00    -4400.00
03393            -760.00    -4320.00
03394            -740.00    -4320.00
03395            -740.00    -4320.00
03396            -740.00    -4320.00
03397            -740.00    -4240.00
03398            -720.00    -4160.00
03399            -700.00    -4160.00
03400            -700.00    -4160.00
03401            -700.00    -4080.00
03402            -700.00    -4080.00
03403            -700.00    -4000.00
03404            -700.00    -4000.00
03405            -700.00    -3920.00
03406            -700.00    -3920.00
03407            -700.00    -3920.00
03408            -680.00    -3840.00
03409            -680.00    -3840.00
03410            -660.00    -3760.00
03411            -660.00    -3680.00
03412            -680.00    -3680.00
03413            -660.00    -3600.00
03414            -660.00    -3600.00
03415            -660.00    -3600.00
03416            -640.00    -3520.00
03417            -640.00    -3440.00
03418            -620.00    -3360.00
03419            -620.00    -3440.00
03420            -620.00    -3360.00
03421            -600.00    -3360.00
03422            -600.00    -3280.00
03423            -600.00    -3200.00
03424            -600.00    -3200.00
03425            -600.00    -3200.00
03426            -600.00    -3120.00
03427            -600.00    -3120.00
03428            -600.00    -2960.00
03429            -580.00    -2960.00
03430            -600.00    -2960.00
03431            -580.00    -2880.00
03432            -580.00    -2880.00
03433            -540.00    -2880.00
03434            -540.00    -2800.00
03435            -540.00    -2800.00
03436            -540.00    -2720.00
03437            -540.00    -2720.00
03438            -540.00    -2640.00
03439            -520.00    -2560.00
03440            -540.00    -2560.00
03441            -520.00    -2560.00
03442            -500.00    -2400.00
03443            -520.00    -2480.00
03444            -520.00    -2400.00
03445            -520.00    -2320.00
03446            -500.00    -2320.00
03447            -520.00    -2240.00
03448            -500.00    -2240.00
03449            -500.00    -2160.00
03450            -500.00    -2080.00
03451            -500.00    -2080.00
03452            -460.00    -2000.00
03453            -460.00    -2000.00
03454            -460.00    -1920.00
03455            -460.00    -1840.00
03456            -460.00    -1840.00
03457            -460.00    -1760.00
03458            -440.00    -1760.00
03459            -440.00    -1760.00
03460            -440.00    -1680.00
03461            -440.00    -1600.00
03462            -440.00    -1680.00
03463            -420.00    -1600.00
03464            -440.00    -1440.00
03465            -380.00    -1520.00
03466            -400.00    -1440.00
03467            -380.00    -1360.00
03468            -380.00    -1360.00
03469            -380.00    -1280.00
03470            -380.00    -1280.00
03471            -380.00    -1200.00
03472            -380.00    -1120.00
03473            -380.00    -1120.00
03474            -360.00    -1040.00
03475            -360.00    -1040.00
03476            -360.00     -960.00
03477            -340.00     -960.00
03478            -340.00     -880.00
03479            -340.00     -800.00
03480            -340.00     -800.00
03481            -300.00     -800.00
03482            -300.00     -720.00
03483            -320.00     -640.00
03484            -300.00     -640.00
03485            -280.00     -560.00
03486            -300.00     -480.00
03487            -280.00     -480.00
03488            -280.00     -480.00
03489            -280.00     -400.00
03490            -280.00     -400.00
03491            -280.00     -320.00
03492            -260.00     -240.00
03493            -260.00     -240.00
03494            -220.00     -160.00
03495            -220.00     -160.00
03496            -240.00        0.00
03497            -220.00      -80.00
03498            -220.00      -80.00
03499            -220.00       80.00
03500            -220.00      160.00
03501            -200.00      160.00
03502            -200.00      160.00
03503            -200.00      240.00
03504            -180.00      240.00
03505            -180.00      320.00
03506            -180.00      320.00
03507            -160.00      320.00
03508            -140.00      480.00
03509            -140.00      480.00
03510            -140.00      720.00
03511            -140.00      640.00
03512            -140.00      560.00
03513            -120.00      640.00
03514            -100.00      880.00
03515            -120.00      880.00
03516            -120.00      640.00
03517            -100.00      800.00
03518             -60.00     1040.00
03519            -100.00      880.00
03520            -100.00      880.00
03521             -60.00     1200.00
03522             -60.00     1120.00
03523             -60.00      960.00
03524             -60.00     1200.00
03525             -40.00     1280.00
03526             -40.00     1280.00
03527             -40.00     1280.00
03528             -20.00     1360.00
03529             -40.00     1440.00
03530             -20.00     1440.00
03531             -20.00     1520.00
03532             -20.00     1440.00
03533             -20.00     1600.00
03534             -20.00     1600.00
03535              20.00     1600.00
03536              20.00     1760.00
03537              20.00     1760.00
03538              20.00     1760.00
03539              40.00     1920.00
03540              40.00     1920.00
03541              40.00     1920.00
03542              60.00     2000.00
03543              40.00     2080.00
03544              40.00     2080.00
03545              60.00     2080.00
03546              60.00     2160.00
03547              60.00     2160.00
03548             100.00     2320.00
03549             100.00     2240.00
03550             100.00     2400.00
03551             100.00     2400.00
03552             100.00     2400.00
03553             120.00     2400.00
03554             120.00     2480.00
03555             120.00     2560.00
03556             120.00     2560.00
03557             140.00     2640.00
03558             140.00     2720.00
03559             140.00     2720.00
03560             160.00     2720.00
03561             140.00     2800.00
03562             180.00     2880.00
03563             180.00     2880.00
03564             180.00     3040.00
03565             180.00     2880.00
03566             180.00     3040.00
03567             200.00     3120.00
03568             180.00     3120.00
03569             200.00     3120.00
03570             200.00     3200.00
03571             220.00     3280.00
03572             200.00     3360.00
03573             220.00     3360.00
03574             220.00     3360.00
03575             240.00     3440.00
03576             220.00     3440.00
03577             240.00     3440.00
03578             260.00     3520.00
03579             240.00     3520.00
03580             260.00     3520.00
03581             260.00     3680.00
03582             260.00     3680.00
03583             280.00     3680.00
03584             260.00     3760.00
03585             280.00     3840.00
03586             280.00     3760.00
03587             280.00     3840.00
03588             280.00     3920.00
03589             280.00     4000.00
03590             300.00     4000.00
03591             320.00     4000.00
03592             300.00     4080.00
03593             320.00     4080.00
03594             340.00     4080.00
03595             340.00     4160.00
03596             340.00     4160.00
03597             340.00     4240.00
03598             340.00     4320.00
03599             360.00     4320.00
03600             360.00     4400.00
03601             360.00     4400.00
03602             380.00     4400.00
03603             380.00     4400.00
03604             380.00     4480.00
03605             380.00     4640.00
03606             380.00     4480.00
03607             420.00     4560.00
03608             420.00     4640.00
03609             420.00     4720.00
03610             440.00     4720.00
03611             420.00     4720.00
03612             440.00     4800.00
03613             440.00     4800.00
03614             440.00     4880.00
03615             460.00     4880.00
03616             440.00     4960.00
03617             460.00     4960.00
03618             460.00     5040.00
03619             480.00     5040.00
03620             460.00     5120.00
03621             500.00     5120.00
03622             480.00     5120.00
03623             520.00     5120.00
03624             500.00     5200.00
03625             500.00     5200.00
03626             500.00     5280.00
03627             520.00     5280.00
03628             500.00     5280.00
03629             540.00     5360.00
03630             540.00     5440.00
03631             540.00     5440.00
03632             540.00     5440.00
03633             540.00     5600.00
03634             540.00     5520.00
03635             540.00     5520.00
03636             540.00     5600.00
03637             560.00     5600.00
03638             560.00     5680.00
03639             580.00     5680.00
03640             580.00     5680.00
03641             580.00     5760.00
03642             580.00     5840.00
03643             580.00     5760.00
03644             600.00     5840.00
03645             580.00     5840.00
03646             580.00     5920.00
03647             600.00     5840.00
03648             600.00     5920.00
03649             600.00     6000.00
03650             600.00     6000.00
03651             600.00     6000.00
03652             620.00     6000.00
03653             600.00     6000.00
03654             620.00     6080.00
03655             620.00     6080.00
03656             620.00     6160.00
03657             660.00     6080.00
03658             620.00     6240.00
03659             660.00     6240.00
03660             660.00     6240.00
03661             660.00     6240.00
03662             680.00     6320.00
03663             660.00     6320.00
03664             680.00     6320.00
03665             680.00     6400.00
03666             680.00     6400.00
03667             680.00     6400.00
03668             680.00     6400.00
03669             680.00     6400.00
03670             700.00     6400.00
03671             700.00     6480.00
03672             720.00     6480.00
03673             720.00     6560.00
03674             700.00     6560.00
03675             740.00     6560.00
03676             740.00     6560.00
03677             740.00     6640.00
03678             720.00     6560.00
03679             740.00     6640.00
03680             740.00     6640.00
03681             740.00     6720.00
03682             760.00     6720.00
03683             740.00     6720.00
03684             760.00     6720.00
03685             760.00     6720.00
03686             760.00     6800.00
03687             780.00     6720.00
03688             760.00     6880.00
03689             760.00     6880.00
03690             780.00     6880.00
03691             780.00     6880.00
03692             780.00     6880.00
03693             780.00     6880.00
03694             780.00     6880.00
03695             780.00     6880.00
03696             800.00     6960.00
03697             780.00     6960.00
03698             820.00     6960.00
03699             780.00     6960.00
03700             820.00     7040.00
03701             820.00     6960.00
03702             820.00     7040.00
03703             820.00     7040.00
03704             820.00     7040.00
03705             840.00     7040.00
03706             820.00     7040.00
03707             840.00     7040.00
03708             820.00     7120.00
03709             820.00     7040.00
03710             840.00     7200.00
03711             840.00     7200.00
03712             840.00     7200.00
03713             840.00     7200.00
03714             840.00     7120.00
03715             840.00     7200.00
03716             840.00     7200.00
03717             840.00     7200.00
03718             860.00     7280.00
03719             840.00     7280.00
03720             840.00     7280.00
03721             840.00     7280.00
03722             860.00     7280.00
03723             840.00     7280.00
03724             860.00     7280.00
03725             860.00     7280.00
03726             860.00     7360.00
03727             860.00     7280.00
03728             880.00     7280.00
03729             860.00     7280.00
03730             860.00     7360.00
03731             900.00     7360.00
03732             880.00     7360.00
03733             860.00     7360.00
03734             860.00     7360.00
03735             900.00     7360.00
03736             900.00     7360.00
03737             900.00     7280.00
03738             900.00     7360.00
03739             900.00     7360.00
03740             900.00     7360.00
03741             900.00     7360.00
03742             900.00     7360.00
03743             900.00     7360.00
03744             900.00     7360.00
03745             900.00     7360.00
03746             920.00     7360.00
03747             920.00     7360.00
03748             920.00     7360.00
03749             900.00     7440.00
03750             920.00     7360.00
03751             920.00     7360.00
03752             900.00     7360.00
03753             920.00     7360.00
03754             920.00     7360.00
03755             920.00     7360.00
03756             920.00     7360.00
03757             920.00     7360.00
03758             920.00     7360.00
03759             920.00     7360.00
03760             920.00     7360.00
03761             940.00     7360.00
03762             920.00     7440.00
03763             920.00     7360.00
03764             920.00     7360.00
03765             940.00     7360.00
03766             940.00     7280.00
03767             920.00     7360.00
03768             940.00     7280.00
03769             940.00     7360.00
03770             940.00     7280.00
03771             940.00     7360.00
03772             940.00     7360.00
03773             920.00     7280.00
03774             920.00     7280.00
03775             920.00     7280.00
03776             920.00     7360.00
03777             940.00     7280.00
03778             940.00     7280.00
03779             920.00     7280.00
03780             940.00     7280.00
03781             960.00     7280.00
03782             940.00     7200.00
03783             920.00     7280.00
03784             920.00     7280.00
03785             920.00     7200.00
03786             920.00     7280.00
03787             940.00     7200.00
03788             940.00     7200.00
03789             940.00     7200.00
03790             940.00     7200.00
03791             920.00     7120.00
03792             940.00     7200.00
03793             920.00     7120.00
03794             940.00     7120.00
03795             940.00     7040.00
03796             920.00     7040.00
03797             940.00     7040.00
03798             940.00     7040.00
03799             940.00     7040.00
03800             960.00     7040.00
03801             940.00     7040.00
03802             940.00     7040.00
03803             940.00     6960.00
03804             940.00     6960.00
03805             940.00     6960.00
03806             940.00     6960.00
03807             920.00     6960.00
03808             940.00     6880.00
03809             920.00     6960.00
03810             940.00     6880.00
03811             940.00     6880.00
03812             940.00     6880.00
03813             940.00     6880.00
03814             940.00     6880.00
03815             940.00     6880.00
03816             920.00     6720.00
03817             940.00     6800.00
03818             940.00     6720.00
03819             900.00     6720.00
03820             940.00     6800.00
03821             920.00     6720.00
03822             940.00     6640.00
03823             940.00     6720.00
03824             920.00     6640.00
03825             920.00     6640.00
03826             920.00     6640.00
03827             940.00     6560.00
03828             920.00     6560.00
03829             920.00     6560.00
03830             920.00     6560.00
03831             920.00     6560.00
03832             900.00     6560.00
03833             900.00     6400.00
03834             920.00     6480.00
03835             900.00     6400.00
03836             900.00     6400.00
03837             920.00     6400.00
03838             900.00     6320.00
03839             900.00     6320.00
03840             900.00     6320.00
03841             900.00     6320.00
03842             900.00     6240.00
03843             900.00     6240.00
03844             880.00     6240.00
03845             900.00     6240.00
03846             900.00     6160.00
03847             900.00     6160.00
03848             900.00     6080.00
03849             880.00     6080.00
03850             900.00     6080.00
03851             860.00     6080.00
03852             860.00     6000.00
03853             860.00     6000.00
03854             860.00     6000.00
03855             860.00     5920.00
03856             840.00     5920.00
03857             860.00     5920.00
03858             840.00     5840.00
03859             840.00     5840.00
03860             840.00     5840.00
03861             840.00     5840.00
03862             840.00     5760.00
03863             840.00     5680.00
03864             840.00     5680.00
03865             840.00     5680.00
03866             840.00     5600.00
03867             840.00     5600.00
03868             840.00     5600.00
03869             820.00     5440.00
03870             840.00     5520.00
03871             840.00     5440.00
03872             820.00     5440.00
03873             820.00     5440.00
03874             840.00     5360.00
03875             820.00     5360.00
03876             820.00     5360.00
03877             820.00     5280.00
03878             820.00     5280.00
03879             820.00     5200.00
03880             820.00     5200.00
03881             820.00     5200.00
03882             800.00     5120.00
03883             820.00     5120.00
03884             780.00     5040.00
03885             780.00     4960.00
03886             800.00     5040.00
03887             780.00     4960.00
03888             780.00     4960.00
03889             780.00     4960.00
03890             780.00     4880.00
03891             780.00     4880.00
03892             760.00     4800.00
03893             760.00     4800.00
03894             760.00     4720.00
03895             760.00     4720.00
03896             760.00     4640.00
03897             760.00     4640.00
03898             740.00     4640.00
03899             760.00     4480.00
03900             740.00     4480.00
03901             740.00     4480.00
03902             720.00     4400.00
03903             720.00     4400.00
03904             700.00     4400.00
03905             700.00     4320.00
03906             700.00     4320.00
03907             700.00     4240.00
03908             700.00     4160.00
03909             680.00     4160.00
03910             680.00     4160.00
03911             680.00     4080.00
03912             680.00     4080.00
03913             680.00     4080.00
03914             680.00     4000.00
03915             680.00     4000.00
03916             680.00     3920.00
03917             680.00     3920.00
03918             680.00     3840.00
03919             640.00     3760.00
03920             660.00     3760.00
03921             660.00     3760.00
03922             660.00     3760.00
03923             620.00     3680.00
03924             620.00     3600.00
03925             620.00     3520.00
03926             620.00     3520.00
03927             620.00     3440.00
03928             600.00     3440.00
03929             600.00     3440.00
03930             600.00     3360.00
03931             600.00     3360.00
03932             600.00     3280.00
03933             600.00     3200.00
03934             600.00     3280.00
03935             580.00     3200.00
03936             580.00     3120.00
03937             580.00     3120.00
03938             580.00     3040.00
03939             580.00     2960.00
03940             580.00     2880.00
03941             560.00     2880.00
03942             560.00     2800.00
03943             580.00     2880.00
03944             540.00     2800.00
03945             540.00     2800.00
03946             540.00     2720.00
03947             540.00     2720.00
03948             540.00     2720.00
03949             520.00     2560.00
03950             520.00     2560.00
03951             520.00     2560.00
03952             520.00     2480.00
03953             520.00     2400.00
03954             520.00     2400.00
03955             500.00     2400.00
03956             500.00     2320.00
03957             500.00     2240.00
03958             480.00     2240.00
03959             460.00     2160.00
03960             460.00     2080.00
03961             460.00     2080.00
03962             460.00     2080.00
03963             440.00     1920.00
03964             440.00     1920.00
03965             440.00     1920.00
03966             440.00     1840.00
03967             440.00     1840.00
03968             420.00     1840.00
03969             420.00     1760.00
03970             420.00     1760.00
03971             420.00     1600.00
03972             400.00     1600.00
03973             380.00     1520.00
03974             360.00     1520.00
03975             380.00     1520.00
03976             360.00     1440.00
03977             360.00     1440.00
03978             360.00     1360.00
03979             360.00     1280.00
03980             360.00     1280.00
03981             340.00     1200.00
03982             340.00     1120.00
03983             340.00     1120.00
03984             340.00     1120.00
03985             320.00     1040.00
03986             340.00      960.00
03987             300.00      960.00
03988             300.00      880.00
03989             300.00      880.00
03990             300.00      880.00
03991             280.00      800.00
03992             280.00      720.00
03993             280.00      720.00
03994             280.00      640.00
03995             280.00      560.00
03996             280.00      640.00
03997             280.00      480.00
03998             240.00      560.00
03999             260.00      400.00
04000             260.00      400.00
04001             260.00      320.00
04002             260.00      240.00
04003             220.00      240.00
04004             220.00      160.00
04005             220.00       80.00
04006             220.00       80.00
04007             220.00       80.00
04008             200.00        0.00
04009             200.00      -80.00
04010             200.00      -80.00
04011             180.00      -80.00
04012             200.00     -160.00
04013             180.00     -240.00
04014             180.00     -240.00
04015             180.00     -320.00
04016             180.00     -320.00
04017             180.00     -400.00
04018             160.00     -320.00
04019             140.00     -400.00
04020             120.00     -640.00
04021             120.00     -720.00
04022             120.00     -720.00
04023             140.00     -480.00
04024             120.00     -640.00
04025              60.00     -960.00
04026             100.00     -800.00
04027             100.00     -800.00
04028              60.00     -960.00
04029              60.00     -960.00
04030              60.00     -960.00
04031              40.00    -1040.00
04032              20.00    -1120.00
04033              40.00    -1120.00
04034              20.00    -1120.00
04035              20.00    -1280.00
04036              20.00    -1200.00
04037               0.00    -1280.00
04038             -20.00    -1360.00
04039               0.00    -1360.00
04040             -20.00    -1440.00
04041             -20.00    -1440.00
04042             -20.00    -1440.00
04043             -40.00    -1600.00
04044             -40.00    -1680.00
04045             -40.00    -1680.00
04046             -20.00    -1680.00
04047             -40.00    -1760.00
04048             -60.00    -1760.00
04049             -60.00    -1840.00
04050             -60.00    -1840.00
04051             -60.00    -1920.00
04052             -60.00    -1920.00
04053             -60.00    -2000.00
04054             -80.00    -2080.00
04055            -100.00    -2080.00
04056            -100.00    -2160.00
04057            -100.00    -2240.00
04058            -120.00    -2240.00
04059            -120.00    -2240.00
04060            -120.00    -2320.00
04061            -120.00    -2400.00
04062            -120.00    -2400.00
04063            -120.00    -2400.00
04064            -140.00    -2480.00
04065            -140.00    -2560.00
04066            -140.00    -2560.00
04067            -160.00    -2640.00
04068            -160.00    -2640.00
04069            -180.00    -2720.00
04070            -180.00    -2720.00
04071            -180.00    -2800.00
04072            -180.00    -2800.00
04073            -200.00    -2880.00
04074            -200.00    -2880.00
04075            -200.00    -2880.00
04076            -220.00    -2960.00
04077            -220.00    -2960.00
04078            -200.00    -3040.00
04079            -220.00    -3120.00
04080            -220.00    -3200.00
04081            -220.00    -3200.00
04082            -220.00    -3200.00
04083            -260.00    -3280.00
04084            -240.00    -3280.00
04085            -260.00    -3360.00
04086            -260.00    -3360.00
04087            -260.00    -3440.00
04088            -280.00    -3520.00
04089            -280.00    -3520.00
04090            -280.00    -3600.00
04091            -280.00    -3680.00
04092            -280.00    -3680.00
04093            -300.00    -3680.00
04094            -300.00    -3680.00
04095            -300.00    -3760.00
04096            -300.00    -3760.00
04097            -340.00    -3840.00
04098            -300.00    -3840.00
04099            -340.00    -3920.00
04100            -340.00    -4000.00
04101            -340.00    -3920.00
04102            -360.00    -4000.00
04103            -360.00    -4080.00
04104            -380.00    -4160.00
04105            -380.00    -4160.00
04106            -380.00    -4160.00
04107            -380.00    -4240.00
04108            -380.00    -4320.00
04109            -400.00    -4320.00
04110            -380.00    -4320.00
04111            -380.00    -4320.00
04112            -420.00    -4480.00
04113            -420.00    -4400.00
04114            -420.00    -4480.00
04115            -420.00    -4560.00
04116            -440.00    -4560.00
04117            -440.00    -4560.00
04118            -420.00    -4640.00
04119            -440.00    -4640.00
04120            -440.00    -4640.00
04121            -460.00    -4720.00
04122            -460.00    -4800.00
04123            -460.00    -4800.00
04124            -460.00    -4880.00
04125            -460.00    -4960.00
04126            -460.00    -4960.00
04127            -480.00    -4960.00
04128            -480.00    -4960.00
04129            -500.00    -4960.00
04130            -500.00    -5040.00
04131            -500.00    -5120.00
04132            -500.00    -5120.00
04133            -500.00    -5120.00
04134            -520.00    -5120.00
04135            -520.00    -5200.00
04136            -520.00    -5280.00
04137            -540.00    -5280.00
04138            -520.00    -5280.00
04139            -540.00    -5280.00
04140            -540.00    -5280.00
04141            -540.00    -5360.00
04142            -540.00    -5440.00
04143            -540.00    -5440.00
04144            -540.00    -5520.00
04145            -580.00    -5520.00
04146            -580.00    -5520.00
04147            -580.00    -5520.00
04148            -580.00    -5600.00
04149            -580.00    -5600.00
04150            -600.00    -5680.00
04151            -600.00    -5600.00
04152            -600.00    -5760.00
04153            -600.00    -5760.00
04154            -600.00    -5760.00
04155            -600.00    -5760.00
04156            -620.00    -5840.00
04157            -620.00    -5840.00
04158            -620.00    -5840.00
04159            -620.00    -5920.00
04160            -620.00    -5920.00
04161            -620.00    -5920.00
04162            -640.00    -6000.00
04163            -660.00    -6000.00
04164            -660.00    -6000.00
04165            -660.00    -6080.00
04166            -660.00    -6160.00
04167            -680.00    -6080.00
04168            -680.00    -6160.00
04169            -660.00    -6160.00
04170            -680.00    -6160.00
04171            -680.00    -6240.00
04172            -700.00    -6240.00
04173            -680.00    -6240.00
04174            -700.00    -6320.00
04175            -700.00    -6320.00
04176            -700.00    -6320.00
04177            -700.00    -6320.00
04178            -700.00    -6400.00
04179            -700.00    -6400.00
04180            -740.00    -6400.00
04181            -700.00    -6400.00
04182            -720.00    -6480.00
04183            -720.00    -6400.00
04184            -740.00    -6560.00
04185            -740.00    -6560.00
04186            -740.00    -6560.00
04187            -740.00    -6560.00
04188            -760.00    -6560.00
04189            -760.00    -6560.00
04190            -760.00    -6560.00
04191            -740.00    -6640.00
04192            -760.00    -6640.00
04193            -760.00    -6640.00
04194            -760.00    -6720.00
04195            -760.00    -6720.00
04196            -780.00    -6720.00
04197            -760.00    -6800.00
04198            -780.00    -6800.00
04199            -780.00    -6800.00
04200            -780.00    -6800.00
04201            -780.00    -6800.00
04202            -780.00    -6800.00
04203            -780.00    -6800.00
04204            -780.00    -6800.00
04205            -800.00    -6880.00
04206            -780.00    -6880.00
04207            -800.00    -6880.00
04208            -820.00    -6880.00
04209            -820.00    -6880.00
04210            -820.00    -6960.00
04211            -820.00    -6880.00
04212            -820.00    -6880.00
04213            -820.00    -7040.00
04214            -840.00    -6960.00
04215            -820.00    -6960.00
04216            -840.00    -7040.00
04217            -840.00    -7040.00
04218            -820.00    -6960.00
04219            -840.00    -7040.00
04220            -840.00    -7040.00
04221            -840.00    -7120.00
04222            -840.00    -7040.00
04223            -840.00    -6960.00
04224            -840.00    -7120.00
04225            -860.00    -7120.00
04226            -860.00    -7120.00
04227            -860.00    -7120.00
04228            -860.00    -7120.00
04229            -860.00    -7120.00
04230            -860.00    -7120.00
04231            -880.00    -7120.00
04232            -860.00    -7200.00
04233            -880.00    -7200.00
04234            -900.00    -7120.00
04235            -880.00    -7200.00
04236            -880.00    -7200.00
04237            -900.00    -7200.00
04238            -900.00    -7200.00
04239            -900.00    -7200.00
04240            -900.00    -7200.00
04241            -920.00    -7200.00
04242            -900.00    -7200.00
04243            -900.00    -7200.00
04244            -920.00    -7200.00
04245            -900.00    -7200.00
04246            -900.00    -7280.00
04247            -900.00    -7200.00
04248            -920.00    -7200.00
04249            -920.00    -7280.00
04250            -920.00    -7280.00
04251            -920.00    -7280.00
04252            -920.00    -7280.00
04253            -920.00    -7280.00
04254            -920.00    -7280.00
04255            -920.00    -7280.00
04256            -920.00    -7280.00
04257            -920.00    -7280.00
04258            -920.00    -7200.00
04259            -920.00    -7280.00
04260            -920.00    -7280.00
04261            -920.00    -7280.00
04262            -920.00    -7360.00
04263            -920.00    -7280.00
04264            -920.00    -7280.00
04265            -920.00    -7280.00
04266            -920.00    -7360.00
04267            -920.00    -7200.00
04268            -920.00    -7360.00
04269            -920.00    -7280.00
04270            -920.00    -7200.00
04271            -920.00    -7200.00
04272            -920.00    -7280.00
04273            -920.00    -7280.00
04274            -940.00    -7280.00
04275            -920.00    -7200.00
04276            -920.00    -7280.00
04277            -920.00    -7200.00
04278            -920.00    -7200.00
04279            -940.00    -7200.00
04280            -940.00    -7200.00
04281            -940.00    -7200.00
04282            -920.00    -7200.00
04283            -920.00    -7200.00
04284            -940.00    -7200.00
04285            -940.00    -7120.00
04286            -920.00    -7200.00
04287            -940.00    -7120.00
04288            -940.00    -7120.00
04289            -940.00    -7120.00
04290            -940.00    -7120.00
04291            -940.00    -7120.00
04292            -940.00    -7120.00
04293            -940.00    -7120.00
04294            -940.00    -7120.00
04295            -940.00    -7120.00
04296            -940.00    -7120.00
04297            -940.00    -7120.00
04298            -940.00    -6960.00
04299            -940.00    -7040.00
04300            -940.00    -7040.00
04301            -940.00    -6960.00
04302            -940.00    -7040.00
04303            -940.00    -7040.00
04304            -940.00    -6960.00
04305            -940.00    -6960.00
04306            -940.00    -6960.00
04307            -940.00    -6960.00
04308            -960.00    -6880.00
04309            -940.00    -6960.00
04310            -940.00    -6880.00
04311            -940.00    -6880.00
04312            -940.00    -6880.00
04313            -940.00    -6880.00
04314            -940.00    -6800.00
04315            -940.00    -6800.00
04316            -940.00    -6880.00
04317            -940.00    -6800.00
04318            -940.00    -6880.00
04319            -920.00    -6800.00
04320            -920.00    -6800.00
04321            -920.00    -6720.00
04322            -940.00    -6720.00
04323            -920.00    -6720.00
04324            -920.00    -6720.00
04325            -920.00    -6720.00
04326            -920.00    -6640.00
04327            -920.00    -6640.00
04328            -920.00    -6640.00
04329            -940.00    -6640.00
04330            -920.00    -6560.00
04331            -920.00    -6560.00
04332            -920.00    -6560.00
04333            -920.00    -6560.00
04334            -920.00    -6480.00
04335            -920.00    -6480.00
04336            -900.00    -6480.00
04337            -920.00    -6480.00
04338            -920.00    -6400.00
04339            -920.00    -6400.00
04340            -920.00    -6400.00
04341            -920.00    -6320.00
04342            -920.00    -6400.00
04343            -900.00    -6320.00
04344            -920.00    -6240.00
04345            -900.00    -6240.00
04346            -900.00    -6240.00
04347            -920.00    -6160.00
04348            -900.00    -6240.00
04349            -900.00    -6160.00
04350            -920.00    -6160.00
04351            -900.00    -6080.00
04352            -900.00    -6080.00
04353            -880.00    -6080.00
04354            -880.00    -6080.00
04355            -880.00    -6080.00
04356            -880.00    -6080.00
04357            -880.00    -6000.00
04358            -880.00    -6000.00
04359            -900.00    -5920.00
04360            -900.00    -5920.00
04361            -900.00    -5840.00
04362            -860.00    -5840.00
04363            -860.00    -5840.00
04364            -860.00    -5840.00
04365            -860.00    -5760.00
04366            -860.00    -5760.00
04367            -860.00    -5680.00
04368            -860.00    -5760.00
04369            -860.00    -5680.00
04370            -860.00    -5600.00
04371            -860.00    -5600.00
04372            -840.00    -5520.00
04373            -860.00    -5520.00
04374            -840.00    -5600.00
04375            -860.00    -5520.00
04376            -840.00    -5440.00
04377            -840.00    -5440.00
04378            -840.00    -5440.00
04379            -840.00    -5440.00
04380            -820.00    -5360.00
04381            -820.00    -5280.00
04382            -840.00    -5280.00
04383            -840.00    -5280.00
04384            -820.00    -5200.00
04385            -820.00    -5200.00
04386            -840.00    -5200.00
04387            -820.00    -5120.00
04388            -820.00    -5120.00
04389            -820.00    -5040.00
04390            -780.00    -5040.00
04391            -780.00    -5040.00
04392            -800.00    -4960.00
04393            -800.00    -4960.00
04394            -780.00    -4880.00
04395            -780.00    -4880.00
04396            -760.00    -4800.00
04397            -780.00    -4800.00
04398            -760.00    -4800.00
04399            -760.00    -4800.00
04400            -760.00    -4640.00
04401            -760.00    -4640.00
04402            -760.00    -4640.00
04403            -740.00    -4560.00
04404            -760.00    -4480.00
04405            -760.00    -4480.00
04406            -740.00    -4480.00
04407            -740.00    -4400.00
04408            -740.00    -4400.00
04409            -720.00    -4320.00
04410            -740.00    -4320.00
04411            -740.00    -4320.00
04412            -700.00    -4320.00
04413            -720.00    -4240.00
04414            -700.00    -4240.00
04415            -700.00    -4160.00
04416            -700.00    -4160.00
04417            -700.00    -4080.00
04418            -700.00    -4000.00
04419            -700.00    -4000.00
04420            -700.00    -4000.00
04421            -680.00    -3920.00
04422            -700.00    -3840.00
04423            -680.00    -3840.00
04424            -680.00    -3840.00
04425            -680.00    -3840.00
04426            -680.00    -3760.00
04427            -700.00    -3680.00
04428            -660.00    -3680.00
04429            -680.00    -3600.00
04430            -660.00    -3600.00
04431            -660.00    -3600.00
04432            -660.00    -3440.00
04433            -640.00    -3520.00
04434            -660.00    -3440.00
04435            -620.00    -3360.00
04436            -620.00    -3360.00
04437            -620.00    -3360.00
04438            -620.00    -3280.00
04439            -620.00    -3280.00
04440            -620.00    -3200.00
04441            -620.00    -3200.00
04442            -600.00    -3120.00
04443            -600.00    -3120.00
04444            -600.00    -3040.00
04445            -600.00    -3040.00
04446            -600.00    -2880.00
04447            -580.00    -2960.00
04448            -580.00    -2880.00
04449            -580.00    -2880.00
04450            -560.00    -2720.00
04451            -540.00    -2720.00
04452            -560.00    -2720.00
04453            -540.00    -2640.00
04454            -540.00    -2640.00
04455            -540.00    -2560.00
04456            -520.00    -2560.00
04457            -520.00    -2480.00
04458            -520.00    -2400.00
04459            -520.00    -2400.00
04460            -520.00    -2400.00
04461            -500.00    -2320.00
04462            -500.00    -2320.00
04463            -500.00    -2240.00
04464            -500.00    -2240.00
04465            -500.00    -2240.00
04466            -460.00    -2080.00
04467            -460.00    -2080.00
04468            -460.00    -2000.00
04469            -460.00    -1920.00
04470            -460.00    -1920.00
04471            -440.00    -1840.00
04472            -440.00    -1840.00
04473            -440.00    -1760.00
04474            -440.00    -1760.00
04475            -440.00    -1680.00
04476            -440.00    -1600.00
04477            -420.00    -1680.00
04478            -420.00    -1600.00
04479            -400.00    -1600.00
04480            -420.00    -1520.00
04481            -420.00    -1440.00
04482            -380.00    -1440.00
04483            -400.00    -1360.00
04484            -380.00    -1360.00
04485            -380.00    -1280.00
04486            -360.00    -1280.00
04487            -380.00    -1280.00
04488            -380.00    -1120.00
04489            -360.00    -1120.00
04490            -380.00    -1040.00
04491            -360.00    -1040.00
04492            -360.00     -960.00
04493            -360.00     -960.00
04494            -340.00     -960.00
04495            -340.00     -800.00
04496            -340.00     -800.00
04497            -340.00     -720.00
04498            -340.00     -720.00
04499            -320.00     -720.00
04500            -300.00     -560.00
04501            -300.00     -640.00
04502            -300.00     -480.00
04503            -300.00     -480.00
04504            -280.00     -400.00
04505            -280.00     -400.00
04506            -260.00     -320.00
04507            -280.00     -320.00
04508            -280.00     -320.00
04509            -260.00     -160.00
04510            -260.00     -160.00
04511            -260.00      -80.00
04512            -260.00      -80.00
04513            -220.00      -80.00
04514            -220.00        0.00
04515            -220.00        0.00
04516            -220.00       80.00
04517            -220.00       80.00
04518            -200.00      160.00
04519            -220.00      160.00
04520            -200.00      240.00
04521            -180.00      320.00
04522            -180.00      320.00
04523            -180.00      400.00
04524            -160.00      480.00
04525            -180.00      480.00
04526            -140.00      640.00
04527            -140.00      640.00
04528            -140.00      560.00
04529            -120.00      640.00
04530            -120.00      960.00
04531            -100.00      880.00
04532            -120.00      720.00
04533            -100.00      880.00
04534             -60.00     1040.00
04535            -100.00      880.00
04536             -60.00      880.00
04537             -60.00     1200.00
04538             -60.00     1120.00
04539             -60.00      960.00
04540             -40.00     1200.00
04541             -40.00     1280.00
04542             -40.00     1200.00
04543             -20.00     1280.00
04544             -40.00     1440.00
04545             -20.00     1280.00
04546             -20.00     1440.00
04547             -20.00     1520.00
04548             -20.00     1440.00
04549               0.00     1600.00
04550              20.00     1600.00
04551              20.00     1600.00
04552              20.00     1760.00
04553              40.00     1840.00
04554              20.00     1760.00
04555              40.00     1920.00
04556              40.00     1840.00
04557              40.00     1920.00
04558              40.00     2000.00
04559              60.00     2080.00
04560              60.00     2080.00
04561              60.00     2160.00
04562              60.00     2160.00
04563              60.00     2160.00
04564             100.00     2240.00
04565              80.00     2240.00
04566             100.00     2400.00
04567             100.00     2400.00
04568             100.00     2400.00
04569             100.00     2480.00
04570             120.00     2480.00
04571             100.00     2480.00
04572             120.00     2560.00
04573             120.00     2640.00
04574             140.00     2720.00
04575             140.00     2720.00
04576             160.00     2800.00
04577             140.00     2800.00
04578             180.00     2880.00
04579             180.00     2880.00
04580             180.00     2880.00
04581             180.00     3040.00
04582             180.00     2960.00
04583             200.00     3120.00
04584             200.00     3120.00
04585             200.00     3200.00
04586             220.00     3200.00
04587             200.00     3280.00
04588             220.00     3280.00
04589             220.00     3360.00
04590             220.00     3360.00
04591             220.00     3360.00
04592             260.00     3440.00
04593             260.00     3440.00
04594             260.00     3520.00
04595             260.00     3520.00
04596             260.00     3600.00
04597             260.00     3600.00
04598             280.00     3680.00
04599             280.00     3760.00
04600             280.00     3760.00
04601             280.00     3760.00
04602             300.00     3840.00
04603             300.00     3840.00
04604             300.00     3920.00
04605             300.00     4000.00
04606             320.00     4000.00
04607             340.00     4000.00
04608             340.00     4080.00
04609             340.00     4080.00
04610             360.00     4160.00
04611             360.00     4160.00
04612             340.00     4160.00
04613             360.00     4240.00
04614             360.00     4240.00
04615             360.00     4400.00
04616             360.00     4400.00
04617             360.00     4400.00
04618             380.00     4400.00
04619             380.00     4480.00
04620             380.00     4480.00
04621             400.00     4560.00
04622             400.00     4560.00
04623             420.00     4640.00
04624             400.00     4640.00
04625             420.00     4720.00
04626             420.00     4720.00
04627             420.00     4720.00
04628             440.00     4800.00
04629             420.00     4800.00
04630             440.00     4800.00
04631             440.00     4880.00
04632             440.00     4960.00
04633             440.00     5040.00
04634             460.00     5040.00
04635             460.00     5040.00
04636             460.00     5040.00
04637             460.00     5120.00
04638             460.00     5120.00
04639             500.00     5120.00
04640             500.00     5200.00
04641             520.00     5280.00
04642             500.00     5280.00
04643             520.00     5280.00
04644             520.00     5360.00
04645             520.00     5360.00
04646             520.00     5360.00
04647             540.00     5440.00
04648             520.00     5440.00
04649             540.00     5440.00
04650             540.00     5520.00
04651             540.00     5600.00
04652             540.00     5680.00
04653             580.00     5600.00
04654             580.00     5680.00
04655             580.00     5680.00
04656             540.00     5680.00
04657             580.00     5760.00
04658             580.00     5760.00
04659             580.00     5840.00
04660             580.00     5840.00
04661             600.00     5840.00
04662             600.00     5920.00
04663             600.00     5920.00
04664             600.00     5920.00
04665             620.00     6000.00
04666             620.00     5920.00
04667             620.00     6000.00
04668             640.00     6080.00
04669             620.00     6000.00
04670             640.00     6080.00
04671             660.00     6080.00
04672             660.00     6160.00
04673             660.00     6160.00
04674             660.00     6240.00
04675             660.00     6240.00
04676             660.00     6320.00
04677             660.00     6240.00
04678             660.00     6320.00
04679             660.00     6320.00
04680             680.00     6400.00
04681             680.00     6400.00
04682             680.00     6400.00
04683             680.00     6400.00
04684             680.00     6400.00
04685             680.00     6480.00
04686             680.00     6400.00
04687             680.00     6560.00
04688             700.00     6480.00
04689             700.00     6560.00
04690             680.00     6560.00
04691             720.00     6640.00
04692             740.00     6560.00
04693             740.00     6640.00
04694             740.00     6640.00
04695             740.00     6640.00
04696             740.00     6720.00
04697             740.00     6720.00
04698             740.00     6720.00
04699             740.00     6720.00
04700             760.00     6720.00
04701             740.00     6720.00
04702             760.00     6800.00
04703             760.00     6800.00
04704             760.00     6720.00
04705             780.00     6880.00
04706             760.00     6880.00
04707             760.00     6880.00
04708             760.00     6880.00
04709             760.00     6880.00
04710             780.00     6880.00
04711             780.00     6960.00
04712             780.00     6960.00
04713             820.00     6960.00
04714             780.00     6960.00
04715             820.00     6960.00
04716             820.00     6960.00
04717             820.00     7040.00
04718             820.00     7040.00
04719             820.00     7040.00
04720             820.00     7040.00
04721             820.00     7120.00
04722             840.00     7040.00
04723             820.00     7040.00
04724             840.00     7120.00
04725             840.00     7120.00
04726             840.00     7200.00
04727             840.00     7120.00
04728             840.00     7200.00
04729             840.00     7200.00
04730             840.00     7120.00
04731             840.00     7200.00
04732             840.00     7200.00
04733             840.00     7200.00
04734             840.00     7200.00
04735             860.00     7200.00
04736             840.00     7280.00
04737             840.00     7280.00
04738             880.00     7280.00
04739             860.00     7280.00
04740             880.00     7280.00
04741             880.00     7280.00
04742             860.00     7280.00
04743             900.00     7360.00
04744             860.00     7360.00
04745             880.00     7280.00
04746             880.00     7360.00
04747             900.00     7360.00
04748             900.00     7280.00
04749             900.00     7360.00
04750             900.00     7360.00
04751             900.00     7360.00
04752             900.00     7360.00
04753             880.00     7360.00
04754             900.00     7360.00
04755             900.00     7280.00
04756             900.00     7360.00
04757             900.00     7360.00
04758             900.00     7360.00
04759             900.00     7360.00
04760             900.00     7360.00
04761             900.00     7360.00
04762             920.00     7360.00
04763             920.00     7360.00
04764             900.00     7360.00
04765             920.00     7360.00
04766             900.00     7360.00
04767             920.00     7440.00
04768             920.00     7360.00
04769             900.00     7360.00
04770             900.00     7360.00
04771             920.00     7360.00
04772             920.00     7360.00
04773             920.00     7360.00
04774             920.00     7360.00
04775             920.00     7360.00
04776             920.00     7360.00
04777             920.00     7360.00
04778             920.00     7360.00
04779             920.00     7360.00
04780             920.00     7360.00
04781             920.00     7360.00
04782             940.00     7360.00
04783             940.00     7360.00
04784             940.00     7360.00
04785             920.00     7360.00
04786             920.00     7360.00
04787             940.00     7280.00
04788             940.00     7360.00
04789             940.00     7360.00
04790             940.00     7280.00
04791             940.00     7280.00
04792             940.00     7280.00
04793             940.00     7280.00
04794             940.00     7280.00
04795             940.00     7280.00
04796             940.00     7280.00
04797             940.00     7280.00
04798             940.00     7200.00
04799             940.00     7280.00
04800             940.00     7200.00
04801             940.00     7280.00
04802             940.00     7200.00
04803             940.00     7280.00
04804             940.00     7200.00
04805             940.00     7200.00
04806             940.00     7200.00
04807             940.00     7120.00
04808             940.00     7120.00
04809             960.00     7120.00
04810             940.00     7120.00
04811             940.00     7120.00
04812             940.00     7040.00
04813             940.00     7120.00
04814             940.00     7040.00
04815             940.00     7040.00
04816             940.00     7040.00
04817             940.00     6960.00
04818             940.00     7040.00
04819             940.00     6960.00
04820             940.00     6960.00
04821             940.00     6960.00
04822             920.00     6960.00
04823             920.00     6960.00
04824             940.00     6960.00
04825             920.00     6880.00
04826             920.00     6880.00
04827             940.00     6880.00
04828             920.00     6880.00
04829             940.00     6880.00
04830             920.00     6880.00
04831             920.00     6880.00
04832             940.00     6800.00
04833             920.00     6800.00
04834             920.00     6720.00
04835             920.00     6720.00
04836             920.00     6720.00
04837             920.00     6720.00
04838             920.00     6720.00
04839             920.00     6720.00
04840             920.00     6640.00
04841             900.00     6640.00
04842             920.00     6640.00
04843             920.00     6640.00
04844             900.00     6560.00
04845             920.00     6560.00
04846             900.00     6560.00
04847             900.00     6560.00
04848             920.00     6480.00
04849             900.00     6480.00
04850             920.00     6480.00
04851             900.00     6320.00
04852             900.00     6400.00
04853             900.00     6400.00
04854             900.00     6320.00
04855             900.00     6320.00
04856             900.00     6400.00
04857             900.00     6320.00
04858             900.00     6320.00
04859             900.00     6240.00
04860             900.00     6240.00
04861             900.00     6240.00
04862             900.00     6160.00
04863             880.00     6080.00
04864             900.00     6080.00
04865             900.00     6080.00
04866             900.00     6080.00
04867             880.00     6080.00
04868             900.00     6000.00
04869             900.00     6000.00
04870             860.00     6000.00
04871             880.00     5920.00
04872             860.00     5920.00
04873             880.00     5920.00
04874             860.00     5760.00
04875             860.00     5840.00
04876             840.00     5840.00
04877             860.00     5760.00
04878             840.00     5840.00
04879             840.00     5760.00
04880             840.00     5680.00
04881             860.00     5680.00
04882             840.00     5600.00
04883             840.00     5600.00
04884             840.00     5600.00
04885             840.00     5600.00
04886             840.00     5440.00
04887             820.00     5440.00
04888             840.00     5440.00
04889             840.00     5360.00
04890             840.00     5360.00
04891             820.00     5360.00
04892             820.00     5360.00
04893             820.00     5280.00
04894             820.00     5280.00
04895             780.00     5200.00
04896             820.00     5200.00
04897             780.00     5200.00
04898             780.00     5120.00
04899             800.00     5040.00
04900             780.00     5040.00
04901             780.00     5040.00
04902             780.00     4960.00
04903             780.00     4960.00
04904             760.00     4960.00
04905             780.00     4880.00
04906             760.00     4800.00
04907             760.00     4800.00
04908             760.00     4720.00
04909             740.00     4800.00
04910             760.00     4720.00
04911             760.00     4720.00
04912             760.00     4640.00
04913             740.00     4640.00
04914             740.00     4560.00
04915             740.00     4560.00
04916             740.00     4480.00
04917             740.00     4480.00
04918             740.00     4480.00
04919             740.00     4400.00
04920             740.00     4320.00
04921             700.00     4320.00
04922             740.00     4240.00
04923             700.00     4240.00
04924             700.00     4240.00
04925             680.00     4160.00
04926             700.00     4080.00
04927             700.00     4080.00
04928             680.00     4080.00
04929             680.00     4000.00
04930             700.00     4000.00
04931             680.00     4000.00
04932             680.00     3840.00
04933             660.00     3840.00
04934             680.00     3840.00
04935             660.00     3760.00
04936             660.00     3760.00
04937             660.00     3680.00
04938             660.00     3680.00
04939             660.00     3680.00
04940             660.00     3600.00
04941             660.00     3520.00
04942             620.00     3520.00
04943             620.00     3440.00
04944             620.00     3440.00
04945             600.00     3440.00
04946             600.00     3360.00
04947             600.00     3360.00
04948             600.00     3360.00
04949             600.00     3200.00
04950             580.00     3280.00
04951             580.00     3200.00
04952             580.00     3120.00
04953             580.00     3120.00
04954             580.00     3040.00
04955             580.00     3040.00
04956             580.00     2960.00
04957             540.00     2880.00
04958             540.00     2880.00
04959             540.00     2800.00
04960             520.00     2800.00
04961             520.00     2720.00
04962             520.00     2720.00
04963             520.00     2720.00
04964             520.00     2640.00
04965             520.00     2560.00
04966             500.00     2560.00
04967             520.00     2480.00
04968             500.00     2480.00
04969             500.00     2480.00
04970             500.00     2400.00
04971             460.00     2400.00
04972             480.00     2320.00
04973             480.00     2240.00
04974             480.00     2240.00
04975             460.00     2160.00
04976             460.00     2080.00
04977             440.00     2080.00
04978             460.00     2080.00
04979             440.00     1920.00
04980             440.00     1920.00
04981             420.00     1920.00
04982             440.00     1840.00
04983             420.00     1760.00
04984             440.00     1760.00
04985             420.00     1680.00
04986             420.00     1680.00
04987             420.00     1760.00
04988             420.00     1600.00
04989             380.00     1600.00
04990             380.00     1440.00
04991             400.00     1440.00
04992             380.00     1440.00
04993             380.00     1360.00
04994             360.00     1280.00
04995             360.00     1280.00
04996             360.00     1280.00
04997             360.00     1200.00
04998             360.00     1200.00
04999             340.00     1120.00
05000             340.00     1120.00
