Unit:(mV)
                     CH1         CH2
Frequency              ?  98.431 kHz
00001            -380.00    -2720.00
00002            -380.00    -2720.00
00003            -380.00    -2880.00
00004            -380.00    -2800.00
00005            -420.00    -2880.00
00006            -400.00    -2880.00
00007            -420.00    -2960.00
00008            -400.00    -2960.00
00009            -420.00    -3040.00
00010            -420.00    -3120.00
00011            -440.00    -3200.00
00012            -440.00    -3280.00
00013            -440.00    -3200.00
00014            -460.00    -3280.00
00015            -460.00    -3360.00
00016            -460.00    -3360.00
00017            -500.00    -3360.00
00018            -480.00    -3520.00
00019            -500.00    -3520.00
00020            -500.00    -3520.00
00021            -500.00    -3600.00
00022            -500.00    -3680.00
00023            -520.00    -3680.00
00024            -520.00    -3680.00
00025            -520.00    -3680.00
00026            -540.00    -3840.00
00027            -540.00    -3840.00
00028            -540.00    -3840.00
00029            -560.00    -3840.00
00030            -540.00    -3920.00
00031            -580.00    -3920.00
00032            -580.00    -4000.00
00033            -560.00    -4080.00
00034            -600.00    -4080.00
00035            -600.00    -4160.00
00036            -600.00    -4160.00
00037            -600.00    -4160.00
00038            -600.00    -4240.00
00039            -620.00    -4320.00
00040            -620.00    -4320.00
00041            -620.00    -4400.00
00042            -620.00    -4320.00
00043            -640.00    -4400.00
00044            -640.00    -4480.00
00045            -660.00    -4480.00
00046            -660.00    -4560.00
00047            -680.00    -4640.00
00048            -680.00    -4640.00
00049            -680.00    -4720.00
00050            -680.00    -4720.00
00051            -700.00    -4800.00
00052            -700.00    -4800.00
00053            -700.00    -4800.00
00054            -700.00    -4880.00
00055            -700.00    -4960.00
00056            -740.00    -4960.00
00057            -740.00    -4960.00
00058            -760.00    -5040.00
00059            -760.00    -5120.00
00060            -760.00    -5120.00
00061            -780.00    -5200.00
00062            -760.00    -5200.00
00063            -780.00    -5200.00
00064            -780.00    -5200.00
00065            -780.00    -5280.00
00066            -780.00    -5280.00
00067            -800.00    -5280.00
00068            -820.00    -5440.00
00069            -820.00    -5440.00
00070            -820.00    -5440.00
00071            -840.00    -5440.00
00072            -820.00    -5520.00
00073            -820.00    -5440.00
00074            -840.00    -5520.00
00075            -840.00    -5600.00
00076            -840.00    -5600.00
00077            -860.00    -5680.00
00078            -860.00    -5680.00
00079            -860.00    -5760.00
00080            -860.00    -5760.00
00081            -860.00    -5840.00
00082            -860.00    -5840.00
00083            -860.00    -5920.00
00084            -900.00    -5920.00
00085            -880.00    -5920.00
00086            -900.00    -6000.00
00087            -900.00    -6000.00
00088            -920.00    -6000.00
00089            -900.00    -6080.00
00090            -900.00    -6080.00
00091            -920.00    -6160.00
00092            -920.00    -6080.00
00093            -920.00    -6160.00
00094            -940.00    -6240.00
00095            -920.00    -6160.00
00096            -920.00    -6240.00
00097            -940.00    -6240.00
00098            -940.00    -6320.00
00099            -940.00    -6240.00
00100            -940.00    -6400.00
00101            -940.00    -6400.00
00102            -940.00    -6400.00
00103            -980.00    -6480.00
00104            -980.00    -6480.00
00105            -980.00    -6480.00
00106            -980.00    -6480.00
00107            -980.00    -6560.00
00108           -1000.00    -6560.00
00109            -980.00    -6560.00
00110           -1000.00    -6560.00
00111           -1000.00    -6640.00
00112           -1020.00    -6640.00
00113           -1020.00    -6720.00
00114           -1000.00    -6720.00
00115           -1000.00    -6720.00
00116           -1020.00    -6720.00
00117           -1020.00    -6720.00
00118           -1020.00    -6800.00
00119           -1020.00    -6880.00
00120           -1020.00    -6800.00
00121           -1060.00    -6800.00
00122           -1060.00    -6880.00
00123           -1060.00    -6880.00
00124           -1060.00    -6880.00
00125           -1060.00    -6880.00
00126           -1060.00    -6960.00
00127           -1080.00    -7040.00
00128           -1080.00    -6960.00
00129           -1080.00    -6960.00
00130           -1080.00    -6960.00
00131           -1080.00    -7040.00
00132           -1080.00    -7120.00
00133           -1100.00    -7040.00
00134           -1100.00    -7120.00
00135           -1080.00    -7120.00
00136           -1100.00    -7120.00
00137           -1100.00    -7120.00
00138           -1080.00    -7120.00
00139           -1100.00    -7120.00
00140           -1100.00    -7200.00
00141           -1100.00    -7200.00
00142           -1100.00    -7280.00
00143           -1100.00    -7280.00
00144           -1100.00    -7280.00
00145           -1140.00    -7360.00
00146           -1140.00    -7280.00
00147           -1100.00    -7360.00
00148           -1140.00    -7360.00
00149           -1140.00    -7360.00
00150           -1140.00    -7360.00
00151           -1140.00    -7360.00
00152           -1120.00    -7360.00
00153           -1140.00    -7440.00
00154           -1140.00    -7440.00
00155           -1160.00    -7440.00
00156           -1160.00    -7440.00
00157           -1160.00    -7440.00
00158           -1140.00    -7440.00
00159           -1160.00    -7440.00
00160           -1160.00    -7520.00
00161           -1140.00    -7440.00
00162           -1160.00    -7520.00
00163           -1160.00    -7440.00
00164           -1160.00    -7520.00
00165           -1160.00    -7520.00
00166           -1160.00    -7440.00
00167           -1180.00    -7520.00
00168           -1160.00    -7520.00
00169           -1160.00    -7520.00
00170           -1180.00    -7520.00
00171           -1180.00    -7520.00
00172           -1180.00    -7600.00
00173           -1180.00    -7600.00
00174           -1180.00    -7600.00
00175           -1180.00    -7600.00
00176           -1160.00    -7600.00
00177           -1180.00    -7520.00
00178           -1180.00    -7600.00
00179           -1180.00    -7520.00
00180           -1180.00    -7600.00
00181           -1180.00    -7600.00
00182           -1180.00    -7520.00
00183           -1180.00    -7680.00
00184           -1180.00    -7680.00
00185           -1180.00    -7600.00
00186           -1180.00    -7600.00
00187           -1180.00    -7680.00
00188           -1180.00    -7680.00
00189           -1180.00    -7680.00
00190           -1180.00    -7680.00
00191           -1220.00    -7680.00
00192           -1180.00    -7600.00
00193           -1180.00    -7680.00
00194           -1200.00    -7680.00
00195           -1200.00    -7680.00
00196           -1200.00    -7680.00
00197           -1180.00    -7680.00
00198           -1220.00    -7680.00
00199           -1220.00    -7680.00
00200           -1200.00    -7680.00
00201           -1220.00    -7680.00
00202           -1180.00    -7680.00
00203           -1220.00    -7600.00
00204           -1200.00    -7680.00
00205           -1220.00    -7680.00
00206           -1200.00    -7680.00
00207           -1220.00    -7600.00
00208           -1180.00    -7680.00
00209           -1220.00    -7600.00
00210           -1220.00    -7680.00
00211           -1180.00    -7680.00
00212           -1220.00    -7600.00
00213           -1200.00    -7600.00
00214           -1220.00    -7520.00
00215           -1220.00    -7600.00
00216           -1220.00    -7680.00
00217           -1180.00    -7600.00
00218           -1200.00    -7520.00
00219           -1220.00    -7520.00
00220           -1180.00    -7600.00
00221           -1180.00    -7520.00
00222           -1220.00    -7520.00
00223           -1180.00    -7520.00
00224           -1180.00    -7520.00
00225           -1180.00    -7440.00
00226           -1180.00    -7520.00
00227           -1180.00    -7440.00
00228           -1180.00    -7520.00
00229           -1180.00    -7520.00
00230           -1180.00    -7440.00
00231           -1180.00    -7440.00
00232           -1160.00    -7440.00
00233           -1180.00    -7440.00
00234           -1180.00    -7440.00
00235           -1180.00    -7360.00
00236           -1160.00    -7440.00
00237           -1160.00    -7440.00
00238           -1180.00    -7360.00
00239           -1160.00    -7360.00
00240           -1180.00    -7360.00
00241           -1160.00    -7360.00
00242           -1180.00    -7360.00
00243           -1160.00    -7280.00
00244           -1160.00    -7200.00
00245           -1160.00    -7200.00
00246           -1160.00    -7200.00
00247           -1160.00    -7200.00
00248           -1160.00    -7280.00
00249           -1160.00    -7200.00
00250           -1140.00    -7200.00
00251           -1160.00    -7120.00
00252           -1160.00    -7200.00
00253           -1160.00    -7120.00
00254           -1160.00    -7120.00
00255           -1160.00    -7120.00
00256           -1160.00    -7120.00
00257           -1160.00    -7120.00
00258           -1160.00    -7040.00
00259           -1140.00    -7040.00
00260           -1140.00    -6960.00
00261           -1140.00    -7040.00
00262           -1140.00    -6960.00
00263           -1140.00    -6960.00
00264           -1140.00    -6960.00
00265           -1120.00    -6880.00
00266           -1140.00    -6880.00
00267           -1100.00    -6880.00
00268           -1140.00    -6800.00
00269           -1100.00    -6880.00
00270           -1100.00    -6800.00
00271           -1100.00    -6800.00
00272           -1100.00    -6800.00
00273           -1100.00    -6800.00
00274           -1080.00    -6720.00
00275           -1100.00    -6800.00
00276           -1080.00    -6720.00
00277           -1080.00    -6720.00
00278           -1080.00    -6640.00
00279           -1080.00    -6640.00
00280           -1080.00    -6560.00
00281           -1060.00    -6560.00
00282           -1060.00    -6560.00
00283           -1060.00    -6560.00
00284           -1060.00    -6560.00
00285           -1060.00    -6480.00
00286           -1060.00    -6480.00
00287           -1060.00    -6480.00
00288           -1060.00    -6400.00
00289           -1060.00    -6400.00
00290           -1020.00    -6400.00
00291           -1020.00    -6400.00
00292           -1020.00    -6240.00
00293           -1020.00    -6320.00
00294           -1020.00    -6240.00
00295           -1020.00    -6240.00
00296           -1020.00    -6160.00
00297           -1020.00    -6160.00
00298           -1000.00    -6160.00
00299           -1020.00    -6080.00
00300           -1000.00    -6080.00
00301           -1000.00    -6080.00
00302            -980.00    -6000.00
00303            -980.00    -6000.00
00304            -980.00    -5920.00
00305            -980.00    -5920.00
00306            -980.00    -5920.00
00307            -940.00    -5840.00
00308            -980.00    -5840.00
00309            -960.00    -5840.00
00310            -940.00    -5840.00
00311            -940.00    -5760.00
00312            -940.00    -5760.00
00313            -940.00    -5760.00
00314            -920.00    -5760.00
00315            -920.00    -5600.00
00316            -920.00    -5600.00
00317            -920.00    -5520.00
00318            -920.00    -5520.00
00319            -920.00    -5440.00
00320            -920.00    -5520.00
00321            -920.00    -5440.00
00322            -920.00    -5440.00
00323            -900.00    -5440.00
00324            -920.00    -5360.00
00325            -900.00    -5280.00
00326            -900.00    -5280.00
00327            -860.00    -5280.00
00328            -860.00    -5200.00
00329            -880.00    -5200.00
00330            -860.00    -5120.00
00331            -860.00    -5120.00
00332            -860.00    -5040.00
00333            -860.00    -5040.00
00334            -840.00    -4960.00
00335            -860.00    -4960.00
00336            -840.00    -4960.00
00337            -820.00    -4880.00
00338            -840.00    -4800.00
00339            -840.00    -4800.00
00340            -820.00    -4800.00
00341            -820.00    -4800.00
00342            -820.00    -4640.00
00343            -800.00    -4640.00
00344            -780.00    -4560.00
00345            -780.00    -4560.00
00346            -780.00    -4400.00
00347            -760.00    -4480.00
00348            -760.00    -4480.00
00349            -760.00    -4400.00
00350            -760.00    -4400.00
00351            -740.00    -4320.00
00352            -740.00    -4240.00
00353            -740.00    -4240.00
00354            -720.00    -4240.00
00355            -700.00    -4240.00
00356            -720.00    -4160.00
00357            -700.00    -4160.00
00358            -700.00    -4000.00
00359            -680.00    -4000.00
00360            -680.00    -4000.00
00361            -680.00    -3920.00
00362            -680.00    -3920.00
00363            -680.00    -3840.00
00364            -660.00    -3840.00
00365            -660.00    -3840.00
00366            -640.00    -3760.00
00367            -640.00    -3680.00
00368            -660.00    -3600.00
00369            -620.00    -3680.00
00370            -620.00    -3600.00
00371            -620.00    -3520.00
00372            -600.00    -3520.00
00373            -600.00    -3440.00
00374            -600.00    -3440.00
00375            -600.00    -3360.00
00376            -600.00    -3360.00
00377            -600.00    -3280.00
00378            -560.00    -3200.00
00379            -580.00    -3200.00
00380            -580.00    -3200.00
00381            -560.00    -3040.00
00382            -580.00    -3120.00
00383            -540.00    -3040.00
00384            -540.00    -3040.00
00385            -540.00    -2960.00
00386            -540.00    -2880.00
00387            -520.00    -2880.00
00388            -520.00    -2800.00
00389            -520.00    -2800.00
00390            -520.00    -2720.00
00391            -500.00    -2720.00
00392            -500.00    -2640.00
00393            -460.00    -2640.00
00394            -460.00    -2560.00
00395            -500.00    -2480.00
00396            -460.00    -2480.00
00397            -440.00    -2400.00
00398            -440.00    -2400.00
00399            -440.00    -2320.00
00400            -440.00    -2240.00
00401            -440.00    -2240.00
00402            -420.00    -2240.00
00403            -420.00    -2160.00
00404            -400.00    -2080.00
00405            -400.00    -2080.00
00406            -420.00    -2000.00
00407            -380.00    -1920.00
00408            -380.00    -2000.00
00409            -380.00    -1840.00
00410            -360.00    -1840.00
00411            -360.00    -1760.00
00412            -340.00    -1760.00
00413            -340.00    -1680.00
00414            -340.00    -1600.00
00415            -340.00    -1600.00
00416            -340.00    -1520.00
00417            -300.00    -1440.00
00418            -320.00    -1520.00
00419            -300.00    -1440.00
00420            -300.00    -1440.00
00421            -280.00    -1280.00
00422            -280.00    -1280.00
00423            -280.00    -1200.00
00424            -280.00    -1200.00
00425            -280.00    -1200.00
00426            -260.00    -1040.00
00427            -220.00    -1040.00
00428            -220.00     -960.00
00429            -220.00     -960.00
00430            -220.00     -960.00
00431            -220.00     -800.00
00432            -220.00     -800.00
00433            -200.00     -800.00
00434            -200.00     -720.00
00435            -180.00     -720.00
00436            -180.00     -640.00
00437            -160.00     -640.00
00438            -180.00     -480.00
00439            -160.00     -400.00
00440            -140.00     -480.00
00441            -120.00     -400.00
00442            -140.00     -320.00
00443            -120.00     -240.00
00444            -120.00     -240.00
00445            -120.00     -240.00
00446            -100.00     -160.00
00447            -100.00      -80.00
00448            -100.00      -80.00
00449            -100.00        0.00
00450             -60.00        0.00
00451             -60.00       80.00
00452             -60.00       80.00
00453             -60.00      160.00
00454             -40.00      240.00
00455             -40.00      240.00
00456             -40.00      320.00
00457             -40.00      320.00
00458             -40.00      320.00
00459             -20.00      400.00
00460              20.00      480.00
00461              20.00      720.00
00462              20.00      640.00
00463             -20.00      720.00
00464             -20.00      560.00
00465              20.00      720.00
00466              60.00      960.00
00467              40.00      800.00
00468              20.00      800.00
00469              60.00     1040.00
00470             100.00     1040.00
00471              40.00      880.00
00472              60.00     1120.00
00473             120.00     1200.00
00474             100.00     1120.00
00475              80.00     1120.00
00476             120.00     1360.00
00477             140.00     1280.00
00478             120.00     1280.00
00479             140.00     1440.00
00480             140.00     1440.00
00481             140.00     1440.00
00482             180.00     1600.00
00483             180.00     1600.00
00484             180.00     1600.00
00485             200.00     1760.00
00486             180.00     1680.00
00487             200.00     1760.00
00488             220.00     1840.00
00489             200.00     1840.00
00490             220.00     1920.00
00491             220.00     2000.00
00492             220.00     2000.00
00493             260.00     2080.00
00494             260.00     2160.00
00495             260.00     2080.00
00496             260.00     2240.00
00497             260.00     2240.00
00498             260.00     2240.00
00499             300.00     2400.00
00500             280.00     2400.00
00501             300.00     2400.00
00502             300.00     2480.00
00503             300.00     2560.00
00504             340.00     2560.00
00505             340.00     2640.00
00506             340.00     2560.00
00507             360.00     2720.00
00508             360.00     2720.00
00509             360.00     2800.00
00510             360.00     2800.00
00511             380.00     2880.00
00512             360.00     2880.00
00513             360.00     2880.00
00514             380.00     3040.00
00515             380.00     3040.00
00516             420.00     3120.00
00517             420.00     3120.00
00518             420.00     3200.00
00519             420.00     3280.00
00520             420.00     3280.00
00521             420.00     3360.00
00522             440.00     3360.00
00523             440.00     3440.00
00524             460.00     3440.00
00525             460.00     3520.00
00526             460.00     3520.00
00527             460.00     3520.00
00528             500.00     3680.00
00529             500.00     3680.00
00530             500.00     3680.00
00531             520.00     3760.00
00532             520.00     3760.00
00533             520.00     3840.00
00534             520.00     3840.00
00535             540.00     3920.00
00536             540.00     4000.00
00537             540.00     4000.00
00538             540.00     4000.00
00539             580.00     4080.00
00540             580.00     4160.00
00541             580.00     4160.00
00542             580.00     4160.00
00543             580.00     4240.00
00544             600.00     4320.00
00545             600.00     4320.00
00546             600.00     4400.00
00547             620.00     4400.00
00548             620.00     4400.00
00549             620.00     4480.00
00550             620.00     4480.00
00551             640.00     4480.00
00552             660.00     4640.00
00553             660.00     4720.00
00554             660.00     4720.00
00555             660.00     4720.00
00556             680.00     4720.00
00557             680.00     4800.00
00558             680.00     4800.00
00559             680.00     4880.00
00560             680.00     4880.00
00561             700.00     4960.00
00562             700.00     4960.00
00563             740.00     4960.00
00564             740.00     5040.00
00565             740.00     5120.00
00566             740.00     5120.00
00567             740.00     5120.00
00568             760.00     5200.00
00569             760.00     5280.00
00570             760.00     5280.00
00571             780.00     5280.00
00572             760.00     5360.00
00573             760.00     5440.00
00574             780.00     5360.00
00575             780.00     5440.00
00576             820.00     5440.00
00577             800.00     5520.00
00578             800.00     5440.00
00579             820.00     5600.00
00580             820.00     5600.00
00581             820.00     5600.00
00582             820.00     5600.00
00583             840.00     5680.00
00584             840.00     5680.00
00585             840.00     5840.00
00586             840.00     5760.00
00587             840.00     5840.00
00588             840.00     5840.00
00589             840.00     5920.00
00590             840.00     5920.00
00591             860.00     6000.00
00592             880.00     6000.00
00593             880.00     6000.00
00594             880.00     6080.00
00595             880.00     6080.00
00596             900.00     6080.00
00597             900.00     6080.00
00598             900.00     6240.00
00599             900.00     6240.00
00600             900.00     6240.00
00601             920.00     6240.00
00602             920.00     6320.00
00603             940.00     6320.00
00604             920.00     6320.00
00605             940.00     6400.00
00606             920.00     6400.00
00607             940.00     6400.00
00608             940.00     6480.00
00609             960.00     6480.00
00610             980.00     6480.00
00611             980.00     6560.00
00612             980.00     6560.00
00613             980.00     6560.00
00614             980.00     6560.00
00615             980.00     6640.00
00616             980.00     6640.00
00617            1000.00     6720.00
00618            1000.00     6640.00
00619            1000.00     6720.00
00620            1000.00     6720.00
00621            1020.00     6720.00
00622            1020.00     6800.00
00623            1000.00     6800.00
00624            1020.00     6880.00
00625            1040.00     6880.00
00626            1020.00     6880.00
00627            1020.00     6880.00
00628            1040.00     6880.00
00629            1060.00     6880.00
00630            1040.00     6960.00
00631            1060.00     6960.00
00632            1060.00     7040.00
00633            1060.00     7040.00
00634            1060.00     7040.00
00635            1060.00     7040.00
00636            1060.00     7040.00
00637            1060.00     7200.00
00638            1080.00     7040.00
00639            1080.00     7200.00
00640            1080.00     7200.00
00641            1080.00     7120.00
00642            1080.00     7200.00
00643            1080.00     7200.00
00644            1080.00     7200.00
00645            1080.00     7280.00
00646            1080.00     7280.00
00647            1080.00     7280.00
00648            1080.00     7280.00
00649            1100.00     7360.00
00650            1080.00     7360.00
00651            1100.00     7360.00
00652            1100.00     7360.00
00653            1100.00     7360.00
00654            1100.00     7360.00
00655            1120.00     7360.00
00656            1140.00     7440.00
00657            1120.00     7440.00
00658            1140.00     7360.00
00659            1140.00     7520.00
00660            1140.00     7520.00
00661            1140.00     7520.00
00662            1120.00     7520.00
00663            1140.00     7520.00
00664            1140.00     7520.00
00665            1140.00     7600.00
00666            1140.00     7520.00
00667            1140.00     7600.00
00668            1160.00     7600.00
00669            1160.00     7600.00
00670            1160.00     7600.00
00671            1160.00     7600.00
00672            1160.00     7600.00
00673            1160.00     7600.00
00674            1160.00     7600.00
00675            1160.00     7600.00
00676            1180.00     7600.00
00677            1160.00     7600.00
00678            1160.00     7600.00
00679            1160.00     7680.00
00680            1160.00     7680.00
00681            1180.00     7680.00
00682            1180.00     7680.00
00683            1180.00     7680.00
00684            1180.00     7680.00
00685            1180.00     7680.00
00686            1180.00     7680.00
00687            1180.00     7680.00
00688            1180.00     7680.00
00689            1180.00     7680.00
00690            1180.00     7680.00
00691            1200.00     7680.00
00692            1180.00     7760.00
00693            1180.00     7760.00
00694            1220.00     7680.00
00695            1180.00     7680.00
00696            1180.00     7680.00
00697            1200.00     7680.00
00698            1180.00     7680.00
00699            1220.00     7680.00
00700            1200.00     7680.00
00701            1180.00     7840.00
00702            1220.00     7680.00
00703            1180.00     7680.00
00704            1220.00     7680.00
00705            1200.00     7760.00
00706            1220.00     7680.00
00707            1200.00     7680.00
00708            1220.00     7680.00
00709            1220.00     7680.00
00710            1200.00     7680.00
00711            1200.00     7680.00
00712            1180.00     7680.00
00713            1200.00     7760.00
00714            1180.00     7680.00
00715            1180.00     7680.00
00716            1220.00     7600.00
00717            1180.00     7680.00
00718            1220.00     7680.00
00719            1220.00     7680.00
00720            1180.00     7680.00
00721            1180.00     7680.00
00722            1180.00     7680.00
00723            1220.00     7680.00
00724            1180.00     7600.00
00725            1180.00     7680.00
00726            1180.00     7600.00
00727            1180.00     7600.00
00728            1200.00     7680.00
00729            1200.00     7600.00
00730            1180.00     7680.00
00731            1180.00     7600.00
00732            1180.00     7600.00
00733            1180.00     7600.00
00734            1180.00     7600.00
00735            1180.00     7600.00
00736            1180.00     7600.00
00737            1180.00     7520.00
00738            1180.00     7520.00
00739            1180.00     7520.00
00740            1180.00     7520.00
00741            1180.00     7520.00
00742            1180.00     7520.00
00743            1160.00     7520.00
00744            1180.00     7520.00
00745            1180.00     7520.00
00746            1180.00     7520.00
00747            1160.00     7440.00
00748            1180.00     7440.00
00749            1160.00     7360.00
00750            1160.00     7360.00
00751            1160.00     7360.00
00752            1160.00     7360.00
00753            1180.00     7360.00
00754            1160.00     7360.00
00755            1160.00     7360.00
00756            1160.00     7280.00
00757            1160.00     7360.00
00758            1160.00     7280.00
00759            1160.00     7280.00
00760            1140.00     7280.00
00761            1160.00     7200.00
00762            1160.00     7280.00
00763            1160.00     7200.00
00764            1140.00     7200.00
00765            1140.00     7200.00
00766            1140.00     7200.00
00767            1160.00     7120.00
00768            1140.00     7200.00
00769            1140.00     7040.00
00770            1140.00     7040.00
00771            1120.00     7040.00
00772            1120.00     7040.00
00773            1100.00     7040.00
00774            1100.00     6960.00
00775            1100.00     6960.00
00776            1100.00     6960.00
00777            1080.00     6960.00
00778            1100.00     6880.00
00779            1100.00     6880.00
00780            1080.00     6880.00
00781            1060.00     6880.00
00782            1080.00     6800.00
00783            1080.00     6800.00
00784            1080.00     6800.00
00785            1060.00     6720.00
00786            1060.00     6720.00
00787            1060.00     6720.00
00788            1060.00     6720.00
00789            1060.00     6640.00
00790            1060.00     6720.00
00791            1060.00     6640.00
00792            1060.00     6560.00
00793            1040.00     6560.00
00794            1060.00     6560.00
00795            1060.00     6560.00
00796            1020.00     6560.00
00797            1040.00     6480.00
00798            1020.00     6400.00
00799            1000.00     6400.00
00800            1020.00     6400.00
00801            1000.00     6400.00
00802            1020.00     6320.00
00803            1020.00     6320.00
00804            1020.00     6320.00
00805            1000.00     6240.00
00806            1000.00     6240.00
00807            1000.00     6240.00
00808             980.00     6160.00
00809             980.00     6080.00
00810             980.00     6160.00
00811             980.00     6000.00
00812             980.00     6080.00
00813             980.00     6000.00
00814             980.00     6000.00
00815             980.00     5920.00
00816             980.00     5920.00
00817             960.00     5920.00
00818             940.00     5920.00
00819             940.00     5840.00
00820             940.00     5840.00
00821             940.00     5760.00
00822             940.00     5840.00
00823             920.00     5840.00
00824             920.00     5680.00
00825             940.00     5680.00
00826             900.00     5600.00
00827             920.00     5600.00
00828             900.00     5520.00
00829             900.00     5440.00
00830             900.00     5520.00
00831             900.00     5440.00
00832             900.00     5440.00
00833             900.00     5360.00
00834             860.00     5360.00
00835             860.00     5360.00
00836             860.00     5280.00
00837             840.00     5280.00
00838             860.00     5280.00
00839             840.00     5200.00
00840             840.00     5200.00
00841             840.00     5040.00
00842             820.00     5120.00
00843             840.00     5040.00
00844             820.00     5040.00
00845             840.00     4960.00
00846             820.00     4960.00
00847             800.00     4960.00
00848             820.00     4880.00
00849             780.00     4800.00
00850             780.00     4720.00
00851             780.00     4720.00
00852             780.00     4720.00
00853             760.00     4640.00
00854             780.00     4640.00
00855             740.00     4640.00
00856             740.00     4560.00
00857             740.00     4480.00
00858             760.00     4480.00
00859             740.00     4480.00
00860             740.00     4400.00
00861             700.00     4400.00
00862             700.00     4400.00
00863             700.00     4320.00
00864             720.00     4240.00
00865             700.00     4160.00
00866             680.00     4160.00
00867             700.00     4160.00
00868             680.00     4000.00
00869             680.00     4080.00
00870             660.00     4000.00
00871             680.00     3920.00
00872             660.00     3920.00
00873             660.00     3840.00
00874             660.00     3840.00
00875             660.00     3760.00
00876             640.00     3680.00
00877             640.00     3760.00
00878             620.00     3680.00
00879             620.00     3680.00
00880             620.00     3520.00
00881             600.00     3520.00
00882             580.00     3520.00
00883             600.00     3440.00
00884             580.00     3440.00
00885             580.00     3360.00
00886             580.00     3360.00
00887             580.00     3360.00
00888             580.00     3280.00
00889             540.00     3200.00
00890             580.00     3200.00
00891             540.00     3120.00
00892             540.00     3120.00
00893             540.00     3040.00
00894             540.00     3040.00
00895             520.00     3040.00
00896             520.00     2880.00
00897             500.00     2800.00
00898             500.00     2800.00
00899             500.00     2800.00
00900             500.00     2720.00
00901             480.00     2640.00
00902             460.00     2560.00
00903             460.00     2560.00
00904             440.00     2560.00
00905             440.00     2560.00
00906             440.00     2480.00
00907             420.00     2480.00
00908             420.00     2400.00
00909             420.00     2400.00
00910             400.00     2320.00
00911             400.00     2240.00
00912             420.00     2160.00
00913             380.00     2160.00
00914             360.00     2160.00
00915             360.00     2080.00
00916             360.00     2080.00
00917             360.00     1920.00
00918             360.00     1920.00
00919             340.00     1840.00
00920             340.00     1840.00
00921             340.00     1840.00
00922             320.00     1680.00
00923             320.00     1680.00
00924             300.00     1600.00
00925             320.00     1600.00
00926             280.00     1520.00
00927             280.00     1520.00
00928             280.00     1440.00
00929             280.00     1440.00
00930             280.00     1360.00
00931             260.00     1280.00
00932             260.00     1200.00
00933             260.00     1200.00
00934             260.00     1200.00
00935             220.00     1120.00
00936             220.00     1120.00
00937             220.00     1120.00
00938             200.00      960.00
00939             200.00      960.00
00940             200.00      960.00
00941             200.00      880.00
00942             200.00      800.00
00943             200.00      800.00
00944             180.00      720.00
00945             180.00      720.00
00946             160.00      640.00
00947             160.00      560.00
00948             140.00      560.00
00949             140.00      480.00
00950             120.00      400.00
00951             120.00      320.00
00952             120.00      320.00
00953             120.00      320.00
00954             100.00      240.00
00955             100.00      240.00
00956             100.00      160.00
00957             100.00       80.00
00958              60.00       80.00
00959              60.00        0.00
00960              60.00        0.00
00961              40.00      -80.00
00962              40.00      -80.00
00963              40.00     -160.00
00964              40.00     -160.00
00965              40.00     -240.00
00966              20.00     -320.00
00967              20.00     -320.00
00968              20.00     -400.00
00969               0.00     -400.00
00970              20.00     -480.00
00971             -20.00     -640.00
00972             -60.00     -720.00
00973             -60.00     -800.00
00974             -60.00     -640.00
00975             -20.00     -640.00
00976             -60.00     -880.00
00977            -120.00     -960.00
00978             -60.00     -720.00
00979             -60.00     -960.00
00980            -120.00    -1040.00
00981            -100.00     -960.00
00982            -100.00    -1040.00
00983            -140.00    -1200.00
00984            -140.00    -1200.00
00985            -120.00    -1200.00
00986            -140.00    -1280.00
00987            -140.00    -1360.00
00988            -140.00    -1280.00
00989            -180.00    -1440.00
00990            -180.00    -1520.00
00991            -180.00    -1440.00
00992            -200.00    -1600.00
00993            -200.00    -1600.00
00994            -200.00    -1600.00
00995            -220.00    -1760.00
00996            -220.00    -1680.00
00997            -220.00    -1760.00
00998            -220.00    -1840.00
00999            -220.00    -1840.00
01000            -260.00    -1840.00
01001            -240.00    -2000.00
01002            -260.00    -2000.00
01003            -260.00    -2080.00
01004            -260.00    -2160.00
01005            -280.00    -2160.00
01006            -280.00    -2240.00
01007            -300.00    -2240.00
01008            -300.00    -2320.00
01009            -300.00    -2320.00
01010            -300.00    -2400.00
01011            -300.00    -2400.00
01012            -320.00    -2480.00
01013            -300.00    -2560.00
01014            -340.00    -2560.00
01015            -340.00    -2560.00
01016            -360.00    -2640.00
01017            -360.00    -2720.00
01018            -380.00    -2720.00
01019            -380.00    -2800.00
01020            -380.00    -2880.00
01021            -400.00    -2880.00
01022            -400.00    -2880.00
01023            -420.00    -2960.00
01024            -420.00    -2960.00
01025            -420.00    -3040.00
01026            -420.00    -3120.00
01027            -440.00    -3200.00
01028            -440.00    -3200.00
01029            -440.00    -3280.00
01030            -440.00    -3280.00
01031            -460.00    -3360.00
01032            -460.00    -3360.00
01033            -460.00    -3360.00
01034            -500.00    -3360.00
01035            -500.00    -3440.00
01036            -500.00    -3520.00
01037            -520.00    -3520.00
01038            -520.00    -3600.00
01039            -520.00    -3680.00
01040            -520.00    -3680.00
01041            -540.00    -3760.00
01042            -540.00    -3760.00
01043            -540.00    -3840.00
01044            -580.00    -3920.00
01045            -580.00    -3920.00
01046            -560.00    -3920.00
01047            -580.00    -4000.00
01048            -580.00    -4000.00
01049            -600.00    -4000.00
01050            -600.00    -4080.00
01051            -600.00    -4160.00
01052            -600.00    -4160.00
01053            -620.00    -4240.00
01054            -620.00    -4320.00
01055            -620.00    -4320.00
01056            -640.00    -4320.00
01057            -620.00    -4400.00
01058            -660.00    -4400.00
01059            -660.00    -4480.00
01060            -680.00    -4480.00
01061            -660.00    -4560.00
01062            -680.00    -4560.00
01063            -660.00    -4640.00
01064            -680.00    -4640.00
01065            -680.00    -4720.00
01066            -680.00    -4720.00
01067            -700.00    -4800.00
01068            -700.00    -4800.00
01069            -700.00    -4880.00
01070            -700.00    -4880.00
01071            -740.00    -4960.00
01072            -740.00    -4960.00
01073            -740.00    -4960.00
01074            -740.00    -5040.00
01075            -740.00    -5040.00
01076            -740.00    -5120.00
01077            -760.00    -5120.00
01078            -760.00    -5200.00
01079            -760.00    -5200.00
01080            -760.00    -5280.00
01081            -780.00    -5280.00
01082            -780.00    -5280.00
01083            -780.00    -5360.00
01084            -780.00    -5360.00
01085            -800.00    -5440.00
01086            -800.00    -5440.00
01087            -820.00    -5520.00
01088            -820.00    -5520.00
01089            -820.00    -5520.00
01090            -840.00    -5520.00
01091            -840.00    -5600.00
01092            -840.00    -5680.00
01093            -840.00    -5600.00
01094            -860.00    -5760.00
01095            -860.00    -5680.00
01096            -860.00    -5760.00
01097            -860.00    -5840.00
01098            -860.00    -5840.00
01099            -860.00    -5920.00
01100            -860.00    -5840.00
01101            -900.00    -5920.00
01102            -900.00    -5920.00
01103            -900.00    -6000.00
01104            -900.00    -6000.00
01105            -920.00    -6080.00
01106            -920.00    -6080.00
01107            -920.00    -6080.00
01108            -920.00    -6080.00
01109            -920.00    -6160.00
01110            -940.00    -6160.00
01111            -920.00    -6240.00
01112            -940.00    -6160.00
01113            -940.00    -6240.00
01114            -940.00    -6240.00
01115            -940.00    -6320.00
01116            -980.00    -6400.00
01117            -940.00    -6320.00
01118            -980.00    -6400.00
01119            -980.00    -6480.00
01120            -980.00    -6480.00
01121            -980.00    -6480.00
01122           -1000.00    -6560.00
01123           -1000.00    -6560.00
01124           -1000.00    -6560.00
01125           -1000.00    -6560.00
01126           -1000.00    -6560.00
01127           -1000.00    -6640.00
01128           -1020.00    -6720.00
01129           -1020.00    -6720.00
01130           -1020.00    -6720.00
01131           -1020.00    -6720.00
01132           -1020.00    -6720.00
01133           -1020.00    -6800.00
01134           -1020.00    -6800.00
01135           -1020.00    -6800.00
01136           -1020.00    -6880.00
01137           -1020.00    -6880.00
01138           -1060.00    -6880.00
01139           -1040.00    -6880.00
01140           -1060.00    -6880.00
01141           -1060.00    -6880.00
01142           -1060.00    -6960.00
01143           -1080.00    -6960.00
01144           -1060.00    -7040.00
01145           -1080.00    -7040.00
01146           -1060.00    -6960.00
01147           -1080.00    -7040.00
01148           -1080.00    -7120.00
01149           -1080.00    -7040.00
01150           -1080.00    -7040.00
01151           -1080.00    -7120.00
01152           -1100.00    -7040.00
01153           -1100.00    -7200.00
01154           -1100.00    -7120.00
01155           -1100.00    -7120.00
01156           -1120.00    -7200.00
01157           -1100.00    -7200.00
01158           -1100.00    -7200.00
01159           -1100.00    -7200.00
01160           -1100.00    -7200.00
01161           -1100.00    -7360.00
01162           -1100.00    -7280.00
01163           -1140.00    -7360.00
01164           -1140.00    -7360.00
01165           -1140.00    -7360.00
01166           -1140.00    -7360.00
01167           -1140.00    -7360.00
01168           -1140.00    -7440.00
01169           -1160.00    -7440.00
01170           -1140.00    -7440.00
01171           -1140.00    -7440.00
01172           -1160.00    -7440.00
01173           -1160.00    -7440.00
01174           -1160.00    -7440.00
01175           -1160.00    -7520.00
01176           -1160.00    -7520.00
01177           -1180.00    -7520.00
01178           -1160.00    -7520.00
01179           -1180.00    -7520.00
01180           -1180.00    -7520.00
01181           -1160.00    -7520.00
01182           -1160.00    -7520.00
01183           -1180.00    -7520.00
01184           -1160.00    -7600.00
01185           -1180.00    -7520.00
01186           -1160.00    -7600.00
01187           -1180.00    -7600.00
01188           -1180.00    -7600.00
01189           -1180.00    -7600.00
01190           -1180.00    -7600.00
01191           -1180.00    -7680.00
01192           -1180.00    -7600.00
01193           -1180.00    -7600.00
01194           -1180.00    -7680.00
01195           -1180.00    -7600.00
01196           -1180.00    -7680.00
01197           -1180.00    -7680.00
01198           -1180.00    -7680.00
01199           -1220.00    -7680.00
01200           -1220.00    -7680.00
01201           -1180.00    -7680.00
01202           -1180.00    -7680.00
01203           -1220.00    -7680.00
01204           -1180.00    -7680.00
01205           -1200.00    -7680.00
01206           -1180.00    -7680.00
01207           -1180.00    -7680.00
01208           -1200.00    -7680.00
01209           -1180.00    -7680.00
01210           -1180.00    -7680.00
01211           -1220.00    -7680.00
01212           -1200.00    -7680.00
01213           -1180.00    -7680.00
01214           -1180.00    -7680.00
01215           -1180.00    -7600.00
01216           -1200.00    -7680.00
01217           -1180.00    -7680.00
01218           -1200.00    -7600.00
01219           -1200.00    -7600.00
01220           -1200.00    -7680.00
01221           -1220.00    -7680.00
01222           -1180.00    -7680.00
01223           -1220.00    -7680.00
01224           -1180.00    -7600.00
01225           -1180.00    -7600.00
01226           -1200.00    -7600.00
01227           -1180.00    -7520.00
01228           -1180.00    -7600.00
01229           -1180.00    -7680.00
01230           -1220.00    -7600.00
01231           -1180.00    -7600.00
01232           -1220.00    -7600.00
01233           -1180.00    -7520.00
01234           -1180.00    -7600.00
01235           -1220.00    -7520.00
01236           -1200.00    -7520.00
01237           -1180.00    -7520.00
01238           -1180.00    -7520.00
01239           -1180.00    -7520.00
01240           -1200.00    -7520.00
01241           -1180.00    -7520.00
01242           -1180.00    -7520.00
01243           -1180.00    -7520.00
01244           -1200.00    -7520.00
01245           -1180.00    -7520.00
01246           -1180.00    -7520.00
01247           -1180.00    -7520.00
01248           -1180.00    -7440.00
01249           -1180.00    -7440.00
01250           -1180.00    -7440.00
01251           -1180.00    -7440.00
01252           -1180.00    -7440.00
01253           -1180.00    -7360.00
01254           -1180.00    -7360.00
01255           -1180.00    -7360.00
01256           -1160.00    -7360.00
01257           -1180.00    -7360.00
01258           -1180.00    -7360.00
01259           -1180.00    -7360.00
01260           -1160.00    -7280.00
01261           -1160.00    -7200.00
01262           -1160.00    -7360.00
01263           -1160.00    -7200.00
01264           -1160.00    -7280.00
01265           -1140.00    -7200.00
01266           -1160.00    -7200.00
01267           -1140.00    -7200.00
01268           -1160.00    -7120.00
01269           -1140.00    -7120.00
01270           -1140.00    -7200.00
01271           -1140.00    -7120.00
01272           -1120.00    -7120.00
01273           -1140.00    -7040.00
01274           -1140.00    -6960.00
01275           -1100.00    -7040.00
01276           -1140.00    -7040.00
01277           -1100.00    -6960.00
01278           -1100.00    -6960.00
01279           -1120.00    -6960.00
01280           -1100.00    -6880.00
01281           -1100.00    -6880.00
01282           -1100.00    -6880.00
01283           -1100.00    -6880.00
01284           -1080.00    -6880.00
01285           -1100.00    -6800.00
01286           -1100.00    -6800.00
01287           -1080.00    -6800.00
01288           -1080.00    -6800.00
01289           -1100.00    -6800.00
01290           -1080.00    -6720.00
01291           -1100.00    -6720.00
01292           -1080.00    -6720.00
01293           -1080.00    -6720.00
01294           -1080.00    -6640.00
01295           -1080.00    -6560.00
01296           -1060.00    -6640.00
01297           -1080.00    -6560.00
01298           -1060.00    -6560.00
01299           -1080.00    -6560.00
01300           -1080.00    -6480.00
01301           -1060.00    -6560.00
01302           -1060.00    -6560.00
01303           -1060.00    -6400.00
01304           -1060.00    -6400.00
01305           -1040.00    -6400.00
01306           -1060.00    -6400.00
01307           -1020.00    -6400.00
01308           -1020.00    -6240.00
01309           -1020.00    -6240.00
01310           -1020.00    -6160.00
01311           -1020.00    -6240.00
01312           -1020.00    -6160.00
01313           -1000.00    -6160.00
01314           -1020.00    -6160.00
01315           -1020.00    -6080.00
01316           -1000.00    -6080.00
01317           -1000.00    -6080.00
01318           -1000.00    -6080.00
01319           -1000.00    -5920.00
01320            -980.00    -6000.00
01321            -980.00    -5920.00
01322           -1000.00    -5920.00
01323            -980.00    -5920.00
01324            -940.00    -5840.00
01325            -960.00    -5760.00
01326            -940.00    -5760.00
01327            -940.00    -5760.00
01328            -940.00    -5760.00
01329            -940.00    -5680.00
01330            -940.00    -5680.00
01331            -940.00    -5600.00
01332            -920.00    -5600.00
01333            -920.00    -5520.00
01334            -920.00    -5520.00
01335            -920.00    -5440.00
01336            -900.00    -5440.00
01337            -900.00    -5440.00
01338            -900.00    -5360.00
01339            -880.00    -5360.00
01340            -880.00    -5280.00
01341            -880.00    -5280.00
01342            -900.00    -5280.00
01343            -860.00    -5280.00
01344            -860.00    -5200.00
01345            -860.00    -5120.00
01346            -840.00    -5120.00
01347            -860.00    -5120.00
01348            -860.00    -5040.00
01349            -840.00    -5040.00
01350            -840.00    -5040.00
01351            -840.00    -4960.00
01352            -820.00    -4880.00
01353            -820.00    -4880.00
01354            -820.00    -4800.00
01355            -820.00    -4800.00
01356            -780.00    -4800.00
01357            -800.00    -4720.00
01358            -780.00    -4720.00
01359            -780.00    -4640.00
01360            -780.00    -4560.00
01361            -780.00    -4560.00
01362            -780.00    -4480.00
01363            -760.00    -4480.00
01364            -780.00    -4400.00
01365            -760.00    -4400.00
01366            -760.00    -4400.00
01367            -760.00    -4320.00
01368            -740.00    -4320.00
01369            -740.00    -4320.00
01370            -740.00    -4240.00
01371            -720.00    -4160.00
01372            -740.00    -4160.00
01373            -700.00    -4160.00
01374            -700.00    -4080.00
01375            -700.00    -4000.00
01376            -700.00    -4000.00
01377            -700.00    -3920.00
01378            -680.00    -3920.00
01379            -680.00    -3840.00
01380            -680.00    -3840.00
01381            -660.00    -3760.00
01382            -660.00    -3760.00
01383            -660.00    -3680.00
01384            -660.00    -3680.00
01385            -640.00    -3600.00
01386            -620.00    -3520.00
01387            -620.00    -3520.00
01388            -620.00    -3520.00
01389            -600.00    -3440.00
01390            -600.00    -3360.00
01391            -600.00    -3360.00
01392            -600.00    -3360.00
01393            -600.00    -3280.00
01394            -580.00    -3280.00
01395            -580.00    -3200.00
01396            -580.00    -3200.00
01397            -560.00    -3200.00
01398            -540.00    -3120.00
01399            -540.00    -3040.00
01400            -540.00    -2960.00
01401            -520.00    -2960.00
01402            -520.00    -2880.00
01403            -520.00    -2880.00
01404            -500.00    -2800.00
01405            -500.00    -2720.00
01406            -500.00    -2800.00
01407            -500.00    -2720.00
01408            -480.00    -2640.00
01409            -480.00    -2560.00
01410            -480.00    -2560.00
01411            -460.00    -2560.00
01412            -460.00    -2480.00
01413            -440.00    -2400.00
01414            -440.00    -2400.00
01415            -440.00    -2320.00
01416            -420.00    -2320.00
01417            -440.00    -2240.00
01418            -420.00    -2240.00
01419            -420.00    -2160.00
01420            -400.00    -2080.00
01421            -400.00    -2080.00
01422            -380.00    -2000.00
01423            -380.00    -2000.00
01424            -380.00    -1920.00
01425            -380.00    -1840.00
01426            -360.00    -1760.00
01427            -360.00    -1760.00
01428            -360.00    -1760.00
01429            -340.00    -1680.00
01430            -360.00    -1680.00
01431            -340.00    -1600.00
01432            -320.00    -1600.00
01433            -300.00    -1600.00
01434            -300.00    -1440.00
01435            -300.00    -1360.00
01436            -280.00    -1360.00
01437            -300.00    -1360.00
01438            -300.00    -1280.00
01439            -280.00    -1280.00
01440            -280.00    -1200.00
01441            -260.00    -1120.00
01442            -260.00    -1120.00
01443            -260.00    -1040.00
01444            -240.00    -1040.00
01445            -220.00     -960.00
01446            -220.00     -880.00
01447            -220.00     -880.00
01448            -220.00     -800.00
01449            -200.00     -800.00
01450            -220.00     -720.00
01451            -200.00     -720.00
01452            -180.00     -640.00
01453            -180.00     -480.00
01454            -180.00     -480.00
01455            -140.00     -480.00
01456            -140.00     -400.00
01457            -140.00     -400.00
01458            -140.00     -320.00
01459            -140.00     -320.00
01460            -140.00     -320.00
01461            -120.00     -240.00
01462            -120.00     -160.00
01463            -100.00      -80.00
01464             -80.00      -80.00
01465             -80.00        0.00
01466             -60.00        0.00
01467             -60.00       80.00
01468             -60.00      160.00
01469             -40.00      160.00
01470             -40.00      160.00
01471             -40.00      320.00
01472             -20.00      320.00
01473             -20.00      320.00
01474             -20.00      320.00
01475              20.00      480.00
01476              20.00      480.00
01477              20.00      720.00
01478              20.00      640.00
01479              20.00      640.00
01480             -20.00      560.00
01481              40.00      800.00
01482              60.00      960.00
01483              40.00      800.00
01484              40.00      800.00
01485              80.00     1040.00
01486             100.00      960.00
01487              60.00      880.00
01488             100.00     1120.00
01489             140.00     1280.00
01490             100.00     1120.00
01491             100.00     1120.00
01492             140.00     1280.00
01493             120.00     1280.00
01494             120.00     1280.00
01495             140.00     1440.00
01496             140.00     1440.00
01497             140.00     1440.00
01498             180.00     1520.00
01499             180.00     1600.00
01500             180.00     1600.00
01501             180.00     1760.00
01502             180.00     1680.00
01503             200.00     1840.00
01504             200.00     1840.00
01505             200.00     1760.00
01506             200.00     1920.00
01507             220.00     2000.00
01508             220.00     1920.00
01509             220.00     2080.00
01510             260.00     2160.00
01511             260.00     2080.00
01512             260.00     2160.00
01513             260.00     2240.00
01514             260.00     2240.00
01515             280.00     2400.00
01516             280.00     2400.00
01517             280.00     2400.00
01518             300.00     2480.00
01519             300.00     2560.00
01520             320.00     2560.00
01521             340.00     2560.00
01522             340.00     2720.00
01523             340.00     2720.00
01524             340.00     2800.00
01525             360.00     2720.00
01526             360.00     2880.00
01527             360.00     2800.00
01528             360.00     2880.00
01529             380.00     2960.00
01530             380.00     3040.00
01531             420.00     3040.00
01532             420.00     3120.00
01533             420.00     3200.00
01534             420.00     3280.00
01535             420.00     3200.00
01536             440.00     3280.00
01537             440.00     3360.00
01538             440.00     3360.00
01539             460.00     3440.00
01540             460.00     3440.00
01541             460.00     3440.00
01542             460.00     3520.00
01543             500.00     3520.00
01544             500.00     3600.00
01545             520.00     3680.00
01546             520.00     3680.00
01547             520.00     3760.00
01548             540.00     3760.00
01549             520.00     3760.00
01550             540.00     3840.00
01551             540.00     3920.00
01552             540.00     4000.00
01553             580.00     4000.00
01554             560.00     4000.00
01555             540.00     4080.00
01556             580.00     4080.00
01557             580.00     4160.00
01558             580.00     4160.00
01559             580.00     4160.00
01560             600.00     4320.00
01561             600.00     4320.00
01562             600.00     4320.00
01563             620.00     4400.00
01564             600.00     4400.00
01565             620.00     4400.00
01566             600.00     4480.00
01567             660.00     4480.00
01568             660.00     4640.00
01569             660.00     4640.00
01570             660.00     4720.00
01571             660.00     4720.00
01572             680.00     4800.00
01573             680.00     4800.00
01574             680.00     4800.00
01575             680.00     4880.00
01576             680.00     4960.00
01577             700.00     4960.00
01578             700.00     4960.00
01579             700.00     4960.00
01580             740.00     5040.00
01581             740.00     5040.00
01582             740.00     5120.00
01583             740.00     5120.00
01584             740.00     5120.00
01585             760.00     5280.00
01586             760.00     5280.00
01587             760.00     5280.00
01588             760.00     5360.00
01589             780.00     5360.00
01590             760.00     5360.00
01591             780.00     5440.00
01592             820.00     5440.00
01593             780.00     5520.00
01594             820.00     5600.00
01595             820.00     5600.00
01596             840.00     5600.00
01597             820.00     5680.00
01598             840.00     5600.00
01599             840.00     5760.00
01600             840.00     5760.00
01601             840.00     5760.00
01602             840.00     5840.00
01603             840.00     5840.00
01604             860.00     5920.00
01605             860.00     5920.00
01606             860.00     5920.00
01607             880.00     6000.00
01608             880.00     6000.00
01609             900.00     6000.00
01610             900.00     6000.00
01611             900.00     6080.00
01612             900.00     6080.00
01613             900.00     6160.00
01614             900.00     6160.00
01615             920.00     6240.00
01616             920.00     6240.00
01617             940.00     6320.00
01618             940.00     6320.00
01619             940.00     6320.00
01620             920.00     6400.00
01621             940.00     6400.00
01622             940.00     6400.00
01623             940.00     6400.00
01624             940.00     6560.00
01625             940.00     6480.00
01626             960.00     6560.00
01627             940.00     6560.00
01628             980.00     6560.00
01629             980.00     6560.00
01630             980.00     6640.00
01631             980.00     6560.00
01632            1000.00     6640.00
01633             980.00     6720.00
01634            1000.00     6720.00
01635            1000.00     6720.00
01636            1000.00     6720.00
01637            1000.00     6800.00
01638            1000.00     6880.00
01639            1000.00     6880.00
01640            1020.00     6800.00
01641            1020.00     6880.00
01642            1020.00     6880.00
01643            1020.00     6880.00
01644            1020.00     6880.00
01645            1040.00     6960.00
01646            1040.00     6960.00
01647            1040.00     6960.00
01648            1060.00     6960.00
01649            1060.00     7040.00
01650            1060.00     7120.00
01651            1060.00     7040.00
01652            1060.00     7040.00
01653            1080.00     7040.00
01654            1060.00     7120.00
01655            1060.00     7200.00
01656            1080.00     7200.00
01657            1080.00     7200.00
01658            1080.00     7200.00
01659            1080.00     7280.00
01660            1080.00     7280.00
01661            1100.00     7280.00
01662            1100.00     7280.00
01663            1100.00     7280.00
01664            1100.00     7280.00
01665            1100.00     7280.00
01666            1100.00     7360.00
01667            1100.00     7360.00
01668            1120.00     7360.00
01669            1140.00     7360.00
01670            1120.00     7360.00
01671            1140.00     7440.00
01672            1140.00     7360.00
01673            1140.00     7360.00
01674            1140.00     7520.00
01675            1140.00     7440.00
01676            1140.00     7520.00
01677            1140.00     7520.00
01678            1160.00     7520.00
01679            1140.00     7520.00
01680            1160.00     7520.00
01681            1140.00     7520.00
01682            1140.00     7600.00
01683            1160.00     7520.00
01684            1160.00     7600.00
01685            1160.00     7600.00
01686            1140.00     7600.00
01687            1160.00     7600.00
01688            1160.00     7600.00
01689            1160.00     7600.00
01690            1160.00     7680.00
01691            1160.00     7600.00
01692            1160.00     7600.00
01693            1160.00     7600.00
01694            1160.00     7680.00
01695            1160.00     7600.00
01696            1160.00     7680.00
01697            1160.00     7680.00
01698            1160.00     7680.00
01699            1160.00     7600.00
01700            1180.00     7680.00
01701            1160.00     7680.00
01702            1180.00     7680.00
01703            1180.00     7680.00
01704            1160.00     7680.00
01705            1180.00     7680.00
01706            1180.00     7680.00
01707            1180.00     7680.00
01708            1160.00     7680.00
01709            1180.00     7760.00
01710            1180.00     7680.00
01711            1180.00     7760.00
01712            1180.00     7760.00
01713            1180.00     7760.00
01714            1200.00     7760.00
01715            1200.00     7760.00
01716            1180.00     7760.00
01717            1200.00     7680.00
01718            1200.00     7760.00
01719            1200.00     7760.00
01720            1220.00     7840.00
01721            1180.00     7760.00
01722            1180.00     7760.00
01723            1180.00     7680.00
01724            1200.00     7680.00
01725            1200.00     7760.00
01726            1200.00     7760.00
01727            1220.00     7760.00
01728            1200.00     7680.00
01729            1200.00     7760.00
01730            1200.00     7680.00
01731            1180.00     7680.00
01732            1220.00     7680.00
01733            1200.00     7680.00
01734            1220.00     7680.00
01735            1200.00     7680.00
01736            1220.00     7680.00
01737            1200.00     7680.00
01738            1220.00     7680.00
01739            1220.00     7680.00
01740            1180.00     7680.00
01741            1220.00     7680.00
01742            1180.00     7600.00
01743            1200.00     7680.00
01744            1180.00     7600.00
01745            1200.00     7600.00
01746            1200.00     7600.00
01747            1180.00     7600.00
01748            1200.00     7600.00
01749            1200.00     7600.00
01750            1180.00     7600.00
01751            1180.00     7600.00
01752            1180.00     7600.00
01753            1180.00     7520.00
01754            1160.00     7600.00
01755            1160.00     7520.00
01756            1160.00     7520.00
01757            1160.00     7520.00
01758            1160.00     7520.00
01759            1160.00     7520.00
01760            1160.00     7520.00
01761            1160.00     7520.00
01762            1160.00     7520.00
01763            1160.00     7440.00
01764            1160.00     7440.00
01765            1160.00     7360.00
01766            1160.00     7440.00
01767            1160.00     7440.00
01768            1160.00     7360.00
01769            1160.00     7360.00
01770            1160.00     7360.00
01771            1160.00     7360.00
01772            1140.00     7360.00
01773            1140.00     7280.00
01774            1160.00     7280.00
01775            1140.00     7280.00
01776            1140.00     7280.00
01777            1140.00     7280.00
01778            1120.00     7200.00
01779            1140.00     7200.00
01780            1140.00     7200.00
01781            1140.00     7200.00
01782            1140.00     7120.00
01783            1140.00     7120.00
01784            1140.00     7120.00
01785            1100.00     7040.00
01786            1140.00     7040.00
01787            1100.00     7040.00
01788            1140.00     6960.00
01789            1140.00     6960.00
01790            1100.00     6960.00
01791            1100.00     6960.00
01792            1100.00     6960.00
01793            1100.00     6960.00
01794            1100.00     6880.00
01795            1100.00     6960.00
01796            1100.00     6880.00
01797            1080.00     6880.00
01798            1100.00     6800.00
01799            1080.00     6800.00
01800            1080.00     6800.00
01801            1080.00     6720.00
01802            1080.00     6720.00
01803            1080.00     6720.00
01804            1060.00     6640.00
01805            1080.00     6640.00
01806            1060.00     6640.00
01807            1060.00     6640.00
01808            1060.00     6560.00
01809            1060.00     6560.00
01810            1060.00     6560.00
01811            1060.00     6560.00
01812            1060.00     6480.00
01813            1040.00     6480.00
01814            1040.00     6480.00
01815            1020.00     6400.00
01816            1020.00     6400.00
01817            1020.00     6400.00
01818            1000.00     6320.00
01819            1000.00     6320.00
01820            1000.00     6320.00
01821            1000.00     6240.00
01822            1000.00     6240.00
01823            1000.00     6240.00
01824             980.00     6080.00
01825            1000.00     6080.00
01826             980.00     6080.00
01827             980.00     6080.00
01828             980.00     6000.00
01829             980.00     6000.00
01830             980.00     6000.00
01831             980.00     5920.00
01832             940.00     5920.00
01833             940.00     5920.00
01834             940.00     5920.00
01835             940.00     5760.00
01836             940.00     5840.00
01837             940.00     5760.00
01838             920.00     5680.00
01839             920.00     5680.00
01840             920.00     5760.00
01841             900.00     5600.00
01842             920.00     5600.00
01843             900.00     5600.00
01844             900.00     5520.00
01845             900.00     5600.00
01846             900.00     5440.00
01847             900.00     5440.00
01848             900.00     5440.00
01849             900.00     5360.00
01850             900.00     5280.00
01851             840.00     5360.00
01852             860.00     5280.00
01853             840.00     5280.00
01854             840.00     5200.00
01855             860.00     5200.00
01856             840.00     5120.00
01857             840.00     5120.00
01858             840.00     5040.00
01859             840.00     5040.00
01860             840.00     4960.00
01861             820.00     4960.00
01862             820.00     4960.00
01863             820.00     4880.00
01864             820.00     4880.00
01865             800.00     4800.00
01866             820.00     4800.00
01867             780.00     4720.00
01868             780.00     4720.00
01869             780.00     4640.00
01870             780.00     4640.00
01871             760.00     4560.00
01872             760.00     4560.00
01873             760.00     4480.00
01874             760.00     4400.00
01875             740.00     4400.00
01876             740.00     4400.00
01877             760.00     4320.00
01878             740.00     4320.00
01879             700.00     4320.00
01880             740.00     4240.00
01881             700.00     4240.00
01882             700.00     4160.00
01883             680.00     4080.00
01884             680.00     4080.00
01885             680.00     4000.00
01886             680.00     4000.00
01887             660.00     4000.00
01888             660.00     3920.00
01889             660.00     3840.00
01890             660.00     3840.00
01891             620.00     3760.00
01892             620.00     3760.00
01893             620.00     3680.00
01894             620.00     3680.00
01895             600.00     3600.00
01896             600.00     3600.00
01897             600.00     3520.00
01898             580.00     3520.00
01899             580.00     3440.00
01900             580.00     3440.00
01901             580.00     3360.00
01902             580.00     3360.00
01903             580.00     3360.00
01904             560.00     3280.00
01905             540.00     3200.00
01906             540.00     3120.00
01907             540.00     3120.00
01908             520.00     3040.00
01909             520.00     3040.00
01910             520.00     2960.00
01911             520.00     2880.00
01912             520.00     2880.00
01913             500.00     2880.00
01914             500.00     2800.00
01915             500.00     2800.00
01916             500.00     2720.00
01917             480.00     2720.00
01918             460.00     2640.00
01919             460.00     2560.00
01920             440.00     2560.00
01921             440.00     2560.00
01922             440.00     2480.00
01923             440.00     2480.00
01924             420.00     2400.00
01925             420.00     2240.00
01926             420.00     2240.00
01927             420.00     2240.00
01928             380.00     2240.00
01929             400.00     2160.00
01930             380.00     2080.00
01931             360.00     2080.00
01932             360.00     2000.00
01933             360.00     2080.00
01934             360.00     1920.00
01935             360.00     1840.00
01936             340.00     1840.00
01937             340.00     1760.00
01938             340.00     1760.00
01939             320.00     1680.00
01940             340.00     1600.00
01941             300.00     1600.00
01942             300.00     1600.00
01943             300.00     1520.00
01944             280.00     1440.00
01945             260.00     1440.00
01946             260.00     1280.00
01947             260.00     1280.00
01948             260.00     1280.00
01949             260.00     1200.00
01950             220.00     1200.00
01951             240.00     1120.00
01952             220.00     1040.00
01953             200.00     1040.00
01954             200.00      960.00
01955             200.00      960.00
01956             200.00      880.00
01957             180.00      800.00
01958             180.00      800.00
01959             180.00      800.00
01960             180.00      720.00
01961             160.00      720.00
01962             140.00      640.00
01963             140.00      560.00
01964             140.00      560.00
01965             120.00      480.00
01966             120.00      400.00
01967             120.00      320.00
01968             100.00      320.00
01969             120.00      320.00
01970             100.00      240.00
01971             100.00      240.00
01972              80.00      160.00
01973              80.00       80.00
01974             100.00        0.00
01975              60.00        0.00
01976              60.00        0.00
01977              40.00      -80.00
01978              40.00      -80.00
01979              40.00     -160.00
01980              40.00     -240.00
01981             -20.00     -320.00
01982              20.00     -320.00
01983              20.00     -320.00
01984               0.00     -400.00
01985               0.00     -480.00
01986              20.00     -480.00
01987             -20.00     -640.00
01988             -40.00     -720.00
01989             -60.00     -800.00
01990             -40.00     -720.00
01991              20.00     -640.00
01992             -60.00     -880.00
01993            -100.00     -960.00
01994             -60.00     -800.00
01995             -60.00     -960.00
01996            -120.00    -1120.00
01997            -100.00     -960.00
01998             -80.00    -1040.00
01999            -140.00    -1200.00
02000            -120.00    -1120.00
02001            -100.00    -1280.00
02002            -140.00    -1360.00
02003            -140.00    -1280.00
02004            -140.00    -1360.00
02005            -140.00    -1440.00
02006            -180.00    -1440.00
02007            -180.00    -1440.00
02008            -180.00    -1600.00
02009            -200.00    -1600.00
02010            -200.00    -1680.00
02011            -220.00    -1680.00
02012            -220.00    -1680.00
02013            -220.00    -1760.00
02014            -220.00    -1840.00
02015            -240.00    -1920.00
02016            -260.00    -1840.00
02017            -260.00    -2000.00
02018            -280.00    -2000.00
02019            -260.00    -2000.00
02020            -280.00    -2080.00
02021            -280.00    -2080.00
02022            -280.00    -2240.00
02023            -280.00    -2320.00
02024            -300.00    -2320.00
02025            -300.00    -2400.00
02026            -300.00    -2400.00
02027            -340.00    -2400.00
02028            -340.00    -2480.00
02029            -340.00    -2560.00
02030            -360.00    -2560.00
02031            -340.00    -2640.00
02032            -360.00    -2640.00
02033            -360.00    -2720.00
02034            -380.00    -2720.00
02035            -380.00    -2800.00
02036            -380.00    -2880.00
02037            -420.00    -2880.00
02038            -380.00    -2960.00
02039            -420.00    -2960.00
02040            -420.00    -2960.00
02041            -440.00    -3040.00
02042            -440.00    -3040.00
02043            -420.00    -3200.00
02044            -440.00    -3200.00
02045            -440.00    -3280.00
02046            -460.00    -3200.00
02047            -460.00    -3360.00
02048            -460.00    -3360.00
02049            -460.00    -3360.00
02050            -500.00    -3440.00
02051            -480.00    -3520.00
02052            -480.00    -3520.00
02053            -500.00    -3600.00
02054            -500.00    -3600.00
02055            -500.00    -3680.00
02056            -520.00    -3680.00
02057            -540.00    -3760.00
02058            -540.00    -3840.00
02059            -540.00    -3840.00
02060            -540.00    -3920.00
02061            -540.00    -3920.00
02062            -540.00    -3920.00
02063            -580.00    -4000.00
02064            -580.00    -4000.00
02065            -600.00    -4080.00
02066            -580.00    -4160.00
02067            -600.00    -4160.00
02068            -600.00    -4160.00
02069            -600.00    -4240.00
02070            -600.00    -4240.00
02071            -620.00    -4320.00
02072            -620.00    -4320.00
02073            -620.00    -4320.00
02074            -640.00    -4400.00
02075            -660.00    -4480.00
02076            -660.00    -4480.00
02077            -680.00    -4560.00
02078            -660.00    -4640.00
02079            -680.00    -4560.00
02080            -680.00    -4640.00
02081            -680.00    -4720.00
02082            -700.00    -4800.00
02083            -700.00    -4800.00
02084            -700.00    -4800.00
02085            -700.00    -4800.00
02086            -740.00    -4960.00
02087            -720.00    -4880.00
02088            -740.00    -4960.00
02089            -740.00    -5040.00
02090            -740.00    -4960.00
02091            -740.00    -5120.00
02092            -760.00    -5120.00
02093            -760.00    -5200.00
02094            -760.00    -5200.00
02095            -760.00    -5200.00
02096            -780.00    -5200.00
02097            -780.00    -5280.00
02098            -780.00    -5280.00
02099            -780.00    -5280.00
02100            -800.00    -5360.00
02101            -820.00    -5440.00
02102            -820.00    -5440.00
02103            -840.00    -5440.00
02104            -840.00    -5520.00
02105            -840.00    -5520.00
02106            -840.00    -5520.00
02107            -820.00    -5600.00
02108            -840.00    -5600.00
02109            -860.00    -5680.00
02110            -860.00    -5760.00
02111            -840.00    -5760.00
02112            -880.00    -5760.00
02113            -860.00    -5840.00
02114            -860.00    -5840.00
02115            -860.00    -5920.00
02116            -880.00    -5840.00
02117            -860.00    -5920.00
02118            -900.00    -5920.00
02119            -900.00    -6000.00
02120            -900.00    -6080.00
02121            -900.00    -6080.00
02122            -920.00    -6080.00
02123            -900.00    -6160.00
02124            -920.00    -6160.00
02125            -920.00    -6160.00
02126            -920.00    -6160.00
02127            -920.00    -6240.00
02128            -920.00    -6240.00
02129            -940.00    -6240.00
02130            -940.00    -6320.00
02131            -940.00    -6320.00
02132            -940.00    -6400.00
02133            -940.00    -6400.00
02134            -980.00    -6400.00
02135            -940.00    -6480.00
02136            -980.00    -6480.00
02137            -980.00    -6480.00
02138            -980.00    -6480.00
02139           -1000.00    -6560.00
02140           -1000.00    -6560.00
02141            -980.00    -6560.00
02142           -1000.00    -6560.00
02143           -1000.00    -6640.00
02144           -1020.00    -6720.00
02145           -1000.00    -6720.00
02146           -1020.00    -6720.00
02147           -1020.00    -6720.00
02148           -1020.00    -6720.00
02149           -1020.00    -6800.00
02150           -1020.00    -6880.00
02151           -1020.00    -6800.00
02152           -1020.00    -6800.00
02153           -1060.00    -6880.00
02154           -1060.00    -6880.00
02155           -1060.00    -6880.00
02156           -1060.00    -6880.00
02157           -1060.00    -6880.00
02158           -1060.00    -6960.00
02159           -1080.00    -6880.00
02160           -1060.00    -7040.00
02161           -1080.00    -7040.00
02162           -1080.00    -7040.00
02163           -1080.00    -7040.00
02164           -1080.00    -7040.00
02165           -1080.00    -7120.00
02166           -1100.00    -7120.00
02167           -1100.00    -7120.00
02168           -1100.00    -7120.00
02169           -1100.00    -7120.00
02170           -1100.00    -7200.00
02171           -1100.00    -7200.00
02172           -1100.00    -7280.00
02173           -1100.00    -7200.00
02174           -1100.00    -7280.00
02175           -1100.00    -7280.00
02176           -1100.00    -7280.00
02177           -1100.00    -7280.00
02178           -1120.00    -7360.00
02179           -1140.00    -7360.00
02180           -1100.00    -7360.00
02181           -1140.00    -7360.00
02182           -1140.00    -7360.00
02183           -1140.00    -7440.00
02184           -1140.00    -7440.00
02185           -1160.00    -7440.00
02186           -1120.00    -7360.00
02187           -1140.00    -7360.00
02188           -1160.00    -7360.00
02189           -1140.00    -7520.00
02190           -1160.00    -7440.00
02191           -1160.00    -7520.00
02192           -1160.00    -7440.00
02193           -1160.00    -7520.00
02194           -1160.00    -7520.00
02195           -1160.00    -7520.00
02196           -1160.00    -7520.00
02197           -1160.00    -7520.00
02198           -1160.00    -7520.00
02199           -1160.00    -7520.00
02200           -1180.00    -7520.00
02201           -1160.00    -7520.00
02202           -1160.00    -7520.00
02203           -1160.00    -7520.00
02204           -1160.00    -7520.00
02205           -1160.00    -7520.00
02206           -1160.00    -7600.00
02207           -1180.00    -7520.00
02208           -1180.00    -7600.00
02209           -1180.00    -7600.00
02210           -1180.00    -7520.00
02211           -1180.00    -7600.00
02212           -1180.00    -7680.00
02213           -1180.00    -7600.00
02214           -1180.00    -7680.00
02215           -1200.00    -7680.00
02216           -1200.00    -7600.00
02217           -1180.00    -7600.00
02218           -1220.00    -7680.00
02219           -1220.00    -7680.00
02220           -1200.00    -7680.00
02221           -1220.00    -7680.00
02222           -1220.00    -7600.00
02223           -1180.00    -7680.00
02224           -1200.00    -7680.00
02225           -1200.00    -7760.00
02226           -1220.00    -7680.00
02227           -1200.00    -7680.00
02228           -1200.00    -7680.00
02229           -1220.00    -7680.00
02230           -1220.00    -7680.00
02231           -1200.00    -7680.00
02232           -1220.00    -7600.00
02233           -1180.00    -7680.00
02234           -1220.00    -7680.00
02235           -1220.00    -7680.00
02236           -1220.00    -7680.00
02237           -1200.00    -7680.00
02238           -1180.00    -7680.00
02239           -1180.00    -7680.00
02240           -1220.00    -7600.00
02241           -1200.00    -7600.00
02242           -1180.00    -7680.00
02243           -1200.00    -7600.00
02244           -1220.00    -7600.00
02245           -1200.00    -7600.00
02246           -1220.00    -7680.00
02247           -1180.00    -7520.00
02248           -1180.00    -7600.00
02249           -1180.00    -7520.00
02250           -1180.00    -7520.00
02251           -1200.00    -7520.00
02252           -1180.00    -7520.00
02253           -1200.00    -7520.00
02254           -1180.00    -7520.00
02255           -1180.00    -7520.00
02256           -1180.00    -7520.00
02257           -1180.00    -7520.00
02258           -1180.00    -7520.00
02259           -1180.00    -7520.00
02260           -1180.00    -7520.00
02261           -1180.00    -7440.00
02262           -1180.00    -7520.00
02263           -1160.00    -7440.00
02264           -1180.00    -7440.00
02265           -1180.00    -7440.00
02266           -1160.00    -7440.00
02267           -1180.00    -7440.00
02268           -1180.00    -7360.00
02269           -1160.00    -7360.00
02270           -1180.00    -7360.00
02271           -1180.00    -7360.00
02272           -1180.00    -7360.00
02273           -1180.00    -7360.00
02274           -1160.00    -7360.00
02275           -1160.00    -7360.00
02276           -1160.00    -7280.00
02277           -1180.00    -7360.00
02278           -1160.00    -7280.00
02279           -1160.00    -7360.00
02280           -1160.00    -7200.00
02281           -1160.00    -7200.00
02282           -1180.00    -7200.00
02283           -1160.00    -7200.00
02284           -1160.00    -7200.00
02285           -1160.00    -7120.00
02286           -1160.00    -7120.00
02287           -1160.00    -7120.00
02288           -1140.00    -7120.00
02289           -1140.00    -7040.00
02290           -1140.00    -7040.00
02291           -1160.00    -7040.00
02292           -1100.00    -7040.00
02293           -1160.00    -6960.00
02294           -1140.00    -6960.00
02295           -1140.00    -6960.00
02296           -1120.00    -6880.00
02297           -1140.00    -6960.00
02298           -1120.00    -6880.00
02299           -1100.00    -6880.00
02300           -1100.00    -6880.00
02301           -1100.00    -6800.00
02302           -1100.00    -6880.00
02303           -1100.00    -6800.00
02304           -1080.00    -6800.00
02305           -1100.00    -6720.00
02306           -1080.00    -6720.00
02307           -1080.00    -6720.00
02308           -1080.00    -6720.00
02309           -1080.00    -6640.00
02310           -1080.00    -6640.00
02311           -1080.00    -6720.00
02312           -1060.00    -6640.00
02313           -1080.00    -6640.00
02314           -1060.00    -6560.00
02315           -1060.00    -6560.00
02316           -1060.00    -6480.00
02317           -1060.00    -6480.00
02318           -1060.00    -6480.00
02319           -1020.00    -6480.00
02320           -1020.00    -6400.00
02321           -1040.00    -6400.00
02322           -1020.00    -6320.00
02323           -1020.00    -6320.00
02324           -1020.00    -6320.00
02325           -1020.00    -6240.00
02326           -1000.00    -6240.00
02327           -1020.00    -6240.00
02328           -1000.00    -6240.00
02329           -1020.00    -6240.00
02330           -1020.00    -6080.00
02331           -1020.00    -6160.00
02332           -1000.00    -6080.00
02333           -1000.00    -6080.00
02334            -980.00    -6080.00
02335            -980.00    -6000.00
02336            -980.00    -5920.00
02337            -980.00    -5920.00
02338            -980.00    -5840.00
02339            -980.00    -5920.00
02340            -980.00    -5840.00
02341            -940.00    -5760.00
02342            -960.00    -5760.00
02343            -940.00    -5760.00
02344            -960.00    -5760.00
02345            -940.00    -5680.00
02346            -940.00    -5680.00
02347            -920.00    -5600.00
02348            -940.00    -5520.00
02349            -920.00    -5520.00
02350            -920.00    -5520.00
02351            -920.00    -5520.00
02352            -900.00    -5440.00
02353            -920.00    -5440.00
02354            -920.00    -5440.00
02355            -900.00    -5360.00
02356            -900.00    -5280.00
02357            -880.00    -5280.00
02358            -880.00    -5280.00
02359            -880.00    -5280.00
02360            -860.00    -5200.00
02361            -860.00    -5200.00
02362            -860.00    -5120.00
02363            -860.00    -5120.00
02364            -860.00    -5040.00
02365            -840.00    -4960.00
02366            -840.00    -4960.00
02367            -840.00    -4960.00
02368            -840.00    -4880.00
02369            -820.00    -4880.00
02370            -820.00    -4880.00
02371            -820.00    -4800.00
02372            -820.00    -4800.00
02373            -820.00    -4720.00
02374            -800.00    -4640.00
02375            -780.00    -4640.00
02376            -780.00    -4560.00
02377            -780.00    -4560.00
02378            -780.00    -4560.00
02379            -760.00    -4400.00
02380            -760.00    -4400.00
02381            -760.00    -4480.00
02382            -740.00    -4320.00
02383            -740.00    -4320.00
02384            -740.00    -4320.00
02385            -740.00    -4240.00
02386            -720.00    -4240.00
02387            -700.00    -4160.00
02388            -700.00    -4160.00
02389            -700.00    -4160.00
02390            -700.00    -4000.00
02391            -700.00    -4000.00
02392            -700.00    -3920.00
02393            -680.00    -3920.00
02394            -680.00    -3840.00
02395            -680.00    -3840.00
02396            -680.00    -3840.00
02397            -660.00    -3840.00
02398            -660.00    -3680.00
02399            -620.00    -3680.00
02400            -660.00    -3600.00
02401            -620.00    -3600.00
02402            -620.00    -3600.00
02403            -600.00    -3520.00
02404            -600.00    -3520.00
02405            -620.00    -3440.00
02406            -600.00    -3360.00
02407            -600.00    -3360.00
02408            -600.00    -3360.00
02409            -600.00    -3280.00
02410            -580.00    -3280.00
02411            -580.00    -3200.00
02412            -580.00    -3120.00
02413            -580.00    -3120.00
02414            -540.00    -3120.00
02415            -540.00    -3040.00
02416            -540.00    -2960.00
02417            -540.00    -3040.00
02418            -520.00    -2880.00
02419            -540.00    -2880.00
02420            -520.00    -2800.00
02421            -520.00    -2800.00
02422            -500.00    -2720.00
02423            -500.00    -2640.00
02424            -500.00    -2640.00
02425            -500.00    -2560.00
02426            -460.00    -2640.00
02427            -480.00    -2560.00
02428            -460.00    -2480.00
02429            -440.00    -2400.00
02430            -440.00    -2400.00
02431            -440.00    -2320.00
02432            -440.00    -2320.00
02433            -420.00    -2240.00
02434            -420.00    -2240.00
02435            -420.00    -2080.00
02436            -380.00    -2080.00
02437            -400.00    -2080.00
02438            -380.00    -2000.00
02439            -380.00    -2000.00
02440            -380.00    -1920.00
02441            -380.00    -1840.00
02442            -360.00    -1840.00
02443            -360.00    -1760.00
02444            -360.00    -1760.00
02445            -360.00    -1680.00
02446            -320.00    -1600.00
02447            -340.00    -1600.00
02448            -320.00    -1600.00
02449            -300.00    -1520.00
02450            -300.00    -1440.00
02451            -300.00    -1360.00
02452            -280.00    -1440.00
02453            -280.00    -1360.00
02454            -280.00    -1280.00
02455            -280.00    -1280.00
02456            -260.00    -1200.00
02457            -260.00    -1200.00
02458            -260.00    -1040.00
02459            -260.00    -1040.00
02460            -220.00    -1040.00
02461            -220.00     -960.00
02462            -220.00     -960.00
02463            -220.00     -880.00
02464            -200.00     -880.00
02465            -200.00     -800.00
02466            -200.00     -720.00
02467            -200.00     -640.00
02468            -180.00     -640.00
02469            -180.00     -640.00
02470            -180.00     -480.00
02471            -180.00     -480.00
02472            -140.00     -400.00
02473            -140.00     -400.00
02474            -140.00     -320.00
02475            -120.00     -320.00
02476            -140.00     -240.00
02477            -120.00     -160.00
02478            -120.00     -160.00
02479            -120.00     -160.00
02480            -100.00      -80.00
02481             -60.00        0.00
02482            -100.00        0.00
02483             -60.00       80.00
02484             -60.00       80.00
02485             -60.00      160.00
02486             -60.00      240.00
02487             -60.00      240.00
02488             -40.00      240.00
02489             -40.00      320.00
02490             -20.00      400.00
02491             -20.00      400.00
02492             -20.00      480.00
02493              20.00      560.00
02494              20.00      720.00
02495               0.00      640.00
02496             -20.00      560.00
02497              40.00      800.00
02498             100.00      960.00
02499              40.00      800.00
02500              20.00      720.00
02501              60.00     1040.00
02502              80.00      960.00
02503              40.00      880.00
02504             100.00     1120.00
02505             120.00     1200.00
02506             100.00     1120.00
02507             100.00     1200.00
02508             140.00     1360.00
02509             120.00     1280.00
02510             120.00     1280.00
02511             180.00     1440.00
02512             160.00     1440.00
02513             140.00     1440.00
02514             180.00     1520.00
02515             180.00     1520.00
02516             200.00     1600.00
02517             200.00     1680.00
02518             200.00     1760.00
02519             200.00     1760.00
02520             220.00     1840.00
02521             200.00     1840.00
02522             220.00     1920.00
02523             220.00     2000.00
02524             260.00     1920.00
02525             240.00     2080.00
02526             260.00     2240.00
02527             260.00     2160.00
02528             280.00     2160.00
02529             260.00     2240.00
02530             260.00     2320.00
02531             280.00     2400.00
02532             280.00     2320.00
02533             300.00     2400.00
02534             300.00     2480.00
02535             300.00     2480.00
02536             340.00     2560.00
02537             340.00     2640.00
02538             340.00     2640.00
02539             340.00     2720.00
02540             360.00     2720.00
02541             340.00     2800.00
02542             360.00     2880.00
02543             360.00     2880.00
02544             380.00     2880.00
02545             380.00     2960.00
02546             360.00     3040.00
02547             380.00     3040.00
02548             420.00     3120.00
02549             420.00     3280.00
02550             420.00     3200.00
02551             420.00     3280.00
02552             420.00     3280.00
02553             420.00     3360.00
02554             440.00     3360.00
02555             460.00     3440.00
02556             460.00     3440.00
02557             440.00     3520.00
02558             460.00     3520.00
02559             460.00     3520.00
02560             500.00     3680.00
02561             480.00     3680.00
02562             520.00     3680.00
02563             500.00     3760.00
02564             520.00     3760.00
02565             520.00     3840.00
02566             540.00     3840.00
02567             540.00     3920.00
02568             560.00     3920.00
02569             540.00     4000.00
02570             540.00     4000.00
02571             560.00     4080.00
02572             580.00     4160.00
02573             580.00     4160.00
02574             600.00     4160.00
02575             600.00     4160.00
02576             620.00     4320.00
02577             600.00     4320.00
02578             620.00     4400.00
02579             600.00     4400.00
02580             620.00     4400.00
02581             640.00     4480.00
02582             640.00     4480.00
02583             660.00     4560.00
02584             660.00     4560.00
02585             660.00     4720.00
02586             660.00     4720.00
02587             680.00     4720.00
02588             660.00     4800.00
02589             680.00     4720.00
02590             680.00     4800.00
02591             700.00     4880.00
02592             700.00     4960.00
02593             700.00     4960.00
02594             700.00     4960.00
02595             720.00     5040.00
02596             740.00     5040.00
02597             740.00     5040.00
02598             740.00     5120.00
02599             740.00     5120.00
02600             740.00     5120.00
02601             740.00     5200.00
02602             760.00     5280.00
02603             740.00     5280.00
02604             760.00     5360.00
02605             780.00     5360.00
02606             760.00     5360.00
02607             760.00     5440.00
02608             780.00     5440.00
02609             780.00     5520.00
02610             820.00     5520.00
02611             780.00     5600.00
02612             820.00     5600.00
02613             820.00     5680.00
02614             820.00     5680.00
02615             820.00     5680.00
02616             840.00     5840.00
02617             820.00     5760.00
02618             840.00     5840.00
02619             840.00     5920.00
02620             860.00     5920.00
02621             860.00     5920.00
02622             860.00     5920.00
02623             860.00     6000.00
02624             880.00     6000.00
02625             860.00     6000.00
02626             860.00     6000.00
02627             900.00     6080.00
02628             900.00     6080.00
02629             900.00     6080.00
02630             900.00     6160.00
02631             920.00     6240.00
02632             920.00     6240.00
02633             920.00     6240.00
02634             900.00     6320.00
02635             940.00     6320.00
02636             940.00     6320.00
02637             940.00     6400.00
02638             940.00     6400.00
02639             940.00     6400.00
02640             940.00     6400.00
02641             980.00     6480.00
02642             980.00     6560.00
02643             980.00     6560.00
02644             980.00     6560.00
02645             980.00     6560.00
02646             980.00     6640.00
02647             980.00     6640.00
02648             980.00     6640.00
02649            1000.00     6640.00
02650            1000.00     6720.00
02651            1000.00     6720.00
02652            1000.00     6720.00
02653            1000.00     6720.00
02654            1020.00     6800.00
02655            1020.00     6880.00
02656            1020.00     6880.00
02657            1040.00     6880.00
02658            1020.00     6880.00
02659            1020.00     6960.00
02660            1040.00     6880.00
02661            1060.00     6960.00
02662            1040.00     6960.00
02663            1060.00     6960.00
02664            1060.00     7040.00
02665            1060.00     7040.00
02666            1060.00     7040.00
02667            1060.00     7040.00
02668            1060.00     7040.00
02669            1060.00     7120.00
02670            1060.00     7120.00
02671            1080.00     7120.00
02672            1080.00     7200.00
02673            1080.00     7200.00
02674            1080.00     7200.00
02675            1080.00     7200.00
02676            1080.00     7200.00
02677            1080.00     7280.00
02678            1080.00     7200.00
02679            1080.00     7280.00
02680            1100.00     7280.00
02681            1080.00     7360.00
02682            1100.00     7360.00
02683            1100.00     7360.00
02684            1100.00     7360.00
02685            1100.00     7360.00
02686            1100.00     7360.00
02687            1100.00     7360.00
02688            1140.00     7440.00
02689            1120.00     7440.00
02690            1140.00     7440.00
02691            1140.00     7440.00
02692            1140.00     7440.00
02693            1140.00     7520.00
02694            1160.00     7520.00
02695            1140.00     7520.00
02696            1140.00     7520.00
02697            1160.00     7520.00
02698            1140.00     7520.00
02699            1140.00     7600.00
02700            1160.00     7600.00
02701            1160.00     7600.00
02702            1160.00     7600.00
02703            1160.00     7600.00
02704            1160.00     7600.00
02705            1160.00     7520.00
02706            1180.00     7600.00
02707            1160.00     7680.00
02708            1160.00     7600.00
02709            1180.00     7600.00
02710            1160.00     7680.00
02711            1180.00     7680.00
02712            1160.00     7680.00
02713            1180.00     7600.00
02714            1180.00     7680.00
02715            1180.00     7680.00
02716            1180.00     7680.00
02717            1180.00     7680.00
02718            1220.00     7680.00
02719            1180.00     7680.00
02720            1180.00     7680.00
02721            1180.00     7680.00
02722            1180.00     7680.00
02723            1220.00     7680.00
02724            1180.00     7760.00
02725            1180.00     7680.00
02726            1180.00     7680.00
02727            1180.00     7680.00
02728            1220.00     7760.00
02729            1180.00     7680.00
02730            1180.00     7680.00
02731            1200.00     7680.00
02732            1200.00     7760.00
02733            1180.00     7760.00
02734            1180.00     7680.00
02735            1200.00     7680.00
02736            1220.00     7760.00
02737            1180.00     7680.00
02738            1180.00     7680.00
02739            1180.00     7680.00
02740            1220.00     7760.00
02741            1180.00     7680.00
02742            1180.00     7760.00
02743            1200.00     7680.00
02744            1180.00     7680.00
02745            1180.00     7680.00
02746            1180.00     7680.00
02747            1220.00     7680.00
02748            1220.00     7680.00
02749            1200.00     7680.00
02750            1200.00     7680.00
02751            1180.00     7680.00
02752            1180.00     7680.00
02753            1180.00     7680.00
02754            1180.00     7680.00
02755            1200.00     7680.00
02756            1180.00     7680.00
02757            1180.00     7680.00
02758            1200.00     7680.00
02759            1180.00     7680.00
02760            1180.00     7600.00
02761            1180.00     7680.00
02762            1180.00     7600.00
02763            1180.00     7600.00
02764            1160.00     7600.00
02765            1180.00     7600.00
02766            1180.00     7600.00
02767            1180.00     7600.00
02768            1180.00     7600.00
02769            1180.00     7600.00
02770            1180.00     7600.00
02771            1180.00     7520.00
02772            1160.00     7520.00
02773            1160.00     7520.00
02774            1180.00     7520.00
02775            1180.00     7520.00
02776            1160.00     7520.00
02777            1180.00     7520.00
02778            1160.00     7520.00
02779            1180.00     7520.00
02780            1180.00     7440.00
02781            1160.00     7440.00
02782            1180.00     7440.00
02783            1160.00     7360.00
02784            1160.00     7360.00
02785            1180.00     7360.00
02786            1160.00     7360.00
02787            1180.00     7360.00
02788            1160.00     7360.00
02789            1160.00     7280.00
02790            1160.00     7280.00
02791            1160.00     7280.00
02792            1160.00     7280.00
02793            1160.00     7280.00
02794            1140.00     7200.00
02795            1140.00     7200.00
02796            1140.00     7200.00
02797            1140.00     7200.00
02798            1140.00     7200.00
02799            1100.00     7120.00
02800            1120.00     7040.00
02801            1120.00     7040.00
02802            1100.00     7040.00
02803            1100.00     7040.00
02804            1100.00     7040.00
02805            1140.00     7040.00
02806            1100.00     6960.00
02807            1100.00     6960.00
02808            1080.00     6960.00
02809            1080.00     6960.00
02810            1080.00     6960.00
02811            1080.00     6880.00
02812            1080.00     6880.00
02813            1080.00     6880.00
02814            1080.00     6800.00
02815            1060.00     6720.00
02816            1080.00     6720.00
02817            1060.00     6800.00
02818            1060.00     6720.00
02819            1060.00     6720.00
02820            1060.00     6720.00
02821            1060.00     6720.00
02822            1060.00     6640.00
02823            1060.00     6560.00
02824            1040.00     6640.00
02825            1060.00     6560.00
02826            1060.00     6560.00
02827            1020.00     6560.00
02828            1060.00     6560.00
02829            1060.00     6480.00
02830            1020.00     6400.00
02831            1020.00     6400.00
02832            1000.00     6400.00
02833            1020.00     6400.00
02834            1020.00     6400.00
02835            1000.00     6400.00
02836            1000.00     6320.00
02837            1020.00     6240.00
02838            1000.00     6240.00
02839            1000.00     6160.00
02840            1000.00     6080.00
02841             980.00     6160.00
02842            1000.00     6080.00
02843             980.00     6080.00
02844             980.00     6000.00
02845            1000.00     6080.00
02846             980.00     6000.00
02847             980.00     5920.00
02848             980.00     5920.00
02849             980.00     5920.00
02850             940.00     5920.00
02851             940.00     5840.00
02852             940.00     5840.00
02853             940.00     5840.00
02854             940.00     5680.00
02855             920.00     5760.00
02856             920.00     5680.00
02857             900.00     5680.00
02858             920.00     5600.00
02859             900.00     5600.00
02860             900.00     5520.00
02861             900.00     5520.00
02862             900.00     5440.00
02863             900.00     5440.00
02864             860.00     5440.00
02865             860.00     5360.00
02866             900.00     5360.00
02867             860.00     5360.00
02868             860.00     5280.00
02869             860.00     5280.00
02870             860.00     5200.00
02871             840.00     5120.00
02872             840.00     5120.00
02873             840.00     5120.00
02874             840.00     5040.00
02875             820.00     5040.00
02876             820.00     4960.00
02877             820.00     4960.00
02878             820.00     4960.00
02879             780.00     4880.00
02880             800.00     4800.00
02881             780.00     4800.00
02882             780.00     4800.00
02883             780.00     4720.00
02884             780.00     4720.00
02885             760.00     4640.00
02886             780.00     4640.00
02887             780.00     4560.00
02888             760.00     4560.00
02889             760.00     4480.00
02890             740.00     4400.00
02891             740.00     4480.00
02892             720.00     4320.00
02893             740.00     4320.00
02894             740.00     4320.00
02895             720.00     4320.00
02896             700.00     4160.00
02897             700.00     4160.00
02898             700.00     4160.00
02899             700.00     4160.00
02900             680.00     4160.00
02901             680.00     4000.00
02902             680.00     4000.00
02903             680.00     4000.00
02904             680.00     3840.00
02905             680.00     3840.00
02906             660.00     3840.00
02907             660.00     3760.00
02908             640.00     3760.00
02909             660.00     3680.00
02910             640.00     3680.00
02911             620.00     3680.00
02912             600.00     3520.00
02913             600.00     3520.00
02914             600.00     3520.00
02915             580.00     3360.00
02916             580.00     3440.00
02917             580.00     3360.00
02918             580.00     3360.00
02919             580.00     3360.00
02920             580.00     3280.00
02921             580.00     3200.00
02922             560.00     3120.00
02923             560.00     3040.00
02924             520.00     3040.00
02925             520.00     3040.00
02926             520.00     3040.00
02927             520.00     2880.00
02928             520.00     2880.00
02929             500.00     2880.00
02930             500.00     2800.00
02931             500.00     2720.00
02932             460.00     2720.00
02933             460.00     2720.00
02934             460.00     2560.00
02935             440.00     2640.00
02936             420.00     2560.00
02937             440.00     2480.00
02938             420.00     2480.00
02939             420.00     2400.00
02940             420.00     2400.00
02941             420.00     2240.00
02942             420.00     2320.00
02943             420.00     2240.00
02944             400.00     2160.00
02945             380.00     2080.00
02946             380.00     2080.00
02947             360.00     2080.00
02948             360.00     1920.00
02949             360.00     1920.00
02950             360.00     1920.00
02951             340.00     1840.00
02952             340.00     1840.00
02953             340.00     1760.00
02954             340.00     1680.00
02955             320.00     1760.00
02956             300.00     1600.00
02957             300.00     1600.00
02958             300.00     1600.00
02959             300.00     1520.00
02960             280.00     1440.00
02961             260.00     1440.00
02962             260.00     1280.00
02963             260.00     1360.00
02964             260.00     1280.00
02965             260.00     1200.00
02966             260.00     1200.00
02967             260.00     1120.00
02968             220.00     1040.00
02969             220.00     1120.00
02970             220.00      960.00
02971             200.00      960.00
02972             200.00      880.00
02973             200.00      800.00
02974             200.00      800.00
02975             180.00      800.00
02976             180.00      720.00
02977             180.00      720.00
02978             160.00      640.00
02979             160.00      560.00
02980             140.00      480.00
02981             120.00      480.00
02982             140.00      480.00
02983             120.00      320.00
02984             120.00      320.00
02985             120.00      320.00
02986             100.00      240.00
02987             100.00      160.00
02988             100.00      160.00
02989              80.00       80.00
02990              60.00        0.00
02991              60.00        0.00
02992              60.00        0.00
02993              40.00     -160.00
02994              40.00     -160.00
02995              20.00      -80.00
02996              20.00     -320.00
02997              20.00     -320.00
02998              20.00     -320.00
02999               0.00     -400.00
03000             -20.00     -400.00
03001               0.00     -400.00
03002               0.00     -400.00
03003             -40.00     -640.00
03004             -60.00     -800.00
03005             -80.00     -800.00
03006             -60.00     -640.00
03007             -20.00     -640.00
03008            -100.00     -880.00
03009            -120.00     -880.00
03010             -60.00     -800.00
03011             -60.00    -1040.00
03012            -120.00    -1040.00
03013            -100.00     -960.00
03014            -100.00    -1040.00
03015            -140.00    -1280.00
03016            -120.00    -1120.00
03017            -100.00    -1280.00
03018            -180.00    -1280.00
03019            -140.00    -1280.00
03020            -120.00    -1360.00
03021            -180.00    -1440.00
03022            -180.00    -1440.00
03023            -180.00    -1440.00
03024            -200.00    -1600.00
03025            -200.00    -1600.00
03026            -200.00    -1680.00
03027            -220.00    -1760.00
03028            -220.00    -1760.00
03029            -200.00    -1760.00
03030            -220.00    -1920.00
03031            -220.00    -1840.00
03032            -220.00    -1920.00
03033            -240.00    -2000.00
03034            -260.00    -2000.00
03035            -260.00    -2000.00
03036            -280.00    -2080.00
03037            -280.00    -2160.00
03038            -280.00    -2240.00
03039            -280.00    -2240.00
03040            -300.00    -2320.00
03041            -300.00    -2400.00
03042            -300.00    -2400.00
03043            -300.00    -2320.00
03044            -300.00    -2480.00
03045            -320.00    -2560.00
03046            -340.00    -2560.00
03047            -340.00    -2640.00
03048            -340.00    -2720.00
03049            -360.00    -2720.00
03050            -360.00    -2720.00
03051            -380.00    -2800.00
03052            -380.00    -2880.00
03053            -380.00    -2880.00
03054            -380.00    -2960.00
03055            -400.00    -2960.00
03056            -420.00    -3040.00
03057            -380.00    -3040.00
03058            -440.00    -3120.00
03059            -440.00    -3200.00
03060            -440.00    -3200.00
03061            -460.00    -3280.00
03062            -440.00    -3280.00
03063            -460.00    -3280.00
03064            -460.00    -3440.00
03065            -460.00    -3440.00
03066            -500.00    -3520.00
03067            -460.00    -3520.00
03068            -500.00    -3520.00
03069            -500.00    -3600.00
03070            -520.00    -3680.00
03071            -520.00    -3680.00
03072            -520.00    -3680.00
03073            -540.00    -3760.00
03074            -540.00    -3840.00
03075            -540.00    -3840.00
03076            -540.00    -3840.00
03077            -560.00    -3920.00
03078            -540.00    -4000.00
03079            -580.00    -4000.00
03080            -600.00    -4000.00
03081            -580.00    -4000.00
03082            -600.00    -4160.00
03083            -600.00    -4160.00
03084            -600.00    -4160.00
03085            -600.00    -4240.00
03086            -600.00    -4240.00
03087            -620.00    -4320.00
03088            -620.00    -4320.00
03089            -620.00    -4400.00
03090            -620.00    -4480.00
03091            -660.00    -4480.00
03092            -660.00    -4480.00
03093            -660.00    -4560.00
03094            -660.00    -4560.00
03095            -660.00    -4640.00
03096            -680.00    -4640.00
03097            -680.00    -4720.00
03098            -680.00    -4720.00
03099            -700.00    -4800.00
03100            -700.00    -4880.00
03101            -700.00    -4880.00
03102            -700.00    -4880.00
03103            -700.00    -4960.00
03104            -720.00    -4960.00
03105            -740.00    -5040.00
03106            -740.00    -4960.00
03107            -740.00    -5120.00
03108            -740.00    -5120.00
03109            -760.00    -5120.00
03110            -760.00    -5200.00
03111            -760.00    -5200.00
03112            -760.00    -5280.00
03113            -780.00    -5280.00
03114            -760.00    -5280.00
03115            -780.00    -5360.00
03116            -800.00    -5440.00
03117            -780.00    -5440.00
03118            -800.00    -5440.00
03119            -800.00    -5440.00
03120            -840.00    -5520.00
03121            -820.00    -5520.00
03122            -840.00    -5600.00
03123            -840.00    -5600.00
03124            -840.00    -5600.00
03125            -860.00    -5680.00
03126            -860.00    -5760.00
03127            -860.00    -5760.00
03128            -860.00    -5760.00
03129            -860.00    -5840.00
03130            -880.00    -5840.00
03131            -900.00    -5920.00
03132            -900.00    -5840.00
03133            -900.00    -5920.00
03134            -900.00    -5920.00
03135            -900.00    -6080.00
03136            -900.00    -6080.00
03137            -920.00    -6080.00
03138            -920.00    -6080.00
03139            -920.00    -6080.00
03140            -920.00    -6160.00
03141            -920.00    -6160.00
03142            -940.00    -6160.00
03143            -920.00    -6240.00
03144            -940.00    -6240.00
03145            -960.00    -6240.00
03146            -940.00    -6240.00
03147            -940.00    -6400.00
03148            -940.00    -6400.00
03149            -980.00    -6400.00
03150            -940.00    -6400.00
03151            -980.00    -6480.00
03152            -980.00    -6480.00
03153            -980.00    -6480.00
03154           -1000.00    -6480.00
03155           -1000.00    -6640.00
03156           -1000.00    -6560.00
03157           -1020.00    -6560.00
03158           -1000.00    -6560.00
03159           -1020.00    -6640.00
03160           -1000.00    -6720.00
03161           -1020.00    -6720.00
03162           -1020.00    -6720.00
03163           -1020.00    -6800.00
03164           -1020.00    -6800.00
03165           -1020.00    -6800.00
03166           -1020.00    -6800.00
03167           -1020.00    -6800.00
03168           -1020.00    -6800.00
03169           -1020.00    -6880.00
03170           -1060.00    -6880.00
03171           -1040.00    -6880.00
03172           -1060.00    -6960.00
03173           -1060.00    -6880.00
03174           -1060.00    -6880.00
03175           -1060.00    -6960.00
03176           -1060.00    -6960.00
03177           -1080.00    -6960.00
03178           -1080.00    -7040.00
03179           -1060.00    -7120.00
03180           -1080.00    -6960.00
03181           -1080.00    -7120.00
03182           -1080.00    -7040.00
03183           -1080.00    -7120.00
03184           -1100.00    -7200.00
03185           -1080.00    -7120.00
03186           -1100.00    -7200.00
03187           -1080.00    -7200.00
03188           -1100.00    -7200.00
03189           -1100.00    -7200.00
03190           -1100.00    -7200.00
03191           -1100.00    -7280.00
03192           -1100.00    -7360.00
03193           -1100.00    -7280.00
03194           -1140.00    -7280.00
03195           -1100.00    -7360.00
03196           -1140.00    -7360.00
03197           -1140.00    -7360.00
03198           -1140.00    -7360.00
03199           -1140.00    -7360.00
03200           -1140.00    -7440.00
03201           -1160.00    -7360.00
03202           -1140.00    -7440.00
03203           -1160.00    -7440.00
03204           -1140.00    -7440.00
03205           -1180.00    -7440.00
03206           -1160.00    -7440.00
03207           -1160.00    -7440.00
03208           -1160.00    -7520.00
03209           -1160.00    -7520.00
03210           -1180.00    -7520.00
03211           -1160.00    -7520.00
03212           -1160.00    -7520.00
03213           -1180.00    -7520.00
03214           -1160.00    -7520.00
03215           -1180.00    -7600.00
03216           -1160.00    -7520.00
03217           -1180.00    -7520.00
03218           -1160.00    -7520.00
03219           -1180.00    -7520.00
03220           -1180.00    -7520.00
03221           -1160.00    -7600.00
03222           -1180.00    -7680.00
03223           -1180.00    -7600.00
03224           -1180.00    -7600.00
03225           -1180.00    -7600.00
03226           -1180.00    -7600.00
03227           -1180.00    -7600.00
03228           -1160.00    -7680.00
03229           -1180.00    -7680.00
03230           -1180.00    -7680.00
03231           -1180.00    -7680.00
03232           -1180.00    -7680.00
03233           -1180.00    -7680.00
03234           -1180.00    -7680.00
03235           -1180.00    -7680.00
03236           -1180.00    -7680.00
03237           -1180.00    -7680.00
03238           -1200.00    -7680.00
03239           -1180.00    -7680.00
03240           -1180.00    -7680.00
03241           -1180.00    -7680.00
03242           -1180.00    -7680.00
03243           -1180.00    -7680.00
03244           -1180.00    -7680.00
03245           -1180.00    -7680.00
03246           -1200.00    -7680.00
03247           -1180.00    -7680.00
03248           -1200.00    -7680.00
03249           -1180.00    -7680.00
03250           -1200.00    -7680.00
03251           -1180.00    -7680.00
03252           -1220.00    -7680.00
03253           -1180.00    -7600.00
03254           -1220.00    -7680.00
03255           -1180.00    -7680.00
03256           -1220.00    -7680.00
03257           -1220.00    -7600.00
03258           -1180.00    -7600.00
03259           -1220.00    -7680.00
03260           -1220.00    -7600.00
03261           -1220.00    -7680.00
03262           -1200.00    -7600.00
03263           -1220.00    -7600.00
03264           -1220.00    -7600.00
03265           -1220.00    -7520.00
03266           -1200.00    -7520.00
03267           -1200.00    -7520.00
03268           -1220.00    -7520.00
03269           -1200.00    -7520.00
03270           -1220.00    -7520.00
03271           -1180.00    -7520.00
03272           -1180.00    -7520.00
03273           -1180.00    -7520.00
03274           -1180.00    -7520.00
03275           -1180.00    -7520.00
03276           -1180.00    -7440.00
03277           -1180.00    -7440.00
03278           -1180.00    -7440.00
03279           -1180.00    -7440.00
03280           -1180.00    -7440.00
03281           -1180.00    -7440.00
03282           -1180.00    -7440.00
03283           -1180.00    -7440.00
03284           -1180.00    -7360.00
03285           -1160.00    -7360.00
03286           -1180.00    -7360.00
03287           -1180.00    -7360.00
03288           -1180.00    -7360.00
03289           -1160.00    -7360.00
03290           -1160.00    -7360.00
03291           -1160.00    -7360.00
03292           -1160.00    -7360.00
03293           -1160.00    -7200.00
03294           -1160.00    -7280.00
03295           -1160.00    -7280.00
03296           -1160.00    -7200.00
03297           -1140.00    -7200.00
03298           -1140.00    -7200.00
03299           -1160.00    -7200.00
03300           -1140.00    -7200.00
03301           -1140.00    -7200.00
03302           -1140.00    -7120.00
03303           -1140.00    -7120.00
03304           -1140.00    -7120.00
03305           -1140.00    -7120.00
03306           -1140.00    -6960.00
03307           -1140.00    -7120.00
03308           -1120.00    -6960.00
03309           -1140.00    -6960.00
03310           -1120.00    -6960.00
03311           -1120.00    -6880.00
03312           -1100.00    -6960.00
03313           -1100.00    -6880.00
03314           -1100.00    -6880.00
03315           -1120.00    -6880.00
03316           -1100.00    -6880.00
03317           -1100.00    -6880.00
03318           -1100.00    -6800.00
03319           -1100.00    -6800.00
03320           -1100.00    -6800.00
03321           -1100.00    -6800.00
03322           -1100.00    -6720.00
03323           -1100.00    -6720.00
03324           -1080.00    -6720.00
03325           -1080.00    -6720.00
03326           -1080.00    -6720.00
03327           -1080.00    -6560.00
03328           -1100.00    -6560.00
03329           -1080.00    -6640.00
03330           -1080.00    -6560.00
03331           -1080.00    -6560.00
03332           -1060.00    -6480.00
03333           -1080.00    -6480.00
03334           -1060.00    -6480.00
03335           -1060.00    -6480.00
03336           -1040.00    -6480.00
03337           -1020.00    -6400.00
03338           -1040.00    -6320.00
03339           -1020.00    -6320.00
03340           -1040.00    -6320.00
03341           -1020.00    -6240.00
03342           -1020.00    -6240.00
03343           -1020.00    -6240.00
03344           -1020.00    -6160.00
03345           -1020.00    -6240.00
03346           -1020.00    -6160.00
03347           -1020.00    -6080.00
03348            -980.00    -6080.00
03349           -1000.00    -6080.00
03350           -1000.00    -6080.00
03351           -1000.00    -5920.00
03352            -980.00    -5920.00
03353            -980.00    -5920.00
03354            -980.00    -5920.00
03355            -980.00    -5840.00
03356            -940.00    -5840.00
03357            -980.00    -5840.00
03358            -940.00    -5760.00
03359            -940.00    -5760.00
03360            -920.00    -5760.00
03361            -940.00    -5680.00
03362            -940.00    -5680.00
03363            -920.00    -5600.00
03364            -920.00    -5600.00
03365            -920.00    -5520.00
03366            -920.00    -5520.00
03367            -920.00    -5440.00
03368            -900.00    -5440.00
03369            -900.00    -5440.00
03370            -900.00    -5440.00
03371            -900.00    -5360.00
03372            -880.00    -5280.00
03373            -860.00    -5280.00
03374            -860.00    -5280.00
03375            -860.00    -5200.00
03376            -860.00    -5120.00
03377            -840.00    -5120.00
03378            -860.00    -5120.00
03379            -860.00    -5040.00
03380            -860.00    -5120.00
03381            -860.00    -5040.00
03382            -840.00    -4960.00
03383            -840.00    -4880.00
03384            -840.00    -4880.00
03385            -840.00    -4880.00
03386            -820.00    -4880.00
03387            -820.00    -4800.00
03388            -820.00    -4800.00
03389            -820.00    -4800.00
03390            -820.00    -4640.00
03391            -820.00    -4640.00
03392            -780.00    -4560.00
03393            -780.00    -4560.00
03394            -760.00    -4560.00
03395            -760.00    -4400.00
03396            -760.00    -4480.00
03397            -740.00    -4400.00
03398            -760.00    -4320.00
03399            -760.00    -4320.00
03400            -760.00    -4320.00
03401            -740.00    -4240.00
03402            -740.00    -4320.00
03403            -740.00    -4160.00
03404            -740.00    -4160.00
03405            -700.00    -4080.00
03406            -700.00    -4000.00
03407            -700.00    -4000.00
03408            -700.00    -4000.00
03409            -680.00    -3920.00
03410            -700.00    -3920.00
03411            -680.00    -3840.00
03412            -660.00    -3840.00
03413            -680.00    -3840.00
03414            -660.00    -3760.00
03415            -660.00    -3680.00
03416            -660.00    -3680.00
03417            -620.00    -3680.00
03418            -620.00    -3600.00
03419            -620.00    -3520.00
03420            -620.00    -3440.00
03421            -600.00    -3520.00
03422            -600.00    -3360.00
03423            -600.00    -3360.00
03424            -600.00    -3360.00
03425            -580.00    -3280.00
03426            -600.00    -3280.00
03427            -560.00    -3200.00
03428            -560.00    -3200.00
03429            -540.00    -3120.00
03430            -540.00    -3040.00
03431            -540.00    -3040.00
03432            -540.00    -2960.00
03433            -540.00    -2960.00
03434            -520.00    -2880.00
03435            -520.00    -2880.00
03436            -520.00    -2880.00
03437            -500.00    -2720.00
03438            -520.00    -2720.00
03439            -500.00    -2720.00
03440            -460.00    -2560.00
03441            -460.00    -2640.00
03442            -460.00    -2560.00
03443            -460.00    -2480.00
03444            -440.00    -2480.00
03445            -460.00    -2400.00
03446            -440.00    -2400.00
03447            -440.00    -2400.00
03448            -440.00    -2320.00
03449            -440.00    -2240.00
03450            -440.00    -2240.00
03451            -420.00    -2240.00
03452            -420.00    -2080.00
03453            -420.00    -2080.00
03454            -400.00    -2080.00
03455            -380.00    -2000.00
03456            -400.00    -1920.00
03457            -360.00    -1840.00
03458            -380.00    -1760.00
03459            -360.00    -1760.00
03460            -360.00    -1760.00
03461            -360.00    -1680.00
03462            -340.00    -1680.00
03463            -340.00    -1600.00
03464            -340.00    -1600.00
03465            -300.00    -1520.00
03466            -300.00    -1440.00
03467            -300.00    -1440.00
03468            -300.00    -1360.00
03469            -280.00    -1280.00
03470            -280.00    -1280.00
03471            -280.00    -1280.00
03472            -280.00    -1200.00
03473            -280.00    -1200.00
03474            -260.00    -1120.00
03475            -260.00    -1040.00
03476            -220.00    -1040.00
03477            -220.00     -960.00
03478            -220.00     -960.00
03479            -220.00     -880.00
03480            -200.00     -800.00
03481            -220.00     -800.00
03482            -200.00     -720.00
03483            -200.00     -720.00
03484            -200.00     -640.00
03485            -180.00     -640.00
03486            -180.00     -560.00
03487            -140.00     -560.00
03488            -140.00     -400.00
03489            -140.00     -400.00
03490            -140.00     -320.00
03491            -120.00     -320.00
03492            -120.00     -240.00
03493            -120.00     -240.00
03494            -120.00     -160.00
03495            -100.00      -80.00
03496            -100.00      -80.00
03497             -60.00      -80.00
03498            -100.00        0.00
03499             -60.00        0.00
03500             -60.00      160.00
03501             -40.00      160.00
03502             -60.00      240.00
03503             -40.00      240.00
03504             -40.00      320.00
03505             -20.00      320.00
03506             -20.00      480.00
03507             -20.00      480.00
03508              20.00      560.00
03509              20.00      640.00
03510              40.00      720.00
03511             -20.00      560.00
03512             -20.00      560.00
03513              20.00      800.00
03514              60.00      960.00
03515              40.00      800.00
03516              20.00      800.00
03517              60.00     1040.00
03518             100.00      960.00
03519              40.00      880.00
03520              60.00     1120.00
03521             120.00     1200.00
03522              60.00     1040.00
03523             100.00     1120.00
03524             140.00     1280.00
03525             120.00     1280.00
03526             120.00     1280.00
03527             140.00     1440.00
03528             120.00     1440.00
03529             120.00     1440.00
03530             160.00     1600.00
03531             140.00     1520.00
03532             180.00     1680.00
03533             180.00     1760.00
03534             180.00     1680.00
03535             200.00     1840.00
03536             220.00     1840.00
03537             200.00     1840.00
03538             200.00     1920.00
03539             240.00     1920.00
03540             240.00     1920.00
03541             260.00     2080.00
03542             260.00     2160.00
03543             240.00     2160.00
03544             260.00     2240.00
03545             260.00     2240.00
03546             260.00     2240.00
03547             280.00     2240.00
03548             280.00     2400.00
03549             300.00     2480.00
03550             300.00     2480.00
03551             300.00     2560.00
03552             300.00     2560.00
03553             340.00     2640.00
03554             340.00     2640.00
03555             360.00     2720.00
03556             340.00     2720.00
03557             360.00     2800.00
03558             360.00     2800.00
03559             360.00     2880.00
03560             380.00     2960.00
03561             380.00     2880.00
03562             380.00     3040.00
03563             420.00     3040.00
03564             400.00     3040.00
03565             420.00     3200.00
03566             420.00     3200.00
03567             420.00     3280.00
03568             440.00     3280.00
03569             440.00     3280.00
03570             460.00     3360.00
03571             440.00     3440.00
03572             460.00     3440.00
03573             460.00     3520.00
03574             500.00     3520.00
03575             500.00     3520.00
03576             500.00     3600.00
03577             520.00     3680.00
03578             500.00     3680.00
03579             520.00     3760.00
03580             520.00     3760.00
03581             520.00     3840.00
03582             540.00     3840.00
03583             540.00     3840.00
03584             520.00     4000.00
03585             540.00     4000.00
03586             560.00     4000.00
03587             580.00     4080.00
03588             580.00     4080.00
03589             580.00     4160.00
03590             580.00     4160.00
03591             580.00     4160.00
03592             580.00     4320.00
03593             600.00     4320.00
03594             600.00     4400.00
03595             600.00     4400.00
03596             600.00     4400.00
03597             620.00     4480.00
03598             620.00     4480.00
03599             640.00     4560.00
03600             660.00     4560.00
03601             660.00     4640.00
03602             660.00     4640.00
03603             680.00     4720.00
03604             680.00     4800.00
03605             680.00     4720.00
03606             680.00     4800.00
03607             680.00     4880.00
03608             680.00     4880.00
03609             700.00     4880.00
03610             720.00     5040.00
03611             740.00     4960.00
03612             720.00     5040.00
03613             740.00     5120.00
03614             740.00     5120.00
03615             760.00     5120.00
03616             760.00     5280.00
03617             740.00     5280.00
03618             760.00     5200.00
03619             760.00     5360.00
03620             780.00     5280.00
03621             780.00     5360.00
03622             780.00     5360.00
03623             780.00     5440.00
03624             780.00     5440.00
03625             820.00     5520.00
03626             820.00     5520.00
03627             820.00     5600.00
03628             820.00     5600.00
03629             820.00     5680.00
03630             820.00     5680.00
03631             840.00     5680.00
03632             840.00     5760.00
03633             840.00     5840.00
03634             860.00     5840.00
03635             860.00     5840.00
03636             860.00     5920.00
03637             860.00     5840.00
03638             860.00     5920.00
03639             880.00     5920.00
03640             860.00     6000.00
03641             900.00     6000.00
03642             880.00     6080.00
03643             900.00     6080.00
03644             900.00     6080.00
03645             900.00     6160.00
03646             900.00     6240.00
03647             900.00     6240.00
03648             900.00     6240.00
03649             920.00     6240.00
03650             920.00     6240.00
03651             920.00     6320.00
03652             920.00     6320.00
03653             940.00     6400.00
03654             940.00     6400.00
03655             940.00     6400.00
03656             940.00     6400.00
03657             940.00     6560.00
03658             960.00     6480.00
03659             960.00     6560.00
03660             980.00     6560.00
03661             940.00     6560.00
03662             980.00     6560.00
03663             980.00     6560.00
03664             980.00     6640.00
03665             980.00     6720.00
03666            1000.00     6720.00
03667            1000.00     6720.00
03668            1000.00     6720.00
03669            1000.00     6800.00
03670            1000.00     6800.00
03671            1000.00     6800.00
03672            1020.00     6880.00
03673            1020.00     6880.00
03674            1020.00     6880.00
03675            1020.00     6960.00
03676            1040.00     6960.00
03677            1040.00     6960.00
03678            1040.00     6960.00
03679            1060.00     6960.00
03680            1060.00     6960.00
03681            1060.00     7040.00
03682            1060.00     7040.00
03683            1060.00     7040.00
03684            1060.00     7040.00
03685            1080.00     7040.00
03686            1080.00     7120.00
03687            1060.00     7200.00
03688            1080.00     7120.00
03689            1080.00     7120.00
03690            1080.00     7200.00
03691            1080.00     7200.00
03692            1080.00     7200.00
03693            1100.00     7280.00
03694            1100.00     7200.00
03695            1080.00     7280.00
03696            1140.00     7280.00
03697            1100.00     7280.00
03698            1100.00     7360.00
03699            1100.00     7280.00
03700            1100.00     7360.00
03701            1140.00     7440.00
03702            1140.00     7360.00
03703            1120.00     7360.00
03704            1120.00     7360.00
03705            1140.00     7360.00
03706            1140.00     7440.00
03707            1140.00     7440.00
03708            1140.00     7520.00
03709            1140.00     7440.00
03710            1140.00     7520.00
03711            1140.00     7520.00
03712            1140.00     7600.00
03713            1140.00     7520.00
03714            1140.00     7520.00
03715            1140.00     7520.00
03716            1140.00     7600.00
03717            1160.00     7600.00
03718            1160.00     7600.00
03719            1160.00     7600.00
03720            1140.00     7600.00
03721            1160.00     7600.00
03722            1160.00     7680.00
03723            1160.00     7600.00
03724            1160.00     7680.00
03725            1160.00     7600.00
03726            1160.00     7680.00
03727            1140.00     7680.00
03728            1160.00     7680.00
03729            1160.00     7600.00
03730            1160.00     7600.00
03731            1160.00     7680.00
03732            1180.00     7680.00
03733            1160.00     7680.00
03734            1160.00     7680.00
03735            1180.00     7680.00
03736            1180.00     7760.00
03737            1180.00     7680.00
03738            1180.00     7680.00
03739            1180.00     7680.00
03740            1180.00     7680.00
03741            1200.00     7760.00
03742            1180.00     7680.00
03743            1180.00     7680.00
03744            1180.00     7680.00
03745            1180.00     7680.00
03746            1200.00     7760.00
03747            1180.00     7680.00
03748            1220.00     7680.00
03749            1220.00     7680.00
03750            1220.00     7680.00
03751            1180.00     7760.00
03752            1200.00     7680.00
03753            1200.00     7680.00
03754            1220.00     7680.00
03755            1180.00     7760.00
03756            1220.00     7680.00
03757            1220.00     7760.00
03758            1200.00     7680.00
03759            1220.00     7680.00
03760            1180.00     7760.00
03761            1220.00     7680.00
03762            1220.00     7680.00
03763            1220.00     7680.00
03764            1200.00     7680.00
03765            1220.00     7680.00
03766            1200.00     7680.00
03767            1220.00     7680.00
03768            1200.00     7680.00
03769            1200.00     7680.00
03770            1180.00     7680.00
03771            1200.00     7680.00
03772            1180.00     7600.00
03773            1180.00     7680.00
03774            1180.00     7680.00
03775            1200.00     7600.00
03776            1180.00     7600.00
03777            1180.00     7600.00
03778            1180.00     7600.00
03779            1220.00     7680.00
03780            1180.00     7600.00
03781            1180.00     7600.00
03782            1180.00     7600.00
03783            1180.00     7600.00
03784            1180.00     7600.00
03785            1180.00     7520.00
03786            1160.00     7520.00
03787            1160.00     7520.00
03788            1160.00     7520.00
03789            1180.00     7520.00
03790            1160.00     7520.00
03791            1160.00     7520.00
03792            1180.00     7520.00
03793            1160.00     7520.00
03794            1160.00     7440.00
03795            1160.00     7360.00
03796            1160.00     7440.00
03797            1160.00     7360.00
03798            1160.00     7440.00
03799            1160.00     7360.00
03800            1160.00     7360.00
03801            1160.00     7360.00
03802            1160.00     7360.00
03803            1160.00     7360.00
03804            1160.00     7360.00
03805            1160.00     7280.00
03806            1160.00     7280.00
03807            1140.00     7280.00
03808            1140.00     7200.00
03809            1140.00     7280.00
03810            1140.00     7200.00
03811            1140.00     7200.00
03812            1140.00     7200.00
03813            1160.00     7040.00
03814            1140.00     7120.00
03815            1140.00     7200.00
03816            1140.00     7120.00
03817            1120.00     7040.00
03818            1100.00     7040.00
03819            1120.00     7040.00
03820            1140.00     7040.00
03821            1120.00     6960.00
03822            1140.00     6960.00
03823            1100.00     6960.00
03824            1100.00     6960.00
03825            1080.00     6880.00
03826            1100.00     6960.00
03827            1080.00     6880.00
03828            1080.00     6880.00
03829            1100.00     6880.00
03830            1080.00     6880.00
03831            1080.00     6880.00
03832            1080.00     6720.00
03833            1080.00     6720.00
03834            1060.00     6720.00
03835            1080.00     6640.00
03836            1080.00     6720.00
03837            1060.00     6640.00
03838            1060.00     6640.00
03839            1080.00     6560.00
03840            1060.00     6560.00
03841            1060.00     6560.00
03842            1060.00     6560.00
03843            1060.00     6560.00
03844            1020.00     6480.00
03845            1020.00     6400.00
03846            1020.00     6400.00
03847            1020.00     6400.00
03848            1000.00     6400.00
03849            1000.00     6400.00
03850            1000.00     6320.00
03851            1000.00     6320.00
03852            1000.00     6240.00
03853            1000.00     6240.00
03854            1000.00     6240.00
03855             980.00     6160.00
03856             980.00     6080.00
03857             980.00     6080.00
03858             980.00     6080.00
03859             980.00     6000.00
03860             980.00     6000.00
03861             980.00     6000.00
03862             960.00     5920.00
03863             960.00     5920.00
03864             940.00     5920.00
03865             940.00     5920.00
03866             960.00     5840.00
03867             940.00     5760.00
03868             920.00     5840.00
03869             940.00     5760.00
03870             920.00     5760.00
03871             920.00     5680.00
03872             920.00     5680.00
03873             920.00     5600.00
03874             900.00     5600.00
03875             920.00     5600.00
03876             900.00     5600.00
03877             900.00     5520.00
03878             900.00     5440.00
03879             900.00     5440.00
03880             900.00     5440.00
03881             860.00     5360.00
03882             880.00     5280.00
03883             900.00     5280.00
03884             860.00     5280.00
03885             860.00     5280.00
03886             860.00     5200.00
03887             840.00     5120.00
03888             840.00     5120.00
03889             840.00     5040.00
03890             840.00     5040.00
03891             840.00     5040.00
03892             840.00     4960.00
03893             820.00     4960.00
03894             820.00     4880.00
03895             820.00     4880.00
03896             820.00     4880.00
03897             800.00     4800.00
03898             800.00     4720.00
03899             800.00     4720.00
03900             780.00     4720.00
03901             780.00     4640.00
03902             760.00     4640.00
03903             760.00     4560.00
03904             740.00     4480.00
03905             760.00     4480.00
03906             740.00     4480.00
03907             740.00     4400.00
03908             740.00     4400.00
03909             740.00     4320.00
03910             720.00     4320.00
03911             700.00     4240.00
03912             700.00     4160.00
03913             680.00     4160.00
03914             680.00     4160.00
03915             680.00     4080.00
03916             680.00     4080.00
03917             680.00     4000.00
03918             680.00     4000.00
03919             660.00     4000.00
03920             660.00     4000.00
03921             660.00     3840.00
03922             660.00     3840.00
03923             640.00     3760.00
03924             620.00     3760.00
03925             620.00     3680.00
03926             600.00     3680.00
03927             620.00     3680.00
03928             600.00     3680.00
03929             600.00     3520.00
03930             600.00     3520.00
03931             580.00     3440.00
03932             600.00     3360.00
03933             580.00     3440.00
03934             580.00     3360.00
03935             580.00     3360.00
03936             580.00     3280.00
03937             540.00     3200.00
03938             540.00     3120.00
03939             540.00     3120.00
03940             520.00     3040.00
03941             520.00     3040.00
03942             520.00     2960.00
03943             520.00     2960.00
03944             520.00     2880.00
03945             500.00     2880.00
03946             500.00     2800.00
03947             500.00     2800.00
03948             460.00     2720.00
03949             460.00     2640.00
03950             460.00     2560.00
03951             460.00     2560.00
03952             460.00     2480.00
03953             460.00     2480.00
03954             440.00     2400.00
03955             440.00     2400.00
03956             420.00     2400.00
03957             440.00     2320.00
03958             420.00     2240.00
03959             420.00     2160.00
03960             400.00     2240.00
03961             380.00     2080.00
03962             380.00     2160.00
03963             360.00     2000.00
03964             380.00     2080.00
03965             380.00     1920.00
03966             360.00     1920.00
03967             360.00     1840.00
03968             340.00     1840.00
03969             340.00     1760.00
03970             340.00     1760.00
03971             300.00     1600.00
03972             300.00     1600.00
03973             300.00     1600.00
03974             300.00     1520.00
03975             300.00     1520.00
03976             280.00     1440.00
03977             280.00     1360.00
03978             260.00     1280.00
03979             260.00     1280.00
03980             260.00     1280.00
03981             240.00     1200.00
03982             260.00     1200.00
03983             220.00     1120.00
03984             220.00     1120.00
03985             220.00     1120.00
03986             200.00      960.00
03987             200.00      960.00
03988             200.00      880.00
03989             200.00      880.00
03990             180.00      800.00
03991             180.00      800.00
03992             160.00      720.00
03993             160.00      640.00
03994             140.00      560.00
03995             140.00      720.00
03996             140.00      480.00
03997             140.00      480.00
03998             120.00      400.00
03999             120.00      400.00
04000             120.00      240.00
04001             120.00      240.00
04002             120.00      240.00
04003             100.00      160.00
04004             100.00      160.00
04005              80.00       80.00
04006              60.00       80.00
04007              60.00      -80.00
04008              60.00      -80.00
04009              40.00      -80.00
04010              40.00     -160.00
04011              20.00     -160.00
04012              40.00     -160.00
04013              20.00     -320.00
04014               0.00     -320.00
04015              20.00     -400.00
04016              20.00     -400.00
04017              20.00     -400.00
04018              20.00     -400.00
04019             -20.00     -640.00
04020             -40.00     -720.00
04021             -60.00     -800.00
04022             -40.00     -640.00
04023             -20.00     -640.00
04024             -80.00     -960.00
04025            -100.00     -880.00
04026             -60.00     -800.00
04027             -80.00     -960.00
04028            -100.00    -1040.00
04029            -100.00     -960.00
04030             -60.00    -1040.00
04031            -120.00    -1200.00
04032            -120.00    -1120.00
04033            -120.00    -1200.00
04034            -160.00    -1280.00
04035            -120.00    -1280.00
04036            -140.00    -1360.00
04037            -180.00    -1440.00
04038            -180.00    -1440.00
04039            -160.00    -1440.00
04040            -200.00    -1600.00
04041            -200.00    -1600.00
04042            -200.00    -1680.00
04043            -220.00    -1760.00
04044            -220.00    -1760.00
04045            -220.00    -1760.00
04046            -220.00    -1920.00
04047            -260.00    -1840.00
04048            -240.00    -1920.00
04049            -240.00    -1920.00
04050            -260.00    -2000.00
04051            -280.00    -2080.00
04052            -260.00    -2160.00
04053            -280.00    -2080.00
04054            -280.00    -2240.00
04055            -300.00    -2240.00
04056            -300.00    -2320.00
04057            -300.00    -2400.00
04058            -300.00    -2400.00
04059            -320.00    -2400.00
04060            -340.00    -2480.00
04061            -340.00    -2560.00
04062            -360.00    -2560.00
04063            -340.00    -2640.00
04064            -360.00    -2640.00
04065            -360.00    -2720.00
04066            -380.00    -2720.00
04067            -380.00    -2800.00
04068            -380.00    -2880.00
04069            -400.00    -2880.00
04070            -400.00    -2960.00
04071            -420.00    -2960.00
04072            -420.00    -3040.00
04073            -420.00    -3040.00
04074            -440.00    -3040.00
04075            -440.00    -3200.00
04076            -440.00    -3200.00
04077            -440.00    -3200.00
04078            -440.00    -3280.00
04079            -440.00    -3280.00
04080            -460.00    -3360.00
04081            -460.00    -3360.00
04082            -500.00    -3440.00
04083            -500.00    -3520.00
04084            -500.00    -3520.00
04085            -500.00    -3600.00
04086            -500.00    -3600.00
04087            -500.00    -3680.00
04088            -520.00    -3680.00
04089            -520.00    -3680.00
04090            -540.00    -3840.00
04091            -540.00    -3840.00
04092            -560.00    -3840.00
04093            -540.00    -3920.00
04094            -540.00    -3920.00
04095            -580.00    -4000.00
04096            -580.00    -4000.00
04097            -580.00    -4080.00
04098            -580.00    -4160.00
04099            -600.00    -4160.00
04100            -600.00    -4240.00
04101            -620.00    -4240.00
04102            -620.00    -4320.00
04103            -640.00    -4320.00
04104            -660.00    -4320.00
04105            -620.00    -4400.00
04106            -660.00    -4480.00
04107            -660.00    -4400.00
04108            -660.00    -4560.00
04109            -680.00    -4560.00
04110            -680.00    -4560.00
04111            -680.00    -4560.00
04112            -680.00    -4720.00
04113            -700.00    -4720.00
04114            -700.00    -4800.00
04115            -700.00    -4800.00
04116            -700.00    -4800.00
04117            -720.00    -4880.00
04118            -700.00    -4960.00
04119            -720.00    -4880.00
04120            -740.00    -4960.00
04121            -740.00    -4960.00
04122            -740.00    -4960.00
04123            -760.00    -5120.00
04124            -760.00    -5120.00
04125            -760.00    -5120.00
04126            -760.00    -5200.00
04127            -780.00    -5200.00
04128            -760.00    -5280.00
04129            -780.00    -5280.00
04130            -780.00    -5280.00
04131            -780.00    -5280.00
04132            -780.00    -5360.00
04133            -800.00    -5440.00
04134            -820.00    -5440.00
04135            -820.00    -5440.00
04136            -820.00    -5520.00
04137            -820.00    -5600.00
04138            -840.00    -5520.00
04139            -840.00    -5600.00
04140            -840.00    -5600.00
04141            -840.00    -5760.00
04142            -860.00    -5760.00
04143            -860.00    -5760.00
04144            -860.00    -5760.00
04145            -860.00    -5840.00
04146            -860.00    -5840.00
04147            -860.00    -5920.00
04148            -880.00    -5920.00
04149            -860.00    -5920.00
04150            -900.00    -5920.00
04151            -900.00    -6000.00
04152            -900.00    -6000.00
04153            -900.00    -6080.00
04154            -920.00    -6080.00
04155            -920.00    -6160.00
04156            -900.00    -6080.00
04157            -920.00    -6240.00
04158            -920.00    -6160.00
04159            -920.00    -6240.00
04160            -920.00    -6240.00
04161            -940.00    -6240.00
04162            -940.00    -6320.00
04163            -940.00    -6320.00
04164            -960.00    -6400.00
04165            -940.00    -6400.00
04166            -980.00    -6480.00
04167            -980.00    -6480.00
04168            -980.00    -6480.00
04169            -980.00    -6480.00
04170           -1000.00    -6560.00
04171           -1000.00    -6560.00
04172            -980.00    -6560.00
04173           -1000.00    -6560.00
04174           -1000.00    -6560.00
04175           -1020.00    -6720.00
04176           -1020.00    -6720.00
04177           -1000.00    -6720.00
04178           -1020.00    -6720.00
04179           -1020.00    -6800.00
04180           -1020.00    -6720.00
04181           -1020.00    -6800.00
04182           -1020.00    -6800.00
04183           -1020.00    -6800.00
04184           -1040.00    -6880.00
04185           -1040.00    -6800.00
04186           -1060.00    -6880.00
04187           -1060.00    -6880.00
04188           -1060.00    -6880.00
04189           -1060.00    -6960.00
04190           -1080.00    -7040.00
04191           -1060.00    -6880.00
04192           -1060.00    -7040.00
04193           -1060.00    -6960.00
04194           -1080.00    -7040.00
04195           -1080.00    -6960.00
04196           -1080.00    -7120.00
04197           -1080.00    -6960.00
04198           -1080.00    -7120.00
04199           -1100.00    -7120.00
04200           -1100.00    -7120.00
04201           -1100.00    -7120.00
04202           -1100.00    -7120.00
04203           -1100.00    -7200.00
04204           -1100.00    -7200.00
04205           -1080.00    -7200.00
04206           -1140.00    -7200.00
04207           -1100.00    -7280.00
04208           -1100.00    -7360.00
04209           -1100.00    -7360.00
04210           -1100.00    -7360.00
04211           -1100.00    -7360.00
04212           -1120.00    -7360.00
04213           -1120.00    -7360.00
04214           -1120.00    -7360.00
04215           -1140.00    -7360.00
04216           -1140.00    -7360.00
04217           -1140.00    -7440.00
04218           -1140.00    -7440.00
04219           -1140.00    -7440.00
04220           -1140.00    -7440.00
04221           -1160.00    -7440.00
04222           -1140.00    -7440.00
04223           -1160.00    -7440.00
04224           -1160.00    -7440.00
04225           -1160.00    -7520.00
04226           -1160.00    -7520.00
04227           -1160.00    -7520.00
04228           -1160.00    -7520.00
04229           -1160.00    -7520.00
04230           -1180.00    -7520.00
04231           -1160.00    -7520.00
04232           -1180.00    -7520.00
04233           -1180.00    -7520.00
04234           -1180.00    -7520.00
04235           -1180.00    -7520.00
04236           -1180.00    -7520.00
04237           -1180.00    -7520.00
04238           -1180.00    -7600.00
04239           -1180.00    -7600.00
04240           -1180.00    -7680.00
04241           -1180.00    -7600.00
04242           -1180.00    -7680.00
04243           -1180.00    -7600.00
04244           -1180.00    -7680.00
04245           -1180.00    -7680.00
04246           -1200.00    -7680.00
04247           -1180.00    -7600.00
04248           -1200.00    -7680.00
04249           -1180.00    -7680.00
04250           -1180.00    -7680.00
04251           -1200.00    -7680.00
04252           -1220.00    -7680.00
04253           -1180.00    -7680.00
04254           -1180.00    -7680.00
04255           -1180.00    -7680.00
04256           -1180.00    -7680.00
04257           -1220.00    -7680.00
04258           -1220.00    -7680.00
04259           -1200.00    -7680.00
04260           -1180.00    -7680.00
04261           -1180.00    -7680.00
04262           -1180.00    -7680.00
04263           -1220.00    -7680.00
04264           -1180.00    -7680.00
04265           -1180.00    -7680.00
04266           -1180.00    -7680.00
04267           -1180.00    -7680.00
04268           -1220.00    -7680.00
04269           -1180.00    -7600.00
04270           -1180.00    -7680.00
04271           -1180.00    -7680.00
04272           -1180.00    -7600.00
04273           -1180.00    -7600.00
04274           -1180.00    -7600.00
04275           -1180.00    -7600.00
04276           -1200.00    -7600.00
04277           -1220.00    -7600.00
04278           -1180.00    -7600.00
04279           -1180.00    -7600.00
04280           -1180.00    -7520.00
04281           -1180.00    -7520.00
04282           -1180.00    -7520.00
04283           -1200.00    -7600.00
04284           -1180.00    -7520.00
04285           -1180.00    -7520.00
04286           -1180.00    -7520.00
04287           -1180.00    -7520.00
04288           -1180.00    -7520.00
04289           -1180.00    -7520.00
04290           -1200.00    -7520.00
04291           -1180.00    -7440.00
04292           -1180.00    -7440.00
04293           -1180.00    -7520.00
04294           -1180.00    -7520.00
04295           -1180.00    -7440.00
04296           -1180.00    -7440.00
04297           -1180.00    -7440.00
04298           -1180.00    -7440.00
04299           -1180.00    -7360.00
04300           -1180.00    -7360.00
04301           -1180.00    -7440.00
04302           -1180.00    -7360.00
04303           -1180.00    -7360.00
04304           -1180.00    -7360.00
04305           -1160.00    -7360.00
04306           -1180.00    -7360.00
04307           -1160.00    -7360.00
04308           -1160.00    -7280.00
04309           -1160.00    -7280.00
04310           -1160.00    -7200.00
04311           -1160.00    -7200.00
04312           -1160.00    -7200.00
04313           -1140.00    -7200.00
04314           -1160.00    -7200.00
04315           -1160.00    -7200.00
04316           -1140.00    -7200.00
04317           -1140.00    -7120.00
04318           -1140.00    -7120.00
04319           -1160.00    -7120.00
04320           -1140.00    -7040.00
04321           -1140.00    -6960.00
04322           -1120.00    -7040.00
04323           -1100.00    -7040.00
04324           -1140.00    -7040.00
04325           -1100.00    -6960.00
04326           -1120.00    -7040.00
04327           -1120.00    -6960.00
04328           -1100.00    -6960.00
04329           -1140.00    -6880.00
04330           -1100.00    -6880.00
04331           -1100.00    -6880.00
04332           -1100.00    -6800.00
04333           -1100.00    -6800.00
04334           -1080.00    -6800.00
04335           -1080.00    -6800.00
04336           -1080.00    -6800.00
04337           -1080.00    -6800.00
04338           -1080.00    -6720.00
04339           -1080.00    -6720.00
04340           -1080.00    -6720.00
04341           -1080.00    -6640.00
04342           -1080.00    -6640.00
04343           -1080.00    -6560.00
04344           -1060.00    -6640.00
04345           -1060.00    -6560.00
04346           -1060.00    -6560.00
04347           -1020.00    -6560.00
04348           -1060.00    -6560.00
04349           -1060.00    -6480.00
04350           -1040.00    -6480.00
04351           -1040.00    -6400.00
04352           -1020.00    -6400.00
04353           -1020.00    -6400.00
04354           -1020.00    -6400.00
04355           -1020.00    -6320.00
04356           -1020.00    -6240.00
04357           -1020.00    -6240.00
04358           -1020.00    -6240.00
04359           -1020.00    -6240.00
04360           -1000.00    -6240.00
04361           -1020.00    -6160.00
04362           -1020.00    -6160.00
04363            -980.00    -6080.00
04364           -1020.00    -6080.00
04365            -980.00    -6080.00
04366           -1000.00    -5920.00
04367           -1000.00    -6000.00
04368            -980.00    -6000.00
04369            -980.00    -5920.00
04370            -980.00    -5920.00
04371            -980.00    -5920.00
04372            -980.00    -5840.00
04373            -960.00    -5840.00
04374            -980.00    -5760.00
04375            -940.00    -5760.00
04376            -940.00    -5760.00
04377            -960.00    -5680.00
04378            -940.00    -5680.00
04379            -940.00    -5680.00
04380            -920.00    -5520.00
04381            -920.00    -5600.00
04382            -920.00    -5520.00
04383            -920.00    -5440.00
04384            -920.00    -5440.00
04385            -920.00    -5440.00
04386            -920.00    -5360.00
04387            -900.00    -5360.00
04388            -900.00    -5280.00
04389            -860.00    -5280.00
04390            -860.00    -5280.00
04391            -880.00    -5200.00
04392            -860.00    -5200.00
04393            -860.00    -5120.00
04394            -860.00    -5120.00
04395            -860.00    -5120.00
04396            -840.00    -4960.00
04397            -860.00    -4960.00
04398            -840.00    -4960.00
04399            -840.00    -4960.00
04400            -840.00    -4880.00
04401            -820.00    -4880.00
04402            -820.00    -4800.00
04403            -820.00    -4800.00
04404            -820.00    -4800.00
04405            -780.00    -4720.00
04406            -780.00    -4720.00
04407            -780.00    -4640.00
04408            -780.00    -4560.00
04409            -780.00    -4560.00
04410            -780.00    -4480.00
04411            -760.00    -4480.00
04412            -760.00    -4400.00
04413            -760.00    -4400.00
04414            -740.00    -4400.00
04415            -740.00    -4320.00
04416            -740.00    -4320.00
04417            -740.00    -4240.00
04418            -720.00    -4240.00
04419            -720.00    -4160.00
04420            -700.00    -4160.00
04421            -700.00    -4160.00
04422            -700.00    -4000.00
04423            -680.00    -4000.00
04424            -680.00    -3920.00
04425            -680.00    -3920.00
04426            -680.00    -3920.00
04427            -680.00    -3840.00
04428            -680.00    -3840.00
04429            -680.00    -3760.00
04430            -660.00    -3680.00
04431            -680.00    -3680.00
04432            -620.00    -3680.00
04433            -660.00    -3600.00
04434            -660.00    -3600.00
04435            -620.00    -3520.00
04436            -620.00    -3520.00
04437            -620.00    -3440.00
04438            -600.00    -3360.00
04439            -600.00    -3360.00
04440            -600.00    -3280.00
04441            -580.00    -3280.00
04442            -600.00    -3200.00
04443            -580.00    -3200.00
04444            -580.00    -3200.00
04445            -580.00    -3120.00
04446            -540.00    -3040.00
04447            -540.00    -2960.00
04448            -540.00    -2960.00
04449            -520.00    -2960.00
04450            -520.00    -2880.00
04451            -520.00    -2880.00
04452            -520.00    -2800.00
04453            -500.00    -2720.00
04454            -500.00    -2720.00
04455            -500.00    -2640.00
04456            -460.00    -2640.00
04457            -480.00    -2640.00
04458            -460.00    -2560.00
04459            -460.00    -2560.00
04460            -460.00    -2480.00
04461            -460.00    -2400.00
04462            -440.00    -2400.00
04463            -440.00    -2320.00
04464            -420.00    -2240.00
04465            -440.00    -2240.00
04466            -420.00    -2160.00
04467            -380.00    -2240.00
04468            -420.00    -2080.00
04469            -380.00    -2080.00
04470            -380.00    -2000.00
04471            -360.00    -2000.00
04472            -380.00    -1920.00
04473            -360.00    -1840.00
04474            -360.00    -1760.00
04475            -340.00    -1760.00
04476            -340.00    -1680.00
04477            -340.00    -1680.00
04478            -320.00    -1680.00
04479            -340.00    -1600.00
04480            -300.00    -1600.00
04481            -300.00    -1520.00
04482            -280.00    -1440.00
04483            -300.00    -1440.00
04484            -280.00    -1360.00
04485            -280.00    -1360.00
04486            -280.00    -1280.00
04487            -260.00    -1200.00
04488            -260.00    -1200.00
04489            -280.00    -1120.00
04490            -240.00    -1120.00
04491            -260.00    -1040.00
04492            -240.00     -960.00
04493            -220.00     -960.00
04494            -220.00     -960.00
04495            -220.00     -800.00
04496            -220.00     -800.00
04497            -200.00     -720.00
04498            -200.00     -720.00
04499            -200.00     -720.00
04500            -180.00     -640.00
04501            -180.00     -640.00
04502            -140.00     -560.00
04503            -160.00     -480.00
04504            -180.00     -480.00
04505            -140.00     -400.00
04506            -120.00     -320.00
04507            -120.00     -320.00
04508            -120.00     -320.00
04509            -120.00     -240.00
04510            -120.00     -160.00
04511            -100.00      -80.00
04512            -100.00      -80.00
04513             -80.00        0.00
04514             -80.00        0.00
04515             -60.00       80.00
04516             -60.00       80.00
04517             -60.00      160.00
04518             -60.00      160.00
04519             -40.00      320.00
04520             -40.00      320.00
04521             -20.00      320.00
04522             -40.00      400.00
04523               0.00      480.00
04524              20.00      560.00
04525              40.00      720.00
04526              20.00      720.00
04527              20.00      640.00
04528              20.00      560.00
04529              40.00      800.00
04530             100.00      960.00
04531              40.00      720.00
04532              40.00      800.00
04533             100.00      960.00
04534             100.00     1040.00
04535              40.00      800.00
04536             100.00     1120.00
04537             140.00     1200.00
04538             100.00     1120.00
04539             100.00     1200.00
04540             140.00     1360.00
04541             120.00     1280.00
04542             140.00     1280.00
04543             140.00     1440.00
04544             160.00     1440.00
04545             140.00     1440.00
04546             180.00     1600.00
04547             180.00     1600.00
04548             200.00     1680.00
04549             200.00     1680.00
04550             180.00     1680.00
04551             200.00     1760.00
04552             220.00     1840.00
04553             200.00     1840.00
04554             200.00     2000.00
04555             220.00     1920.00
04556             220.00     1920.00
04557             240.00     2080.00
04558             260.00     2160.00
04559             260.00     2160.00
04560             260.00     2240.00
04561             280.00     2240.00
04562             260.00     2240.00
04563             280.00     2400.00
04564             280.00     2400.00
04565             280.00     2400.00
04566             300.00     2480.00
04567             300.00     2480.00
04568             320.00     2560.00
04569             320.00     2640.00
04570             340.00     2640.00
04571             340.00     2720.00
04572             340.00     2720.00
04573             360.00     2800.00
04574             360.00     2880.00
04575             360.00     2800.00
04576             360.00     2880.00
04577             380.00     2960.00
04578             380.00     3040.00
04579             380.00     3040.00
04580             400.00     3120.00
04581             420.00     3200.00
04582             420.00     3280.00
04583             420.00     3200.00
04584             440.00     3360.00
04585             440.00     3360.00
04586             440.00     3360.00
04587             460.00     3440.00
04588             460.00     3440.00
04589             460.00     3520.00
04590             460.00     3520.00
04591             500.00     3520.00
04592             500.00     3600.00
04593             500.00     3680.00
04594             500.00     3760.00
04595             520.00     3760.00
04596             520.00     3760.00
04597             520.00     3840.00
04598             540.00     3840.00
04599             520.00     3920.00
04600             560.00     3920.00
04601             580.00     4000.00
04602             560.00     4000.00
04603             580.00     4080.00
04604             580.00     4160.00
04605             580.00     4160.00
04606             580.00     4160.00
04607             580.00     4240.00
04608             620.00     4320.00
04609             600.00     4320.00
04610             600.00     4320.00
04611             620.00     4400.00
04612             620.00     4480.00
04613             640.00     4480.00
04614             640.00     4480.00
04615             660.00     4560.00
04616             660.00     4560.00
04617             660.00     4640.00
04618             660.00     4720.00
04619             680.00     4720.00
04620             680.00     4800.00
04621             680.00     4800.00
04622             680.00     4800.00
04623             680.00     4800.00
04624             680.00     4960.00
04625             680.00     4960.00
04626             700.00     4960.00
04627             700.00     5040.00
04628             700.00     5040.00
04629             740.00     5040.00
04630             740.00     5120.00
04631             740.00     5120.00
04632             740.00     5200.00
04633             740.00     5280.00
04634             760.00     5280.00
04635             760.00     5280.00
04636             760.00     5360.00
04637             780.00     5360.00
04638             760.00     5440.00
04639             780.00     5440.00
04640             780.00     5440.00
04641             800.00     5600.00
04642             780.00     5600.00
04643             780.00     5600.00
04644             800.00     5680.00
04645             820.00     5680.00
04646             820.00     5680.00
04647             820.00     5760.00
04648             840.00     5840.00
04649             840.00     5760.00
04650             840.00     5840.00
04651             840.00     5840.00
04652             840.00     5840.00
04653             860.00     5920.00
04654             860.00     5920.00
04655             860.00     6000.00
04656             880.00     6000.00
04657             860.00     6000.00
04658             900.00     6000.00
04659             900.00     6080.00
04660             900.00     6160.00
04661             900.00     6160.00
04662             900.00     6240.00
04663             920.00     6240.00
04664             920.00     6240.00
04665             920.00     6240.00
04666             920.00     6320.00
04667             940.00     6320.00
04668             920.00     6400.00
04669             940.00     6320.00
04670             960.00     6400.00
04671             940.00     6400.00
04672             980.00     6480.00
04673             960.00     6400.00
04674             980.00     6480.00
04675             980.00     6560.00
04676             980.00     6560.00
04677             980.00     6560.00
04678             980.00     6640.00
04679             980.00     6560.00
04680            1000.00     6640.00
04681            1000.00     6720.00
04682            1000.00     6640.00
04683            1000.00     6720.00
04684            1000.00     6720.00
04685            1000.00     6720.00
04686            1020.00     6800.00
04687            1020.00     6800.00
04688            1000.00     6880.00
04689            1020.00     6880.00
04690            1020.00     6880.00
04691            1020.00     6960.00
04692            1040.00     6960.00
04693            1020.00     6880.00
04694            1040.00     6960.00
04695            1060.00     7040.00
04696            1060.00     6960.00
04697            1020.00     7040.00
04698            1060.00     7040.00
04699            1060.00     7040.00
04700            1060.00     7040.00
04701            1060.00     7120.00
04702            1060.00     7200.00
04703            1060.00     7200.00
04704            1060.00     7120.00
04705            1060.00     7200.00
04706            1080.00     7200.00
04707            1080.00     7280.00
04708            1080.00     7200.00
04709            1080.00     7280.00
04710            1080.00     7280.00
04711            1080.00     7280.00
04712            1080.00     7280.00
04713            1100.00     7280.00
04714            1100.00     7280.00
04715            1120.00     7360.00
04716            1100.00     7360.00
04717            1140.00     7360.00
04718            1100.00     7360.00
04719            1140.00     7360.00
04720            1100.00     7360.00
04721            1140.00     7520.00
04722            1120.00     7440.00
04723            1140.00     7440.00
04724            1160.00     7440.00
04725            1140.00     7520.00
04726            1140.00     7520.00
04727            1140.00     7520.00
04728            1160.00     7520.00
04729            1160.00     7520.00
04730            1160.00     7520.00
04731            1160.00     7600.00
04732            1160.00     7520.00
04733            1160.00     7600.00
04734            1160.00     7600.00
04735            1160.00     7600.00
04736            1160.00     7600.00
04737            1160.00     7600.00
04738            1160.00     7600.00
04739            1160.00     7600.00
04740            1160.00     7600.00
04741            1160.00     7600.00
04742            1160.00     7680.00
04743            1160.00     7600.00
04744            1180.00     7680.00
04745            1180.00     7680.00
04746            1180.00     7680.00
04747            1180.00     7680.00
04748            1180.00     7680.00
04749            1180.00     7680.00
04750            1180.00     7680.00
04751            1180.00     7680.00
04752            1180.00     7680.00
04753            1180.00     7680.00
04754            1180.00     7680.00
04755            1180.00     7680.00
04756            1180.00     7680.00
04757            1180.00     7680.00
04758            1180.00     7680.00
04759            1180.00     7680.00
04760            1180.00     7680.00
04761            1180.00     7680.00
04762            1180.00     7760.00
04763            1180.00     7680.00
04764            1180.00     7680.00
04765            1180.00     7680.00
04766            1180.00     7680.00
04767            1180.00     7760.00
04768            1180.00     7760.00
04769            1180.00     7680.00
04770            1180.00     7680.00
04771            1180.00     7680.00
04772            1180.00     7680.00
04773            1180.00     7680.00
04774            1180.00     7760.00
04775            1180.00     7680.00
04776            1180.00     7760.00
04777            1180.00     7680.00
04778            1180.00     7680.00
04779            1180.00     7680.00
04780            1180.00     7680.00
04781            1180.00     7680.00
04782            1180.00     7680.00
04783            1220.00     7760.00
04784            1200.00     7680.00
04785            1220.00     7680.00
04786            1200.00     7680.00
04787            1180.00     7680.00
04788            1180.00     7600.00
04789            1200.00     7680.00
04790            1180.00     7680.00
04791            1180.00     7680.00
04792            1180.00     7600.00
04793            1200.00     7680.00
04794            1200.00     7600.00
04795            1180.00     7600.00
04796            1180.00     7600.00
04797            1180.00     7600.00
04798            1180.00     7600.00
04799            1180.00     7600.00
04800            1180.00     7600.00
04801            1160.00     7600.00
04802            1180.00     7520.00
04803            1200.00     7600.00
04804            1160.00     7520.00
04805            1180.00     7520.00
04806            1160.00     7520.00
04807            1160.00     7520.00
04808            1180.00     7520.00
04809            1160.00     7440.00
04810            1160.00     7520.00
04811            1160.00     7440.00
04812            1160.00     7520.00
04813            1160.00     7360.00
04814            1180.00     7360.00
04815            1160.00     7440.00
04816            1160.00     7360.00
04817            1160.00     7360.00
04818            1160.00     7360.00
04819            1160.00     7360.00
04820            1160.00     7360.00
04821            1160.00     7280.00
04822            1160.00     7280.00
04823            1140.00     7280.00
04824            1140.00     7280.00
04825            1140.00     7280.00
04826            1140.00     7280.00
04827            1140.00     7200.00
04828            1140.00     7200.00
04829            1140.00     7200.00
04830            1140.00     7200.00
04831            1140.00     7120.00
04832            1100.00     7040.00
04833            1100.00     7040.00
04834            1140.00     7040.00
04835            1100.00     7040.00
04836            1080.00     7040.00
04837            1120.00     7040.00
04838            1100.00     6960.00
04839            1100.00     6960.00
04840            1080.00     6960.00
04841            1080.00     6960.00
04842            1080.00     6960.00
04843            1080.00     6880.00
04844            1080.00     6880.00
04845            1100.00     6880.00
04846            1080.00     6880.00
04847            1080.00     6800.00
04848            1080.00     6880.00
04849            1080.00     6720.00
04850            1080.00     6720.00
04851            1060.00     6720.00
04852            1060.00     6640.00
04853            1060.00     6720.00
04854            1060.00     6640.00
04855            1060.00     6640.00
04856            1060.00     6560.00
04857            1060.00     6560.00
04858            1060.00     6560.00
04859            1060.00     6560.00
04860            1060.00     6480.00
04861            1040.00     6400.00
04862            1020.00     6400.00
04863            1040.00     6400.00
04864            1020.00     6400.00
04865            1040.00     6400.00
04866            1020.00     6320.00
04867            1020.00     6320.00
04868            1020.00     6240.00
04869            1000.00     6240.00
04870            1000.00     6240.00
04871            1000.00     6240.00
04872            1000.00     6080.00
04873            1000.00     6160.00
04874            1000.00     6080.00
04875             980.00     6080.00
04876            1000.00     6000.00
04877             980.00     6000.00
04878             980.00     6000.00
04879             980.00     6000.00
04880             980.00     5920.00
04881             940.00     5920.00
04882             980.00     5840.00
04883             940.00     5840.00
04884             940.00     5840.00
04885             940.00     5760.00
04886             920.00     5760.00
04887             920.00     5680.00
04888             920.00     5680.00
04889             920.00     5680.00
04890             920.00     5600.00
04891             920.00     5600.00
04892             900.00     5600.00
04893             900.00     5520.00
04894             900.00     5440.00
04895             900.00     5440.00
04896             880.00     5440.00
04897             860.00     5360.00
04898             860.00     5360.00
04899             860.00     5360.00
04900             840.00     5280.00
04901             840.00     5200.00
04902             840.00     5120.00
04903             840.00     5120.00
04904             840.00     5120.00
04905             820.00     5120.00
04906             820.00     5120.00
04907             820.00     5040.00
04908             820.00     5040.00
04909             820.00     4960.00
04910             820.00     4960.00
04911             820.00     4880.00
04912             820.00     4800.00
04913             780.00     4800.00
04914             800.00     4800.00
04915             780.00     4800.00
04916             780.00     4720.00
04917             760.00     4640.00
04918             760.00     4640.00
04919             760.00     4560.00
04920             760.00     4480.00
04921             740.00     4480.00
04922             740.00     4400.00
04923             760.00     4400.00
04924             740.00     4400.00
04925             740.00     4320.00
04926             740.00     4320.00
04927             700.00     4320.00
04928             740.00     4240.00
04929             700.00     4160.00
04930             680.00     4160.00
04931             700.00     4160.00
04932             680.00     4080.00
04933             680.00     4080.00
04934             700.00     4000.00
04935             680.00     3920.00
04936             680.00     3920.00
04937             660.00     3840.00
04938             660.00     3840.00
04939             640.00     3760.00
04940             640.00     3680.00
04941             620.00     3680.00
04942             620.00     3680.00
04943             620.00     3680.00
04944             620.00     3520.00
04945             600.00     3520.00
04946             600.00     3520.00
04947             600.00     3440.00
04948             580.00     3360.00
04949             580.00     3360.00
04950             580.00     3360.00
04951             540.00     3280.00
04952             540.00     3200.00
04953             560.00     3200.00
04954             540.00     3280.00
04955             540.00     3120.00
04956             520.00     3120.00
04957             520.00     3040.00
04958             520.00     2960.00
04959             520.00     2880.00
04960             500.00     2880.00
04961             500.00     2880.00
04962             500.00     2800.00
04963             500.00     2720.00
04964             480.00     2720.00
04965             460.00     2640.00
04966             460.00     2640.00
04967             460.00     2560.00
04968             440.00     2480.00
04969             460.00     2480.00
04970             420.00     2400.00
04971             420.00     2400.00
04972             420.00     2320.00
04973             420.00     2240.00
04974             400.00     2240.00
04975             420.00     2240.00
04976             380.00     2160.00
04977             400.00     2160.00
04978             380.00     2080.00
04979             380.00     2080.00
04980             360.00     1920.00
04981             360.00     1920.00
04982             360.00     1840.00
04983             340.00     1840.00
04984             360.00     1760.00
04985             340.00     1760.00
04986             340.00     1760.00
04987             340.00     1600.00
04988             320.00     1600.00
04989             320.00     1600.00
04990             300.00     1520.00
04991             300.00     1520.00
04992             300.00     1440.00
04993             280.00     1360.00
04994             280.00     1360.00
04995             280.00     1280.00
04996             260.00     1280.00
04997             260.00     1200.00
04998             260.00     1200.00
04999             220.00     1120.00
05000             240.00     1040.00
