Unit:(mV)
                     CH1         CH2
Frequency              ?  98.391 kHz
00001             280.00    -2400.00
00002             280.00    -2400.00
00003             300.00    -2480.00
00004             300.00    -2480.00
00005             300.00    -2560.00
00006             300.00    -2560.00
00007             300.00    -2640.00
00008             340.00    -2640.00
00009             340.00    -2720.00
00010             320.00    -2720.00
00011             340.00    -2720.00
00012             340.00    -2800.00
00013             360.00    -2720.00
00014             360.00    -2880.00
00015             360.00    -2880.00
00016             360.00    -2960.00
00017             360.00    -2960.00
00018             380.00    -2960.00
00019             380.00    -2960.00
00020             380.00    -3120.00
00021             420.00    -3120.00
00022             420.00    -3200.00
00023             420.00    -3200.00
00024             420.00    -3280.00
00025             420.00    -3280.00
00026             440.00    -3280.00
00027             440.00    -3360.00
00028             440.00    -3360.00
00029             440.00    -3360.00
00030             440.00    -3440.00
00031             460.00    -3440.00
00032             460.00    -3520.00
00033             460.00    -3520.00
00034             480.00    -3520.00
00035             460.00    -3600.00
00036             480.00    -3600.00
00037             520.00    -3680.00
00038             500.00    -3680.00
00039             520.00    -3760.00
00040             520.00    -3840.00
00041             520.00    -3840.00
00042             520.00    -3840.00
00043             520.00    -3840.00
00044             520.00    -3840.00
00045             520.00    -3920.00
00046             540.00    -3920.00
00047             540.00    -3920.00
00048             540.00    -4000.00
00049             540.00    -4160.00
00050             560.00    -4080.00
00051             540.00    -4080.00
00052             580.00    -4160.00
00053             580.00    -4240.00
00054             580.00    -4240.00
00055             580.00    -4240.00
00056             580.00    -4240.00
00057             580.00    -4320.00
00058             600.00    -4320.00
00059             600.00    -4320.00
00060             600.00    -4320.00
00061             600.00    -4400.00
00062             620.00    -4480.00
00063             620.00    -4480.00
00064             620.00    -4480.00
00065             660.00    -4560.00
00066             640.00    -4640.00
00067             620.00    -4560.00
00068             660.00    -4640.00
00069             640.00    -4720.00
00070             660.00    -4720.00
00071             660.00    -4720.00
00072             680.00    -4800.00
00073             660.00    -4800.00
00074             680.00    -4800.00
00075             680.00    -4800.00
00076             680.00    -4880.00
00077             680.00    -4880.00
00078             680.00    -4880.00
00079             680.00    -4960.00
00080             700.00    -4960.00
00081             700.00    -4960.00
00082             740.00    -4960.00
00083             700.00    -5120.00
00084             740.00    -5120.00
00085             720.00    -5120.00
00086             760.00    -5120.00
00087             740.00    -5120.00
00088             740.00    -5200.00
00089             760.00    -5200.00
00090             740.00    -5200.00
00091             760.00    -5280.00
00092             760.00    -5280.00
00093             760.00    -5280.00
00094             760.00    -5280.00
00095             760.00    -5280.00
00096             780.00    -5360.00
00097             760.00    -5440.00
00098             780.00    -5440.00
00099             780.00    -5440.00
00100             780.00    -5520.00
00101             800.00    -5440.00
00102             820.00    -5520.00
00103             820.00    -5520.00
00104             820.00    -5520.00
00105             820.00    -5520.00
00106             820.00    -5600.00
00107             820.00    -5600.00
00108             820.00    -5600.00
00109             840.00    -5600.00
00110             840.00    -5680.00
00111             840.00    -5680.00
00112             820.00    -5760.00
00113             840.00    -5760.00
00114             840.00    -5760.00
00115             840.00    -5760.00
00116             840.00    -5760.00
00117             840.00    -5840.00
00118             840.00    -5840.00
00119             840.00    -5840.00
00120             860.00    -5840.00
00121             860.00    -5840.00
00122             840.00    -5920.00
00123             860.00    -5920.00
00124             860.00    -5920.00
00125             900.00    -5920.00
00126             880.00    -5920.00
00127             860.00    -6000.00
00128             860.00    -6000.00
00129             900.00    -6080.00
00130             900.00    -6080.00
00131             900.00    -6080.00
00132             900.00    -6080.00
00133             900.00    -6080.00
00134             900.00    -6080.00
00135             900.00    -6160.00
00136             900.00    -6160.00
00137             900.00    -6080.00
00138             920.00    -6160.00
00139             920.00    -6160.00
00140             920.00    -6160.00
00141             920.00    -6160.00
00142             940.00    -6160.00
00143             920.00    -6160.00
00144             920.00    -6240.00
00145             920.00    -6240.00
00146             940.00    -6240.00
00147             940.00    -6240.00
00148             940.00    -6320.00
00149             940.00    -6240.00
00150             940.00    -6240.00
00151             960.00    -6240.00
00152             960.00    -6320.00
00153             980.00    -6240.00
00154             980.00    -6320.00
00155             980.00    -6320.00
00156             980.00    -6320.00
00157             980.00    -6400.00
00158            1000.00    -6400.00
00159             980.00    -6400.00
00160             980.00    -6400.00
00161             980.00    -6400.00
00162             980.00    -6400.00
00163             980.00    -6480.00
00164             980.00    -6480.00
00165             980.00    -6400.00
00166            1000.00    -6400.00
00167             980.00    -6480.00
00168             980.00    -6480.00
00169            1000.00    -6480.00
00170             980.00    -6480.00
00171            1000.00    -6480.00
00172             980.00    -6480.00
00173            1000.00    -6480.00
00174             980.00    -6480.00
00175            1000.00    -6480.00
00176            1000.00    -6480.00
00177             980.00    -6400.00
00178            1000.00    -6480.00
00179             980.00    -6560.00
00180             980.00    -6480.00
00181            1000.00    -6480.00
00182             980.00    -6560.00
00183            1000.00    -6480.00
00184            1000.00    -6480.00
00185            1000.00    -6480.00
00186            1000.00    -6560.00
00187            1000.00    -6480.00
00188            1000.00    -6560.00
00189            1000.00    -6560.00
00190            1000.00    -6560.00
00191            1000.00    -6560.00
00192            1000.00    -6560.00
00193            1000.00    -6560.00
00194            1000.00    -6560.00
00195            1000.00    -6560.00
00196            1000.00    -6560.00
00197            1000.00    -6560.00
00198            1000.00    -6560.00
00199            1000.00    -6480.00
00200            1000.00    -6480.00
00201            1000.00    -6480.00
00202            1000.00    -6480.00
00203            1000.00    -6560.00
00204            1000.00    -6480.00
00205            1000.00    -6480.00
00206            1000.00    -6560.00
00207            1020.00    -6560.00
00208            1000.00    -6560.00
00209            1020.00    -6480.00
00210            1000.00    -6480.00
00211            1000.00    -6480.00
00212            1020.00    -6480.00
00213            1020.00    -6480.00
00214            1020.00    -6480.00
00215            1000.00    -6480.00
00216            1020.00    -6480.00
00217            1020.00    -6400.00
00218            1000.00    -6400.00
00219            1000.00    -6480.00
00220            1000.00    -6480.00
00221            1000.00    -6480.00
00222            1000.00    -6400.00
00223            1000.00    -6400.00
00224            1000.00    -6400.00
00225            1000.00    -6400.00
00226            1000.00    -6320.00
00227            1000.00    -6400.00
00228            1000.00    -6400.00
00229            1000.00    -6400.00
00230            1000.00    -6320.00
00231            1000.00    -6400.00
00232            1000.00    -6240.00
00233             980.00    -6400.00
00234            1000.00    -6320.00
00235            1000.00    -6240.00
00236            1000.00    -6240.00
00237            1000.00    -6240.00
00238            1000.00    -6240.00
00239            1000.00    -6240.00
00240            1000.00    -6240.00
00241             980.00    -6240.00
00242            1000.00    -6160.00
00243             980.00    -6240.00
00244             980.00    -6160.00
00245            1000.00    -6160.00
00246             980.00    -6160.00
00247             980.00    -6080.00
00248             980.00    -6160.00
00249             980.00    -6160.00
00250             980.00    -6080.00
00251             980.00    -6080.00
00252             980.00    -6080.00
00253             980.00    -6080.00
00254             980.00    -6080.00
00255             980.00    -6080.00
00256             960.00    -6000.00
00257             940.00    -5920.00
00258             960.00    -6000.00
00259             960.00    -6000.00
00260             940.00    -5920.00
00261             960.00    -5920.00
00262             940.00    -6000.00
00263             960.00    -5920.00
00264             940.00    -5920.00
00265             940.00    -5920.00
00266             940.00    -5840.00
00267             920.00    -5840.00
00268             940.00    -5840.00
00269             940.00    -5760.00
00270             940.00    -5840.00
00271             940.00    -5840.00
00272             920.00    -5760.00
00273             920.00    -5760.00
00274             920.00    -5760.00
00275             920.00    -5680.00
00276             920.00    -5760.00
00277             920.00    -5600.00
00278             920.00    -5600.00
00279             900.00    -5600.00
00280             900.00    -5600.00
00281             920.00    -5520.00
00282             900.00    -5520.00
00283             920.00    -5520.00
00284             900.00    -5440.00
00285             900.00    -5520.00
00286             900.00    -5440.00
00287             900.00    -5440.00
00288             900.00    -5440.00
00289             900.00    -5440.00
00290             900.00    -5360.00
00291             900.00    -5360.00
00292             860.00    -5280.00
00293             880.00    -5280.00
00294             900.00    -5280.00
00295             860.00    -5280.00
00296             860.00    -5200.00
00297             860.00    -5200.00
00298             860.00    -5200.00
00299             840.00    -5120.00
00300             860.00    -5120.00
00301             840.00    -5120.00
00302             840.00    -5120.00
00303             840.00    -5120.00
00304             820.00    -5120.00
00305             820.00    -4960.00
00306             840.00    -5040.00
00307             840.00    -4960.00
00308             820.00    -4880.00
00309             840.00    -4960.00
00310             820.00    -4880.00
00311             820.00    -4880.00
00312             820.00    -4800.00
00313             800.00    -4880.00
00314             800.00    -4800.00
00315             820.00    -4720.00
00316             780.00    -4640.00
00317             780.00    -4720.00
00318             780.00    -4640.00
00319             780.00    -4640.00
00320             780.00    -4640.00
00321             760.00    -4560.00
00322             760.00    -4560.00
00323             760.00    -4480.00
00324             760.00    -4400.00
00325             760.00    -4480.00
00326             760.00    -4400.00
00327             760.00    -4400.00
00328             740.00    -4320.00
00329             740.00    -4320.00
00330             740.00    -4320.00
00331             760.00    -4240.00
00332             740.00    -4240.00
00333             740.00    -4240.00
00334             740.00    -4160.00
00335             700.00    -4160.00
00336             740.00    -4160.00
00337             700.00    -4160.00
00338             700.00    -4000.00
00339             680.00    -4000.00
00340             700.00    -4000.00
00341             680.00    -3920.00
00342             680.00    -3920.00
00343             680.00    -3920.00
00344             680.00    -3840.00
00345             680.00    -3840.00
00346             680.00    -3840.00
00347             680.00    -3840.00
00348             660.00    -3760.00
00349             640.00    -3680.00
00350             660.00    -3600.00
00351             660.00    -3680.00
00352             660.00    -3600.00
00353             620.00    -3600.00
00354             640.00    -3520.00
00355             620.00    -3520.00
00356             620.00    -3520.00
00357             640.00    -3440.00
00358             620.00    -3440.00
00359             600.00    -3360.00
00360             600.00    -3360.00
00361             600.00    -3360.00
00362             580.00    -3200.00
00363             600.00    -3280.00
00364             580.00    -3200.00
00365             580.00    -3200.00
00366             580.00    -3200.00
00367             580.00    -3120.00
00368             580.00    -3040.00
00369             540.00    -3040.00
00370             540.00    -3040.00
00371             540.00    -2960.00
00372             520.00    -2880.00
00373             520.00    -2880.00
00374             520.00    -2880.00
00375             520.00    -2800.00
00376             520.00    -2800.00
00377             520.00    -2720.00
00378             500.00    -2640.00
00379             500.00    -2640.00
00380             500.00    -2640.00
00381             500.00    -2640.00
00382             500.00    -2560.00
00383             460.00    -2480.00
00384             460.00    -2560.00
00385             460.00    -2400.00
00386             440.00    -2400.00
00387             440.00    -2400.00
00388             440.00    -2320.00
00389             440.00    -2320.00
00390             440.00    -2240.00
00391             440.00    -2240.00
00392             420.00    -2240.00
00393             420.00    -2080.00
00394             420.00    -2080.00
00395             420.00    -2080.00
00396             380.00    -2000.00
00397             380.00    -2000.00
00398             380.00    -2000.00
00399             380.00    -1840.00
00400             380.00    -1840.00
00401             360.00    -1760.00
00402             360.00    -1760.00
00403             360.00    -1760.00
00404             360.00    -1680.00
00405             360.00    -1680.00
00406             360.00    -1680.00
00407             360.00    -1600.00
00408             340.00    -1600.00
00409             340.00    -1600.00
00410             340.00    -1520.00
00411             340.00    -1440.00
00412             300.00    -1440.00
00413             320.00    -1360.00
00414             300.00    -1360.00
00415             300.00    -1360.00
00416             300.00    -1280.00
00417             280.00    -1200.00
00418             280.00    -1120.00
00419             280.00    -1120.00
00420             260.00    -1120.00
00421             260.00    -1120.00
00422             260.00    -1040.00
00423             260.00    -1040.00
00424             260.00     -960.00
00425             260.00     -880.00
00426             220.00     -800.00
00427             220.00     -800.00
00428             220.00     -800.00
00429             220.00     -720.00
00430             200.00     -720.00
00431             200.00     -640.00
00432             200.00     -640.00
00433             180.00     -640.00
00434             180.00     -560.00
00435             180.00     -480.00
00436             180.00     -480.00
00437             160.00     -400.00
00438             140.00     -400.00
00439             140.00     -320.00
00440             140.00     -320.00
00441             120.00     -240.00
00442             120.00     -160.00
00443             120.00     -160.00
00444             120.00     -160.00
00445             120.00      -80.00
00446             100.00      -80.00
00447             100.00        0.00
00448             100.00        0.00
00449             100.00        0.00
00450              60.00      160.00
00451              80.00      160.00
00452              60.00      160.00
00453              40.00      240.00
00454              40.00      240.00
00455              60.00      320.00
00456              40.00      320.00
00457              60.00      320.00
00458              40.00      320.00
00459              40.00      480.00
00460              40.00      560.00
00461              20.00      560.00
00462              20.00      560.00
00463             -20.00      480.00
00464              20.00      720.00
00465              40.00      880.00
00466             -20.00      720.00
00467             -60.00      640.00
00468             -20.00      880.00
00469             -20.00      960.00
00470             -60.00      800.00
00471             -40.00      960.00
00472             -20.00     1120.00
00473             -60.00      960.00
00474             -60.00      960.00
00475             -40.00     1120.00
00476             -60.00     1120.00
00477             -60.00     1120.00
00478             -60.00     1280.00
00479            -100.00     1200.00
00480            -100.00     1280.00
00481            -100.00     1440.00
00482            -100.00     1440.00
00483            -120.00     1440.00
00484            -100.00     1520.00
00485            -120.00     1520.00
00486            -140.00     1520.00
00487            -120.00     1600.00
00488            -140.00     1600.00
00489            -140.00     1760.00
00490            -140.00     1760.00
00491            -180.00     1680.00
00492            -180.00     1840.00
00493            -180.00     1840.00
00494            -180.00     1840.00
00495            -180.00     1920.00
00496            -200.00     1920.00
00497            -200.00     1920.00
00498            -200.00     2080.00
00499            -220.00     2080.00
00500            -220.00     2080.00
00501            -220.00     2160.00
00502            -220.00     2160.00
00503            -260.00     2240.00
00504            -260.00     2240.00
00505            -260.00     2240.00
00506            -280.00     2400.00
00507            -280.00     2400.00
00508            -280.00     2480.00
00509            -280.00     2480.00
00510            -280.00     2480.00
00511            -280.00     2560.00
00512            -300.00     2640.00
00513            -300.00     2560.00
00514            -300.00     2640.00
00515            -300.00     2720.00
00516            -340.00     2720.00
00517            -340.00     2720.00
00518            -340.00     2800.00
00519            -340.00     2880.00
00520            -360.00     2800.00
00521            -360.00     2880.00
00522            -360.00     2960.00
00523            -380.00     3040.00
00524            -380.00     3040.00
00525            -380.00     3040.00
00526            -380.00     3120.00
00527            -380.00     3120.00
00528            -380.00     3120.00
00529            -380.00     3280.00
00530            -400.00     3280.00
00531            -420.00     3280.00
00532            -420.00     3360.00
00533            -420.00     3360.00
00534            -440.00     3440.00
00535            -440.00     3360.00
00536            -440.00     3440.00
00537            -440.00     3520.00
00538            -440.00     3520.00
00539            -460.00     3520.00
00540            -460.00     3600.00
00541            -460.00     3600.00
00542            -460.00     3680.00
00543            -460.00     3680.00
00544            -460.00     3760.00
00545            -460.00     3760.00
00546            -500.00     3760.00
00547            -500.00     3840.00
00548            -500.00     3840.00
00549            -520.00     3840.00
00550            -500.00     3920.00
00551            -520.00     4000.00
00552            -520.00     4000.00
00553            -540.00     4080.00
00554            -520.00     4080.00
00555            -540.00     4160.00
00556            -540.00     4080.00
00557            -540.00     4160.00
00558            -540.00     4160.00
00559            -540.00     4160.00
00560            -580.00     4320.00
00561            -580.00     4320.00
00562            -580.00     4320.00
00563            -580.00     4320.00
00564            -600.00     4320.00
00565            -600.00     4480.00
00566            -600.00     4480.00
00567            -600.00     4480.00
00568            -600.00     4480.00
00569            -620.00     4480.00
00570            -620.00     4480.00
00571            -620.00     4480.00
00572            -620.00     4640.00
00573            -640.00     4640.00
00574            -660.00     4640.00
00575            -640.00     4720.00
00576            -660.00     4720.00
00577            -660.00     4720.00
00578            -660.00     4800.00
00579            -680.00     4800.00
00580            -680.00     4880.00
00581            -660.00     4880.00
00582            -680.00     4880.00
00583            -700.00     4960.00
00584            -700.00     4960.00
00585            -680.00     5040.00
00586            -700.00     4960.00
00587            -700.00     5040.00
00588            -700.00     5040.00
00589            -700.00     5120.00
00590            -740.00     5120.00
00591            -700.00     5120.00
00592            -700.00     5200.00
00593            -740.00     5280.00
00594            -740.00     5200.00
00595            -740.00     5280.00
00596            -740.00     5280.00
00597            -740.00     5280.00
00598            -760.00     5360.00
00599            -760.00     5360.00
00600            -760.00     5360.00
00601            -760.00     5360.00
00602            -760.00     5360.00
00603            -760.00     5440.00
00604            -760.00     5440.00
00605            -760.00     5440.00
00606            -760.00     5520.00
00607            -780.00     5600.00
00608            -780.00     5600.00
00609            -780.00     5600.00
00610            -780.00     5600.00
00611            -800.00     5680.00
00612            -780.00     5600.00
00613            -820.00     5680.00
00614            -820.00     5600.00
00615            -840.00     5840.00
00616            -820.00     5680.00
00617            -820.00     5760.00
00618            -840.00     5840.00
00619            -840.00     5840.00
00620            -840.00     5760.00
00621            -840.00     5840.00
00622            -840.00     5840.00
00623            -840.00     5920.00
00624            -840.00     5920.00
00625            -860.00     5920.00
00626            -860.00     5920.00
00627            -860.00     6000.00
00628            -860.00     5920.00
00629            -860.00     6000.00
00630            -860.00     6000.00
00631            -860.00     6080.00
00632            -860.00     6000.00
00633            -900.00     6000.00
00634            -920.00     6000.00
00635            -860.00     6080.00
00636            -900.00     6080.00
00637            -920.00     6160.00
00638            -920.00     6080.00
00639            -900.00     6160.00
00640            -920.00     6160.00
00641            -900.00     6240.00
00642            -920.00     6240.00
00643            -900.00     6240.00
00644            -920.00     6240.00
00645            -920.00     6240.00
00646            -920.00     6240.00
00647            -920.00     6320.00
00648            -920.00     6240.00
00649            -920.00     6240.00
00650            -920.00     6320.00
00651            -940.00     6240.00
00652            -920.00     6320.00
00653            -940.00     6400.00
00654            -940.00     6320.00
00655            -940.00     6320.00
00656            -940.00     6320.00
00657            -940.00     6400.00
00658            -940.00     6400.00
00659            -940.00     6400.00
00660            -940.00     6400.00
00661            -940.00     6480.00
00662            -940.00     6400.00
00663            -940.00     6400.00
00664            -940.00     6480.00
00665            -940.00     6480.00
00666            -940.00     6400.00
00667            -940.00     6480.00
00668            -960.00     6560.00
00669            -960.00     6480.00
00670            -940.00     6400.00
00671            -980.00     6560.00
00672            -980.00     6560.00
00673            -940.00     6400.00
00674            -980.00     6560.00
00675            -980.00     6560.00
00676            -980.00     6560.00
00677            -980.00     6560.00
00678            -980.00     6560.00
00679            -980.00     6560.00
00680           -1000.00     6560.00
00681            -960.00     6560.00
00682            -980.00     6640.00
00683            -980.00     6560.00
00684           -1000.00     6560.00
00685            -980.00     6640.00
00686           -1000.00     6560.00
00687            -980.00     6560.00
00688           -1000.00     6560.00
00689           -1000.00     6560.00
00690           -1000.00     6560.00
00691           -1000.00     6640.00
00692           -1000.00     6560.00
00693            -980.00     6560.00
00694           -1000.00     6640.00
00695           -1000.00     6640.00
00696           -1020.00     6560.00
00697           -1000.00     6560.00
00698           -1020.00     6640.00
00699           -1020.00     6640.00
00700           -1000.00     6560.00
00701           -1000.00     6640.00
00702           -1020.00     6640.00
00703           -1020.00     6560.00
00704           -1000.00     6640.00
00705           -1000.00     6640.00
00706           -1000.00     6640.00
00707           -1020.00     6640.00
00708           -1020.00     6640.00
00709           -1020.00     6640.00
00710           -1020.00     6640.00
00711           -1000.00     6640.00
00712           -1020.00     6560.00
00713           -1020.00     6560.00
00714           -1020.00     6640.00
00715           -1020.00     6560.00
00716           -1020.00     6560.00
00717           -1000.00     6560.00
00718           -1020.00     6560.00
00719           -1020.00     6560.00
00720           -1020.00     6640.00
00721           -1000.00     6560.00
00722           -1000.00     6560.00
00723           -1020.00     6560.00
00724           -1000.00     6560.00
00725           -1020.00     6560.00
00726           -1000.00     6560.00
00727           -1000.00     6560.00
00728           -1000.00     6560.00
00729           -1020.00     6560.00
00730           -1000.00     6560.00
00731           -1000.00     6480.00
00732           -1000.00     6560.00
00733           -1000.00     6480.00
00734           -1000.00     6480.00
00735           -1000.00     6560.00
00736           -1000.00     6480.00
00737           -1000.00     6480.00
00738           -1000.00     6480.00
00739           -1000.00     6400.00
00740           -1000.00     6400.00
00741           -1000.00     6480.00
00742           -1000.00     6400.00
00743            -980.00     6400.00
00744           -1000.00     6320.00
00745            -980.00     6400.00
00746            -980.00     6320.00
00747           -1000.00     6400.00
00748           -1000.00     6320.00
00749            -980.00     6400.00
00750            -980.00     6320.00
00751            -980.00     6320.00
00752            -980.00     6320.00
00753            -980.00     6320.00
00754            -980.00     6320.00
00755            -980.00     6240.00
00756            -980.00     6240.00
00757            -980.00     6240.00
00758            -960.00     6240.00
00759            -980.00     6240.00
00760            -980.00     6160.00
00761            -980.00     6240.00
00762            -980.00     6160.00
00763            -980.00     6160.00
00764            -980.00     6080.00
00765            -980.00     6080.00
00766            -980.00     6080.00
00767            -980.00     6080.00
00768            -960.00     6080.00
00769            -940.00     6000.00
00770            -940.00     6000.00
00771            -960.00     6000.00
00772            -940.00     6000.00
00773            -980.00     6000.00
00774            -940.00     5920.00
00775            -940.00     5920.00
00776            -940.00     5920.00
00777            -940.00     5920.00
00778            -940.00     5840.00
00779            -940.00     5920.00
00780            -940.00     5920.00
00781            -940.00     5840.00
00782            -920.00     5760.00
00783            -920.00     5840.00
00784            -920.00     5760.00
00785            -920.00     5760.00
00786            -920.00     5760.00
00787            -920.00     5680.00
00788            -920.00     5680.00
00789            -920.00     5680.00
00790            -920.00     5680.00
00791            -900.00     5680.00
00792            -900.00     5600.00
00793            -900.00     5600.00
00794            -900.00     5520.00
00795            -900.00     5600.00
00796            -900.00     5600.00
00797            -900.00     5440.00
00798            -860.00     5440.00
00799            -860.00     5440.00
00800            -860.00     5360.00
00801            -880.00     5440.00
00802            -860.00     5360.00
00803            -860.00     5360.00
00804            -860.00     5280.00
00805            -860.00     5280.00
00806            -860.00     5280.00
00807            -860.00     5280.00
00808            -860.00     5280.00
00809            -840.00     5200.00
00810            -840.00     5200.00
00811            -840.00     5200.00
00812            -840.00     5120.00
00813            -840.00     5120.00
00814            -820.00     5120.00
00815            -820.00     5040.00
00816            -820.00     5040.00
00817            -840.00     5040.00
00818            -820.00     4960.00
00819            -800.00     4960.00
00820            -820.00     4960.00
00821            -820.00     4960.00
00822            -800.00     4880.00
00823            -780.00     4880.00
00824            -780.00     4800.00
00825            -800.00     4800.00
00826            -780.00     4800.00
00827            -780.00     4720.00
00828            -780.00     4720.00
00829            -780.00     4640.00
00830            -780.00     4640.00
00831            -760.00     4640.00
00832            -760.00     4560.00
00833            -780.00     4560.00
00834            -760.00     4480.00
00835            -760.00     4480.00
00836            -740.00     4480.00
00837            -760.00     4400.00
00838            -740.00     4400.00
00839            -740.00     4400.00
00840            -740.00     4400.00
00841            -740.00     4320.00
00842            -740.00     4320.00
00843            -720.00     4320.00
00844            -740.00     4320.00
00845            -720.00     4240.00
00846            -700.00     4160.00
00847            -700.00     4160.00
00848            -700.00     4080.00
00849            -700.00     4080.00
00850            -700.00     4000.00
00851            -680.00     4000.00
00852            -680.00     4000.00
00853            -680.00     4000.00
00854            -660.00     3920.00
00855            -660.00     3840.00
00856            -660.00     3840.00
00857            -660.00     3840.00
00858            -660.00     3760.00
00859            -660.00     3760.00
00860            -620.00     3680.00
00861            -620.00     3680.00
00862            -660.00     3680.00
00863            -600.00     3600.00
00864            -620.00     3600.00
00865            -600.00     3520.00
00866            -600.00     3520.00
00867            -600.00     3440.00
00868            -600.00     3440.00
00869            -600.00     3440.00
00870            -580.00     3360.00
00871            -580.00     3360.00
00872            -580.00     3360.00
00873            -580.00     3360.00
00874            -540.00     3200.00
00875            -560.00     3280.00
00876            -540.00     3200.00
00877            -540.00     3120.00
00878            -540.00     3120.00
00879            -540.00     3040.00
00880            -540.00     3040.00
00881            -520.00     3040.00
00882            -520.00     2960.00
00883            -520.00     2880.00
00884            -520.00     2880.00
00885            -520.00     2800.00
00886            -500.00     2800.00
00887            -500.00     2800.00
00888            -500.00     2720.00
00889            -480.00     2720.00
00890            -500.00     2720.00
00891            -480.00     2560.00
00892            -500.00     2560.00
00893            -460.00     2560.00
00894            -460.00     2560.00
00895            -460.00     2480.00
00896            -460.00     2480.00
00897            -460.00     2400.00
00898            -460.00     2400.00
00899            -440.00     2320.00
00900            -440.00     2240.00
00901            -440.00     2240.00
00902            -420.00     2160.00
00903            -420.00     2160.00
00904            -420.00     2080.00
00905            -420.00     2160.00
00906            -380.00     2080.00
00907            -380.00     2000.00
00908            -380.00     1920.00
00909            -380.00     1920.00
00910            -380.00     1920.00
00911            -360.00     1840.00
00912            -380.00     1760.00
00913            -360.00     1760.00
00914            -360.00     1760.00
00915            -360.00     1680.00
00916            -340.00     1600.00
00917            -340.00     1600.00
00918            -340.00     1600.00
00919            -340.00     1600.00
00920            -300.00     1520.00
00921            -300.00     1520.00
00922            -300.00     1440.00
00923            -300.00     1440.00
00924            -280.00     1360.00
00925            -280.00     1280.00
00926            -280.00     1280.00
00927            -280.00     1200.00
00928            -280.00     1200.00
00929            -260.00     1200.00
00930            -260.00     1120.00
00931            -260.00     1120.00
00932            -220.00     1120.00
00933            -260.00      960.00
00934            -220.00      960.00
00935            -220.00      960.00
00936            -220.00      960.00
00937            -220.00      880.00
00938            -200.00      800.00
00939            -220.00      800.00
00940            -200.00      720.00
00941            -200.00      640.00
00942            -180.00      640.00
00943            -200.00      640.00
00944            -180.00      560.00
00945            -160.00      480.00
00946            -140.00      480.00
00947            -140.00      480.00
00948            -140.00      400.00
00949            -140.00      400.00
00950            -140.00      320.00
00951            -120.00      320.00
00952            -120.00      240.00
00953            -120.00      240.00
00954            -120.00      160.00
00955            -100.00      160.00
00956            -120.00       80.00
00957            -100.00        0.00
00958            -100.00        0.00
00959            -100.00        0.00
00960            -100.00      -80.00
00961            -100.00     -160.00
00962             -60.00     -160.00
00963             -60.00     -160.00
00964             -60.00     -240.00
00965             -60.00     -320.00
00966             -60.00     -320.00
00967             -40.00     -320.00
00968             -40.00     -320.00
00969             -20.00     -400.00
00970             -20.00     -480.00
00971             -20.00     -640.00
00972             -40.00     -720.00
00973             -20.00     -560.00
00974              40.00     -560.00
00975              20.00     -720.00
00976             -20.00     -880.00
00977              20.00     -640.00
00978              40.00     -800.00
00979              20.00     -960.00
00980              40.00     -880.00
00981              60.00     -800.00
00982              40.00    -1040.00
00983              40.00    -1040.00
00984             100.00    -1040.00
00985              60.00    -1120.00
00986              60.00    -1120.00
00987             100.00    -1120.00
00988             100.00    -1280.00
00989             100.00    -1280.00
00990             120.00    -1280.00
00991             120.00    -1360.00
00992             120.00    -1360.00
00993             120.00    -1360.00
00994             120.00    -1440.00
00995             140.00    -1440.00
00996             140.00    -1520.00
00997             180.00    -1600.00
00998             180.00    -1600.00
00999             180.00    -1600.00
01000             180.00    -1680.00
01001             180.00    -1680.00
01002             200.00    -1760.00
01003             200.00    -1840.00
01004             200.00    -1760.00
01005             200.00    -1840.00
01006             200.00    -1920.00
01007             220.00    -1920.00
01008             220.00    -1920.00
01009             220.00    -2000.00
01010             220.00    -2080.00
01011             260.00    -2080.00
01012             260.00    -2080.00
01013             260.00    -2240.00
01014             280.00    -2240.00
01015             260.00    -2320.00
01016             280.00    -2320.00
01017             260.00    -2400.00
01018             300.00    -2400.00
01019             280.00    -2400.00
01020             300.00    -2480.00
01021             280.00    -2480.00
01022             320.00    -2560.00
01023             300.00    -2560.00
01024             340.00    -2560.00
01025             300.00    -2640.00
01026             340.00    -2640.00
01027             340.00    -2720.00
01028             340.00    -2800.00
01029             340.00    -2800.00
01030             360.00    -2800.00
01031             360.00    -2880.00
01032             360.00    -2960.00
01033             360.00    -2960.00
01034             360.00    -2960.00
01035             380.00    -3040.00
01036             380.00    -3040.00
01037             380.00    -3120.00
01038             420.00    -3200.00
01039             400.00    -3200.00
01040             420.00    -3200.00
01041             420.00    -3280.00
01042             420.00    -3280.00
01043             420.00    -3360.00
01044             420.00    -3360.00
01045             420.00    -3360.00
01046             440.00    -3440.00
01047             440.00    -3440.00
01048             440.00    -3520.00
01049             460.00    -3520.00
01050             460.00    -3600.00
01051             480.00    -3600.00
01052             500.00    -3600.00
01053             500.00    -3680.00
01054             500.00    -3680.00
01055             500.00    -3680.00
01056             500.00    -3680.00
01057             500.00    -3840.00
01058             520.00    -3840.00
01059             520.00    -3840.00
01060             520.00    -3920.00
01061             520.00    -3920.00
01062             540.00    -3920.00
01063             560.00    -4000.00
01064             540.00    -4000.00
01065             540.00    -4000.00
01066             580.00    -4000.00
01067             580.00    -4160.00
01068             580.00    -4160.00
01069             580.00    -4160.00
01070             580.00    -4240.00
01071             600.00    -4240.00
01072             600.00    -4320.00
01073             600.00    -4320.00
01074             600.00    -4320.00
01075             620.00    -4320.00
01076             620.00    -4400.00
01077             600.00    -4400.00
01078             620.00    -4480.00
01079             620.00    -4480.00
01080             620.00    -4480.00
01081             640.00    -4560.00
01082             660.00    -4560.00
01083             640.00    -4560.00
01084             660.00    -4640.00
01085             660.00    -4640.00
01086             660.00    -4720.00
01087             660.00    -4720.00
01088             680.00    -4800.00
01089             680.00    -4800.00
01090             660.00    -4800.00
01091             680.00    -4800.00
01092             680.00    -4880.00
01093             680.00    -4880.00
01094             680.00    -4960.00
01095             700.00    -4960.00
01096             680.00    -4960.00
01097             700.00    -5040.00
01098             740.00    -4960.00
01099             700.00    -5120.00
01100             740.00    -5120.00
01101             740.00    -5120.00
01102             740.00    -5120.00
01103             740.00    -5120.00
01104             740.00    -5200.00
01105             740.00    -5200.00
01106             760.00    -5200.00
01107             740.00    -5200.00
01108             760.00    -5280.00
01109             760.00    -5200.00
01110             760.00    -5280.00
01111             760.00    -5280.00
01112             760.00    -5440.00
01113             780.00    -5360.00
01114             780.00    -5440.00
01115             780.00    -5360.00
01116             800.00    -5440.00
01117             820.00    -5440.00
01118             780.00    -5440.00
01119             780.00    -5520.00
01120             820.00    -5520.00
01121             820.00    -5520.00
01122             820.00    -5600.00
01123             820.00    -5600.00
01124             820.00    -5600.00
01125             840.00    -5600.00
01126             840.00    -5680.00
01127             840.00    -5680.00
01128             840.00    -5760.00
01129             840.00    -5760.00
01130             840.00    -5760.00
01131             840.00    -5760.00
01132             840.00    -5840.00
01133             860.00    -5760.00
01134             860.00    -5840.00
01135             860.00    -5840.00
01136             860.00    -5840.00
01137             860.00    -5840.00
01138             860.00    -5920.00
01139             880.00    -5920.00
01140             860.00    -5920.00
01141             880.00    -5920.00
01142             900.00    -5920.00
01143             900.00    -6000.00
01144             900.00    -6000.00
01145             860.00    -6000.00
01146             900.00    -6000.00
01147             920.00    -6080.00
01148             900.00    -6080.00
01149             900.00    -6080.00
01150             900.00    -6080.00
01151             900.00    -6080.00
01152             900.00    -6160.00
01153             920.00    -6160.00
01154             920.00    -6160.00
01155             920.00    -6160.00
01156             920.00    -6160.00
01157             920.00    -6160.00
01158             900.00    -6160.00
01159             920.00    -6160.00
01160             920.00    -6240.00
01161             920.00    -6160.00
01162             920.00    -6240.00
01163             920.00    -6240.00
01164             920.00    -6240.00
01165             920.00    -6320.00
01166             920.00    -6320.00
01167             940.00    -6240.00
01168             920.00    -6320.00
01169             940.00    -6400.00
01170             940.00    -6400.00
01171             940.00    -6400.00
01172             940.00    -6400.00
01173             980.00    -6320.00
01174             960.00    -6400.00
01175             940.00    -6400.00
01176             960.00    -6400.00
01177             980.00    -6400.00
01178             940.00    -6400.00
01179             980.00    -6400.00
01180             980.00    -6400.00
01181             980.00    -6400.00
01182             980.00    -6400.00
01183             980.00    -6400.00
01184             980.00    -6480.00
01185             980.00    -6400.00
01186             980.00    -6480.00
01187             980.00    -6480.00
01188            1000.00    -6480.00
01189            1000.00    -6480.00
01190            1000.00    -6480.00
01191            1000.00    -6480.00
01192            1000.00    -6480.00
01193            1000.00    -6480.00
01194            1000.00    -6480.00
01195            1000.00    -6560.00
01196            1000.00    -6480.00
01197            1000.00    -6480.00
01198            1000.00    -6480.00
01199            1000.00    -6480.00
01200            1000.00    -6560.00
01201            1000.00    -6560.00
01202            1000.00    -6560.00
01203            1000.00    -6480.00
01204            1000.00    -6560.00
01205            1000.00    -6560.00
01206            1020.00    -6480.00
01207            1000.00    -6480.00
01208            1000.00    -6560.00
01209            1000.00    -6480.00
01210            1000.00    -6560.00
01211            1000.00    -6560.00
01212            1020.00    -6560.00
01213            1020.00    -6560.00
01214            1000.00    -6480.00
01215            1020.00    -6560.00
01216            1000.00    -6480.00
01217            1000.00    -6480.00
01218            1000.00    -6480.00
01219            1000.00    -6480.00
01220            1000.00    -6480.00
01221            1000.00    -6560.00
01222            1000.00    -6480.00
01223            1000.00    -6480.00
01224            1000.00    -6480.00
01225            1000.00    -6480.00
01226            1000.00    -6560.00
01227            1000.00    -6480.00
01228            1000.00    -6480.00
01229            1000.00    -6480.00
01230            1000.00    -6480.00
01231            1000.00    -6480.00
01232            1000.00    -6480.00
01233            1000.00    -6400.00
01234            1000.00    -6480.00
01235            1020.00    -6400.00
01236            1000.00    -6400.00
01237            1000.00    -6400.00
01238            1000.00    -6480.00
01239            1000.00    -6480.00
01240            1000.00    -6400.00
01241            1000.00    -6400.00
01242            1000.00    -6480.00
01243            1000.00    -6400.00
01244            1000.00    -6400.00
01245            1000.00    -6400.00
01246            1000.00    -6400.00
01247            1000.00    -6400.00
01248            1000.00    -6320.00
01249            1000.00    -6320.00
01250            1000.00    -6240.00
01251            1000.00    -6320.00
01252            1000.00    -6320.00
01253            1000.00    -6240.00
01254            1000.00    -6240.00
01255            1000.00    -6240.00
01256            1000.00    -6240.00
01257            1000.00    -6240.00
01258            1000.00    -6240.00
01259            1000.00    -6240.00
01260            1000.00    -6240.00
01261            1000.00    -6240.00
01262            1000.00    -6240.00
01263            1000.00    -6160.00
01264            1000.00    -6160.00
01265             980.00    -6080.00
01266             980.00    -6160.00
01267             980.00    -6080.00
01268            1000.00    -6160.00
01269             980.00    -6080.00
01270             980.00    -6080.00
01271             980.00    -6080.00
01272             980.00    -6000.00
01273             980.00    -5920.00
01274             980.00    -6000.00
01275             980.00    -6000.00
01276             980.00    -5920.00
01277             960.00    -5920.00
01278             980.00    -5920.00
01279             980.00    -5920.00
01280             960.00    -5920.00
01281             980.00    -5840.00
01282             940.00    -5920.00
01283             940.00    -5840.00
01284             940.00    -5920.00
01285             920.00    -5760.00
01286             920.00    -5840.00
01287             920.00    -5760.00
01288             940.00    -5760.00
01289             940.00    -5760.00
01290             920.00    -5760.00
01291             920.00    -5760.00
01292             900.00    -5680.00
01293             920.00    -5680.00
01294             920.00    -5680.00
01295             920.00    -5600.00
01296             900.00    -5600.00
01297             900.00    -5600.00
01298             900.00    -5520.00
01299             900.00    -5520.00
01300             900.00    -5520.00
01301             900.00    -5440.00
01302             900.00    -5440.00
01303             880.00    -5440.00
01304             880.00    -5440.00
01305             900.00    -5440.00
01306             900.00    -5360.00
01307             860.00    -5360.00
01308             880.00    -5280.00
01309             860.00    -5280.00
01310             900.00    -5280.00
01311             860.00    -5280.00
01312             860.00    -5280.00
01313             860.00    -5200.00
01314             860.00    -5200.00
01315             860.00    -5200.00
01316             860.00    -5200.00
01317             840.00    -5120.00
01318             840.00    -5120.00
01319             840.00    -5120.00
01320             840.00    -5120.00
01321             840.00    -5120.00
01322             840.00    -5040.00
01323             840.00    -4960.00
01324             840.00    -4960.00
01325             820.00    -4880.00
01326             820.00    -4880.00
01327             840.00    -4880.00
01328             820.00    -4800.00
01329             820.00    -4800.00
01330             820.00    -4800.00
01331             820.00    -4800.00
01332             820.00    -4800.00
01333             820.00    -4640.00
01334             820.00    -4640.00
01335             780.00    -4640.00
01336             780.00    -4640.00
01337             780.00    -4560.00
01338             760.00    -4560.00
01339             780.00    -4560.00
01340             760.00    -4560.00
01341             780.00    -4400.00
01342             760.00    -4400.00
01343             760.00    -4480.00
01344             740.00    -4320.00
01345             740.00    -4320.00
01346             740.00    -4320.00
01347             740.00    -4320.00
01348             740.00    -4240.00
01349             720.00    -4240.00
01350             700.00    -4160.00
01351             700.00    -4160.00
01352             700.00    -4160.00
01353             680.00    -4160.00
01354             700.00    -4000.00
01355             700.00    -4000.00
01356             680.00    -4000.00
01357             680.00    -4000.00
01358             680.00    -3920.00
01359             680.00    -3920.00
01360             680.00    -3840.00
01361             660.00    -3840.00
01362             660.00    -3840.00
01363             660.00    -3840.00
01364             660.00    -3760.00
01365             660.00    -3680.00
01366             660.00    -3680.00
01367             640.00    -3680.00
01368             620.00    -3680.00
01369             620.00    -3600.00
01370             640.00    -3520.00
01371             620.00    -3520.00
01372             600.00    -3520.00
01373             600.00    -3520.00
01374             600.00    -3360.00
01375             600.00    -3440.00
01376             600.00    -3360.00
01377             600.00    -3360.00
01378             600.00    -3280.00
01379             580.00    -3280.00
01380             580.00    -3200.00
01381             580.00    -3200.00
01382             580.00    -3200.00
01383             560.00    -3120.00
01384             560.00    -3040.00
01385             540.00    -2960.00
01386             580.00    -3040.00
01387             540.00    -2960.00
01388             540.00    -2960.00
01389             540.00    -2880.00
01390             540.00    -2880.00
01391             540.00    -2880.00
01392             520.00    -2720.00
01393             520.00    -2720.00
01394             520.00    -2720.00
01395             500.00    -2720.00
01396             500.00    -2640.00
01397             500.00    -2640.00
01398             500.00    -2560.00
01399             500.00    -2560.00
01400             460.00    -2560.00
01401             500.00    -2480.00
01402             460.00    -2400.00
01403             460.00    -2400.00
01404             460.00    -2320.00
01405             440.00    -2320.00
01406             440.00    -2320.00
01407             440.00    -2240.00
01408             440.00    -2240.00
01409             420.00    -2160.00
01410             420.00    -2080.00
01411             420.00    -2080.00
01412             420.00    -2000.00
01413             380.00    -2000.00
01414             420.00    -1920.00
01415             380.00    -1920.00
01416             380.00    -1840.00
01417             380.00    -1920.00
01418             360.00    -1760.00
01419             360.00    -1760.00
01420             360.00    -1760.00
01421             360.00    -1680.00
01422             340.00    -1680.00
01423             340.00    -1600.00
01424             340.00    -1520.00
01425             320.00    -1600.00
01426             340.00    -1520.00
01427             320.00    -1520.00
01428             340.00    -1440.00
01429             300.00    -1440.00
01430             280.00    -1360.00
01431             280.00    -1360.00
01432             300.00    -1280.00
01433             280.00    -1200.00
01434             280.00    -1280.00
01435             260.00    -1120.00
01436             260.00    -1120.00
01437             260.00    -1120.00
01438             260.00    -1040.00
01439             260.00     -960.00
01440             260.00     -960.00
01441             260.00     -960.00
01442             220.00     -880.00
01443             220.00     -800.00
01444             220.00     -800.00
01445             220.00     -800.00
01446             220.00     -800.00
01447             200.00     -720.00
01448             200.00     -640.00
01449             200.00     -640.00
01450             200.00     -640.00
01451             180.00     -560.00
01452             180.00     -480.00
01453             180.00     -480.00
01454             180.00     -400.00
01455             160.00     -400.00
01456             140.00     -320.00
01457             140.00     -320.00
01458             140.00     -240.00
01459             140.00     -160.00
01460             140.00     -160.00
01461             120.00     -160.00
01462             120.00      -80.00
01463             120.00      -80.00
01464             100.00        0.00
01465             100.00        0.00
01466             100.00       80.00
01467             100.00      160.00
01468              80.00      160.00
01469              80.00      160.00
01470              60.00      240.00
01471              40.00      240.00
01472              60.00      320.00
01473              40.00      400.00
01474              40.00      320.00
01475              20.00      480.00
01476              40.00      480.00
01477              40.00      560.00
01478               0.00      560.00
01479             -20.00      480.00
01480             -20.00      560.00
01481              20.00      800.00
01482              20.00      800.00
01483             -40.00      560.00
01484             -40.00      800.00
01485               0.00      960.00
01486             -60.00      800.00
01487             -60.00      880.00
01488             -20.00     1120.00
01489             -40.00     1040.00
01490             -80.00      880.00
01491             -60.00     1120.00
01492             -60.00     1200.00
01493            -120.00     1120.00
01494             -60.00     1200.00
01495             -80.00     1280.00
01496            -120.00     1200.00
01497            -100.00     1280.00
01498            -100.00     1360.00
01499            -140.00     1440.00
01500            -120.00     1440.00
01501            -120.00     1520.00
01502            -140.00     1440.00
01503            -140.00     1600.00
01504            -140.00     1600.00
01505            -180.00     1600.00
01506            -140.00     1760.00
01507            -140.00     1760.00
01508            -180.00     1840.00
01509            -160.00     1840.00
01510            -180.00     1760.00
01511            -220.00     1920.00
01512            -200.00     1920.00
01513            -220.00     1920.00
01514            -220.00     2000.00
01515            -200.00     2080.00
01516            -220.00     2160.00
01517            -220.00     2160.00
01518            -220.00     2240.00
01519            -240.00     2160.00
01520            -240.00     2240.00
01521            -260.00     2320.00
01522            -260.00     2320.00
01523            -280.00     2320.00
01524            -280.00     2400.00
01525            -280.00     2480.00
01526            -280.00     2400.00
01527            -280.00     2480.00
01528            -280.00     2560.00
01529            -280.00     2560.00
01530            -300.00     2640.00
01531            -300.00     2720.00
01532            -300.00     2720.00
01533            -340.00     2800.00
01534            -340.00     2800.00
01535            -340.00     2800.00
01536            -340.00     2800.00
01537            -340.00     2880.00
01538            -360.00     2880.00
01539            -360.00     2960.00
01540            -360.00     3040.00
01541            -380.00     3040.00
01542            -380.00     3040.00
01543            -380.00     3120.00
01544            -380.00     3280.00
01545            -420.00     3200.00
01546            -420.00     3200.00
01547            -420.00     3280.00
01548            -420.00     3360.00
01549            -440.00     3360.00
01550            -440.00     3360.00
01551            -420.00     3440.00
01552            -440.00     3360.00
01553            -460.00     3440.00
01554            -440.00     3520.00
01555            -460.00     3520.00
01556            -460.00     3600.00
01557            -460.00     3680.00
01558            -480.00     3680.00
01559            -500.00     3680.00
01560            -500.00     3680.00
01561            -500.00     3760.00
01562            -500.00     3760.00
01563            -500.00     3840.00
01564            -500.00     3840.00
01565            -520.00     3840.00
01566            -520.00     3920.00
01567            -520.00     4000.00
01568            -540.00     4000.00
01569            -520.00     4000.00
01570            -540.00     4080.00
01571            -540.00     4080.00
01572            -540.00     4160.00
01573            -540.00     4160.00
01574            -540.00     4160.00
01575            -560.00     4240.00
01576            -560.00     4240.00
01577            -580.00     4240.00
01578            -580.00     4320.00
01579            -600.00     4320.00
01580            -600.00     4320.00
01581            -600.00     4400.00
01582            -600.00     4400.00
01583            -620.00     4480.00
01584            -600.00     4480.00
01585            -600.00     4480.00
01586            -600.00     4560.00
01587            -620.00     4640.00
01588            -620.00     4640.00
01589            -620.00     4640.00
01590            -620.00     4640.00
01591            -620.00     4720.00
01592            -640.00     4720.00
01593            -640.00     4720.00
01594            -620.00     4800.00
01595            -660.00     4800.00
01596            -680.00     4800.00
01597            -660.00     4800.00
01598            -660.00     4880.00
01599            -680.00     4880.00
01600            -680.00     4960.00
01601            -680.00     5040.00
01602            -700.00     4960.00
01603            -700.00     5040.00
01604            -700.00     5040.00
01605            -700.00     5040.00
01606            -700.00     5120.00
01607            -720.00     5120.00
01608            -740.00     5120.00
01609            -720.00     5120.00
01610            -740.00     5200.00
01611            -760.00     5200.00
01612            -740.00     5280.00
01613            -760.00     5280.00
01614            -760.00     5360.00
01615            -760.00     5280.00
01616            -760.00     5360.00
01617            -760.00     5440.00
01618            -760.00     5360.00
01619            -780.00     5440.00
01620            -780.00     5440.00
01621            -760.00     5440.00
01622            -780.00     5440.00
01623            -780.00     5520.00
01624            -780.00     5440.00
01625            -800.00     5600.00
01626            -780.00     5600.00
01627            -820.00     5600.00
01628            -840.00     5600.00
01629            -820.00     5600.00
01630            -820.00     5680.00
01631            -820.00     5680.00
01632            -840.00     5680.00
01633            -820.00     5840.00
01634            -840.00     5760.00
01635            -840.00     5840.00
01636            -840.00     5840.00
01637            -840.00     5840.00
01638            -840.00     5840.00
01639            -840.00     5840.00
01640            -840.00     5920.00
01641            -840.00     5920.00
01642            -860.00     5920.00
01643            -860.00     5920.00
01644            -860.00     5920.00
01645            -860.00     6000.00
01646            -860.00     6000.00
01647            -860.00     6000.00
01648            -860.00     6000.00
01649            -880.00     6000.00
01650            -860.00     6000.00
01651            -860.00     6000.00
01652            -860.00     6080.00
01653            -900.00     6080.00
01654            -880.00     6080.00
01655            -900.00     6080.00
01656            -900.00     6080.00
01657            -900.00     6160.00
01658            -900.00     6240.00
01659            -900.00     6240.00
01660            -900.00     6240.00
01661            -920.00     6240.00
01662            -920.00     6240.00
01663            -920.00     6240.00
01664            -920.00     6240.00
01665            -920.00     6320.00
01666            -920.00     6240.00
01667            -920.00     6320.00
01668            -920.00     6320.00
01669            -920.00     6320.00
01670            -920.00     6320.00
01671            -920.00     6400.00
01672            -940.00     6400.00
01673            -940.00     6320.00
01674            -940.00     6400.00
01675            -940.00     6400.00
01676            -960.00     6400.00
01677            -940.00     6400.00
01678            -960.00     6400.00
01679            -980.00     6400.00
01680            -940.00     6400.00
01681            -960.00     6400.00
01682            -980.00     6480.00
01683            -960.00     6480.00
01684            -980.00     6480.00
01685            -960.00     6480.00
01686            -980.00     6400.00
01687            -980.00     6560.00
01688            -980.00     6480.00
01689            -980.00     6480.00
01690            -980.00     6560.00
01691            -980.00     6560.00
01692            -980.00     6560.00
01693           -1000.00     6560.00
01694            -980.00     6560.00
01695           -1000.00     6560.00
01696            -980.00     6560.00
01697           -1000.00     6560.00
01698           -1000.00     6560.00
01699           -1000.00     6560.00
01700           -1000.00     6560.00
01701           -1000.00     6560.00
01702            -980.00     6640.00
01703           -1000.00     6640.00
01704           -1000.00     6560.00
01705           -1000.00     6640.00
01706            -980.00     6560.00
01707           -1000.00     6640.00
01708           -1000.00     6640.00
01709           -1000.00     6560.00
01710            -980.00     6640.00
01711           -1000.00     6640.00
01712           -1000.00     6640.00
01713           -1000.00     6560.00
01714           -1000.00     6640.00
01715           -1000.00     6560.00
01716           -1000.00     6560.00
01717           -1000.00     6640.00
01718           -1020.00     6640.00
01719           -1000.00     6640.00
01720           -1000.00     6640.00
01721           -1000.00     6560.00
01722           -1020.00     6640.00
01723           -1000.00     6640.00
01724           -1000.00     6640.00
01725           -1020.00     6640.00
01726           -1020.00     6640.00
01727           -1020.00     6640.00
01728           -1020.00     6560.00
01729           -1020.00     6640.00
01730           -1000.00     6560.00
01731           -1000.00     6640.00
01732           -1020.00     6560.00
01733           -1020.00     6560.00
01734           -1020.00     6560.00
01735           -1020.00     6560.00
01736           -1020.00     6560.00
01737           -1000.00     6640.00
01738           -1000.00     6560.00
01739           -1020.00     6560.00
01740           -1000.00     6560.00
01741           -1020.00     6560.00
01742           -1000.00     6480.00
01743           -1000.00     6560.00
01744           -1020.00     6560.00
01745           -1020.00     6560.00
01746           -1020.00     6560.00
01747           -1000.00     6480.00
01748           -1020.00     6480.00
01749           -1000.00     6400.00
01750           -1000.00     6400.00
01751           -1020.00     6400.00
01752           -1020.00     6480.00
01753           -1020.00     6400.00
01754           -1020.00     6400.00
01755           -1000.00     6400.00
01756           -1000.00     6480.00
01757           -1000.00     6400.00
01758           -1000.00     6400.00
01759           -1000.00     6400.00
01760           -1000.00     6400.00
01761            -980.00     6400.00
01762           -1000.00     6320.00
01763           -1000.00     6400.00
01764           -1000.00     6320.00
01765            -980.00     6320.00
01766            -980.00     6320.00
01767            -980.00     6320.00
01768            -980.00     6320.00
01769            -980.00     6320.00
01770           -1000.00     6320.00
01771            -980.00     6320.00
01772            -960.00     6240.00
01773            -980.00     6240.00
01774            -980.00     6240.00
01775            -980.00     6240.00
01776            -980.00     6240.00
01777            -980.00     6240.00
01778            -960.00     6160.00
01779            -960.00     6080.00
01780            -940.00     6160.00
01781            -960.00     6080.00
01782            -980.00     6080.00
01783            -940.00     6080.00
01784            -940.00     6080.00
01785            -940.00     6080.00
01786            -940.00     6000.00
01787            -940.00     6000.00
01788            -940.00     6000.00
01789            -940.00     6000.00
01790            -940.00     6000.00
01791            -920.00     5920.00
01792            -940.00     5920.00
01793            -940.00     6000.00
01794            -920.00     5920.00
01795            -920.00     5920.00
01796            -920.00     5840.00
01797            -920.00     5840.00
01798            -940.00     5840.00
01799            -920.00     5760.00
01800            -920.00     5840.00
01801            -920.00     5760.00
01802            -920.00     5760.00
01803            -920.00     5760.00
01804            -920.00     5760.00
01805            -920.00     5680.00
01806            -920.00     5680.00
01807            -920.00     5680.00
01808            -920.00     5600.00
01809            -920.00     5600.00
01810            -900.00     5600.00
01811            -900.00     5440.00
01812            -900.00     5440.00
01813            -900.00     5520.00
01814            -880.00     5440.00
01815            -900.00     5520.00
01816            -860.00     5440.00
01817            -900.00     5360.00
01818            -880.00     5440.00
01819            -880.00     5360.00
01820            -860.00     5360.00
01821            -880.00     5360.00
01822            -860.00     5280.00
01823            -860.00     5280.00
01824            -860.00     5280.00
01825            -840.00     5200.00
01826            -860.00     5200.00
01827            -860.00     5120.00
01828            -840.00     5120.00
01829            -840.00     5120.00
01830            -840.00     5120.00
01831            -840.00     5120.00
01832            -820.00     5040.00
01833            -820.00     5040.00
01834            -820.00     5040.00
01835            -820.00     4960.00
01836            -820.00     4960.00
01837            -820.00     4960.00
01838            -780.00     4880.00
01839            -820.00     4880.00
01840            -780.00     4800.00
01841            -780.00     4800.00
01842            -780.00     4800.00
01843            -760.00     4720.00
01844            -780.00     4720.00
01845            -760.00     4720.00
01846            -780.00     4640.00
01847            -760.00     4640.00
01848            -760.00     4560.00
01849            -780.00     4480.00
01850            -760.00     4480.00
01851            -760.00     4480.00
01852            -760.00     4480.00
01853            -740.00     4400.00
01854            -760.00     4480.00
01855            -740.00     4400.00
01856            -740.00     4400.00
01857            -720.00     4320.00
01858            -700.00     4320.00
01859            -720.00     4320.00
01860            -720.00     4240.00
01861            -700.00     4160.00
01862            -700.00     4160.00
01863            -700.00     4160.00
01864            -700.00     4080.00
01865            -700.00     4080.00
01866            -680.00     4000.00
01867            -700.00     4000.00
01868            -680.00     3920.00
01869            -680.00     4000.00
01870            -680.00     3840.00
01871            -680.00     3840.00
01872            -680.00     3840.00
01873            -680.00     3840.00
01874            -660.00     3760.00
01875            -640.00     3760.00
01876            -660.00     3680.00
01877            -660.00     3680.00
01878            -620.00     3680.00
01879            -620.00     3600.00
01880            -620.00     3520.00
01881            -620.00     3600.00
01882            -620.00     3520.00
01883            -620.00     3520.00
01884            -600.00     3440.00
01885            -600.00     3440.00
01886            -620.00     3440.00
01887            -600.00     3360.00
01888            -600.00     3360.00
01889            -580.00     3200.00
01890            -600.00     3280.00
01891            -580.00     3200.00
01892            -540.00     3120.00
01893            -580.00     3120.00
01894            -540.00     3120.00
01895            -540.00     3040.00
01896            -540.00     3040.00
01897            -540.00     2960.00
01898            -540.00     2960.00
01899            -520.00     2880.00
01900            -520.00     2880.00
01901            -520.00     2800.00
01902            -520.00     2800.00
01903            -500.00     2720.00
01904            -500.00     2720.00
01905            -500.00     2720.00
01906            -500.00     2640.00
01907            -480.00     2640.00
01908            -460.00     2560.00
01909            -460.00     2560.00
01910            -460.00     2560.00
01911            -460.00     2480.00
01912            -460.00     2480.00
01913            -440.00     2400.00
01914            -440.00     2400.00
01915            -440.00     2320.00
01916            -440.00     2240.00
01917            -420.00     2240.00
01918            -420.00     2240.00
01919            -420.00     2160.00
01920            -400.00     2160.00
01921            -420.00     2080.00
01922            -380.00     2000.00
01923            -380.00     2000.00
01924            -380.00     2000.00
01925            -380.00     1920.00
01926            -380.00     1920.00
01927            -380.00     1840.00
01928            -360.00     1840.00
01929            -360.00     1760.00
01930            -360.00     1760.00
01931            -340.00     1760.00
01932            -340.00     1680.00
01933            -340.00     1680.00
01934            -340.00     1600.00
01935            -320.00     1600.00
01936            -340.00     1520.00
01937            -300.00     1440.00
01938            -300.00     1440.00
01939            -300.00     1440.00
01940            -300.00     1360.00
01941            -300.00     1280.00
01942            -300.00     1280.00
01943            -280.00     1200.00
01944            -280.00     1280.00
01945            -280.00     1120.00
01946            -280.00     1120.00
01947            -280.00     1040.00
01948            -260.00     1120.00
01949            -260.00      960.00
01950            -240.00      960.00
01951            -220.00      960.00
01952            -220.00      880.00
01953            -220.00      880.00
01954            -220.00      800.00
01955            -220.00      800.00
01956            -220.00      800.00
01957            -220.00      720.00
01958            -200.00      640.00
01959            -200.00      720.00
01960            -200.00      560.00
01961            -180.00      560.00
01962            -180.00      480.00
01963            -180.00      400.00
01964            -160.00      400.00
01965            -140.00      320.00
01966            -140.00      320.00
01967            -120.00      240.00
01968            -120.00      240.00
01969            -120.00      160.00
01970            -120.00      160.00
01971            -100.00      160.00
01972            -120.00      160.00
01973            -100.00        0.00
01974             -80.00        0.00
01975             -60.00        0.00
01976             -60.00      -80.00
01977             -60.00     -160.00
01978             -60.00      -80.00
01979             -40.00     -160.00
01980             -60.00     -160.00
01981             -40.00     -240.00
01982             -40.00     -320.00
01983             -40.00     -320.00
01984             -40.00     -320.00
01985             -20.00     -400.00
01986               0.00     -400.00
01987              20.00     -640.00
01988             -40.00     -720.00
01989             -20.00     -720.00
01990              40.00     -480.00
01991              40.00     -640.00
01992               0.00     -800.00
01993              20.00     -800.00
01994              60.00     -720.00
01995              40.00     -960.00
01996              40.00     -960.00
01997              60.00     -800.00
01998              60.00     -960.00
01999              40.00    -1120.00
02000              60.00     -960.00
02001             100.00    -1120.00
02002              40.00    -1120.00
02003             100.00    -1120.00
02004             100.00    -1200.00
02005             100.00    -1360.00
02006             100.00    -1280.00
02007             120.00    -1360.00
02008             100.00    -1440.00
02009             120.00    -1360.00
02010             120.00    -1440.00
02011             120.00    -1440.00
02012             140.00    -1520.00
02013             140.00    -1600.00
02014             140.00    -1600.00
02015             180.00    -1680.00
02016             180.00    -1680.00
02017             180.00    -1680.00
02018             180.00    -1760.00
02019             180.00    -1760.00
02020             180.00    -1840.00
02021             200.00    -1840.00
02022             200.00    -1920.00
02023             200.00    -2000.00
02024             200.00    -2000.00
02025             220.00    -2000.00
02026             220.00    -2080.00
02027             220.00    -2080.00
02028             240.00    -2080.00
02029             260.00    -2160.00
02030             260.00    -2240.00
02031             260.00    -2320.00
02032             280.00    -2400.00
02033             260.00    -2320.00
02034             280.00    -2400.00
02035             280.00    -2400.00
02036             300.00    -2480.00
02037             300.00    -2560.00
02038             300.00    -2560.00
02039             320.00    -2560.00
02040             320.00    -2640.00
02041             340.00    -2640.00
02042             340.00    -2640.00
02043             340.00    -2720.00
02044             360.00    -2720.00
02045             360.00    -2800.00
02046             340.00    -2880.00
02047             360.00    -2880.00
02048             360.00    -2880.00
02049             380.00    -2960.00
02050             380.00    -2960.00
02051             360.00    -3040.00
02052             380.00    -3040.00
02053             420.00    -3040.00
02054             400.00    -3200.00
02055             420.00    -3120.00
02056             420.00    -3200.00
02057             420.00    -3280.00
02058             420.00    -3280.00
02059             420.00    -3280.00
02060             440.00    -3360.00
02061             440.00    -3360.00
02062             440.00    -3360.00
02063             440.00    -3440.00
02064             440.00    -3520.00
02065             440.00    -3520.00
02066             460.00    -3520.00
02067             460.00    -3600.00
02068             480.00    -3600.00
02069             500.00    -3600.00
02070             500.00    -3680.00
02071             500.00    -3680.00
02072             500.00    -3760.00
02073             500.00    -3760.00
02074             520.00    -3840.00
02075             520.00    -3840.00
02076             520.00    -3840.00
02077             520.00    -3840.00
02078             540.00    -4000.00
02079             520.00    -4000.00
02080             540.00    -3920.00
02081             540.00    -4000.00
02082             560.00    -4160.00
02083             540.00    -4160.00
02084             580.00    -4080.00
02085             580.00    -4160.00
02086             580.00    -4160.00
02087             580.00    -4240.00
02088             580.00    -4240.00
02089             580.00    -4320.00
02090             600.00    -4320.00
02091             600.00    -4320.00
02092             580.00    -4400.00
02093             600.00    -4320.00
02094             600.00    -4480.00
02095             640.00    -4480.00
02096             620.00    -4560.00
02097             660.00    -4480.00
02098             660.00    -4560.00
02099             660.00    -4560.00
02100             660.00    -4560.00
02101             660.00    -4640.00
02102             660.00    -4640.00
02103             660.00    -4640.00
02104             680.00    -4800.00
02105             660.00    -4720.00
02106             680.00    -4800.00
02107             680.00    -4800.00
02108             680.00    -4880.00
02109             680.00    -4880.00
02110             700.00    -4880.00
02111             700.00    -4960.00
02112             700.00    -4960.00
02113             700.00    -4960.00
02114             700.00    -4960.00
02115             740.00    -5120.00
02116             720.00    -5040.00
02117             740.00    -5120.00
02118             740.00    -5120.00
02119             740.00    -5120.00
02120             740.00    -5120.00
02121             740.00    -5120.00
02122             740.00    -5200.00
02123             760.00    -5200.00
02124             760.00    -5280.00
02125             760.00    -5280.00
02126             760.00    -5280.00
02127             760.00    -5280.00
02128             760.00    -5360.00
02129             780.00    -5440.00
02130             780.00    -5360.00
02131             780.00    -5440.00
02132             780.00    -5440.00
02133             780.00    -5440.00
02134             780.00    -5520.00
02135             820.00    -5520.00
02136             820.00    -5520.00
02137             820.00    -5520.00
02138             820.00    -5600.00
02139             820.00    -5600.00
02140             820.00    -5600.00
02141             820.00    -5680.00
02142             820.00    -5680.00
02143             840.00    -5680.00
02144             840.00    -5760.00
02145             840.00    -5760.00
02146             840.00    -5760.00
02147             840.00    -5760.00
02148             840.00    -5840.00
02149             840.00    -5840.00
02150             840.00    -5840.00
02151             860.00    -5840.00
02152             840.00    -5840.00
02153             860.00    -5840.00
02154             860.00    -5920.00
02155             860.00    -5920.00
02156             880.00    -5920.00
02157             860.00    -5920.00
02158             900.00    -5920.00
02159             880.00    -5920.00
02160             900.00    -5920.00
02161             900.00    -6080.00
02162             900.00    -6080.00
02163             900.00    -6000.00
02164             900.00    -6080.00
02165             900.00    -6080.00
02166             900.00    -6080.00
02167             900.00    -6080.00
02168             920.00    -6160.00
02169             900.00    -6080.00
02170             920.00    -6160.00
02171             920.00    -6160.00
02172             920.00    -6160.00
02173             920.00    -6240.00
02174             920.00    -6160.00
02175             940.00    -6160.00
02176             920.00    -6240.00
02177             940.00    -6240.00
02178             940.00    -6240.00
02179             940.00    -6240.00
02180             940.00    -6320.00
02181             940.00    -6240.00
02182             940.00    -6320.00
02183             940.00    -6240.00
02184             980.00    -6320.00
02185             960.00    -6400.00
02186             960.00    -6240.00
02187             960.00    -6400.00
02188             960.00    -6400.00
02189             980.00    -6400.00
02190             940.00    -6400.00
02191             980.00    -6400.00
02192             980.00    -6400.00
02193             980.00    -6400.00
02194             980.00    -6400.00
02195             980.00    -6400.00
02196             980.00    -6480.00
02197             980.00    -6400.00
02198             980.00    -6480.00
02199             980.00    -6400.00
02200             980.00    -6480.00
02201             960.00    -6480.00
02202             980.00    -6400.00
02203             980.00    -6480.00
02204             980.00    -6480.00
02205             980.00    -6400.00
02206             980.00    -6480.00
02207             980.00    -6480.00
02208             980.00    -6480.00
02209            1000.00    -6480.00
02210             980.00    -6560.00
02211            1000.00    -6560.00
02212             980.00    -6480.00
02213            1000.00    -6480.00
02214            1000.00    -6560.00
02215            1000.00    -6560.00
02216            1000.00    -6560.00
02217            1000.00    -6480.00
02218            1000.00    -6480.00
02219            1000.00    -6560.00
02220            1000.00    -6560.00
02221            1000.00    -6560.00
02222            1000.00    -6480.00
02223            1000.00    -6560.00
02224            1000.00    -6480.00
02225            1000.00    -6560.00
02226            1000.00    -6560.00
02227            1020.00    -6560.00
02228            1000.00    -6480.00
02229            1020.00    -6480.00
02230            1000.00    -6560.00
02231            1000.00    -6560.00
02232            1020.00    -6560.00
02233            1000.00    -6560.00
02234            1020.00    -6560.00
02235            1000.00    -6480.00
02236            1020.00    -6480.00
02237            1000.00    -6480.00
02238            1000.00    -6560.00
02239            1000.00    -6560.00
02240            1000.00    -6480.00
02241            1000.00    -6480.00
02242            1020.00    -6480.00
02243            1020.00    -6400.00
02244            1000.00    -6480.00
02245            1020.00    -6480.00
02246            1000.00    -6480.00
02247            1000.00    -6480.00
02248            1000.00    -6400.00
02249            1000.00    -6480.00
02250            1000.00    -6480.00
02251            1000.00    -6400.00
02252            1000.00    -6480.00
02253            1020.00    -6480.00
02254            1000.00    -6400.00
02255            1000.00    -6400.00
02256            1000.00    -6400.00
02257            1000.00    -6400.00
02258            1000.00    -6480.00
02259            1000.00    -6400.00
02260            1000.00    -6400.00
02261            1000.00    -6400.00
02262             980.00    -6400.00
02263            1000.00    -6400.00
02264             980.00    -6400.00
02265            1000.00    -6320.00
02266            1000.00    -6320.00
02267             980.00    -6320.00
02268            1000.00    -6240.00
02269            1000.00    -6240.00
02270             980.00    -6240.00
02271            1000.00    -6240.00
02272            1000.00    -6240.00
02273            1000.00    -6240.00
02274             980.00    -6240.00
02275             980.00    -6240.00
02276            1000.00    -6240.00
02277             980.00    -6160.00
02278             980.00    -6160.00
02279             980.00    -6160.00
02280             980.00    -6160.00
02281             980.00    -6160.00
02282             980.00    -6080.00
02283             980.00    -6080.00
02284             980.00    -6080.00
02285             980.00    -6080.00
02286             980.00    -6080.00
02287             980.00    -6000.00
02288             980.00    -6080.00
02289             980.00    -6080.00
02290             980.00    -6000.00
02291             980.00    -5920.00
02292             980.00    -5920.00
02293             980.00    -5920.00
02294             940.00    -5920.00
02295             940.00    -5920.00
02296             940.00    -5920.00
02297             980.00    -5920.00
02298             960.00    -5920.00
02299             960.00    -5840.00
02300             920.00    -5840.00
02301             960.00    -5840.00
02302             940.00    -5760.00
02303             940.00    -5760.00
02304             940.00    -5760.00
02305             940.00    -5760.00
02306             940.00    -5760.00
02307             920.00    -5760.00
02308             940.00    -5680.00
02309             920.00    -5600.00
02310             920.00    -5600.00
02311             920.00    -5680.00
02312             920.00    -5600.00
02313             920.00    -5600.00
02314             900.00    -5520.00
02315             900.00    -5600.00
02316             900.00    -5520.00
02317             900.00    -5520.00
02318             900.00    -5440.00
02319             920.00    -5520.00
02320             900.00    -5440.00
02321             900.00    -5440.00
02322             900.00    -5440.00
02323             900.00    -5360.00
02324             860.00    -5440.00
02325             860.00    -5280.00
02326             860.00    -5280.00
02327             860.00    -5280.00
02328             860.00    -5280.00
02329             840.00    -5200.00
02330             840.00    -5280.00
02331             860.00    -5200.00
02332             860.00    -5120.00
02333             840.00    -5120.00
02334             840.00    -5120.00
02335             840.00    -5120.00
02336             840.00    -5120.00
02337             840.00    -5040.00
02338             840.00    -4960.00
02339             840.00    -4960.00
02340             820.00    -4960.00
02341             820.00    -4960.00
02342             820.00    -4880.00
02343             820.00    -4880.00
02344             820.00    -4800.00
02345             820.00    -4800.00
02346             820.00    -4800.00
02347             800.00    -4800.00
02348             780.00    -4720.00
02349             780.00    -4720.00
02350             780.00    -4640.00
02351             780.00    -4640.00
02352             760.00    -4640.00
02353             760.00    -4560.00
02354             760.00    -4560.00
02355             780.00    -4560.00
02356             760.00    -4560.00
02357             760.00    -4480.00
02358             760.00    -4400.00
02359             740.00    -4400.00
02360             760.00    -4400.00
02361             740.00    -4320.00
02362             740.00    -4320.00
02363             740.00    -4320.00
02364             740.00    -4240.00
02365             760.00    -4240.00
02366             720.00    -4160.00
02367             740.00    -4160.00
02368             700.00    -4160.00
02369             680.00    -4080.00
02370             700.00    -4080.00
02371             700.00    -4000.00
02372             680.00    -4000.00
02373             700.00    -4000.00
02374             680.00    -3920.00
02375             680.00    -3920.00
02376             680.00    -3920.00
02377             680.00    -3840.00
02378             680.00    -3840.00
02379             680.00    -3760.00
02380             660.00    -3840.00
02381             660.00    -3760.00
02382             660.00    -3680.00
02383             660.00    -3680.00
02384             620.00    -3600.00
02385             640.00    -3600.00
02386             640.00    -3600.00
02387             620.00    -3520.00
02388             620.00    -3520.00
02389             600.00    -3520.00
02390             620.00    -3440.00
02391             600.00    -3360.00
02392             600.00    -3360.00
02393             600.00    -3360.00
02394             580.00    -3280.00
02395             580.00    -3280.00
02396             580.00    -3200.00
02397             580.00    -3200.00
02398             580.00    -3200.00
02399             560.00    -3200.00
02400             560.00    -3040.00
02401             540.00    -3040.00
02402             540.00    -3040.00
02403             540.00    -2960.00
02404             540.00    -2880.00
02405             520.00    -2960.00
02406             520.00    -2880.00
02407             520.00    -2880.00
02408             520.00    -2800.00
02409             520.00    -2720.00
02410             520.00    -2720.00
02411             500.00    -2720.00
02412             500.00    -2640.00
02413             480.00    -2560.00
02414             480.00    -2640.00
02415             460.00    -2560.00
02416             460.00    -2480.00
02417             440.00    -2480.00
02418             460.00    -2400.00
02419             460.00    -2400.00
02420             460.00    -2320.00
02421             440.00    -2400.00
02422             460.00    -2240.00
02423             440.00    -2240.00
02424             420.00    -2240.00
02425             420.00    -2160.00
02426             420.00    -2080.00
02427             420.00    -2080.00
02428             420.00    -2080.00
02429             420.00    -2000.00
02430             400.00    -1920.00
02431             420.00    -1920.00
02432             380.00    -1840.00
02433             380.00    -1840.00
02434             380.00    -1760.00
02435             360.00    -1760.00
02436             360.00    -1760.00
02437             360.00    -1760.00
02438             340.00    -1680.00
02439             360.00    -1680.00
02440             360.00    -1600.00
02441             340.00    -1600.00
02442             340.00    -1600.00
02443             340.00    -1520.00
02444             340.00    -1440.00
02445             300.00    -1440.00
02446             300.00    -1360.00
02447             300.00    -1360.00
02448             280.00    -1280.00
02449             280.00    -1280.00
02450             300.00    -1200.00
02451             260.00    -1200.00
02452             280.00    -1120.00
02453             260.00    -1120.00
02454             260.00    -1120.00
02455             260.00    -1040.00
02456             240.00     -960.00
02457             220.00     -960.00
02458             220.00     -960.00
02459             220.00     -800.00
02460             200.00     -800.00
02461             200.00     -800.00
02462             200.00     -720.00
02463             200.00     -720.00
02464             200.00     -640.00
02465             200.00     -640.00
02466             200.00     -560.00
02467             180.00     -560.00
02468             180.00     -480.00
02469             180.00     -480.00
02470             160.00     -400.00
02471             140.00     -400.00
02472             140.00     -320.00
02473             140.00     -320.00
02474             120.00     -240.00
02475             120.00     -240.00
02476             120.00     -240.00
02477             100.00     -160.00
02478             100.00      -80.00
02479             100.00      -80.00
02480             100.00        0.00
02481             100.00        0.00
02482             100.00        0.00
02483              80.00      160.00
02484              80.00      160.00
02485              60.00      160.00
02486              60.00      240.00
02487              60.00      240.00
02488              60.00      320.00
02489              40.00      320.00
02490              40.00      480.00
02491              40.00      320.00
02492              40.00      480.00
02493              40.00      560.00
02494              40.00      560.00
02495             -20.00      560.00
02496             -20.00      480.00
02497              20.00      800.00
02498              40.00      880.00
02499             -40.00      720.00
02500             -40.00      720.00
02501             -20.00      960.00
02502             -20.00      880.00
02503             -60.00      800.00
02504             -40.00     1040.00
02505             -40.00     1120.00
02506             -60.00      960.00
02507             -60.00     1120.00
02508             -40.00     1200.00
02509             -60.00     1120.00
02510            -100.00     1200.00
02511             -60.00     1280.00
02512             -60.00     1280.00
02513            -100.00     1280.00
02514            -100.00     1440.00
02515            -120.00     1440.00
02516            -100.00     1440.00
02517            -120.00     1520.00
02518            -140.00     1520.00
02519            -120.00     1520.00
02520            -140.00     1600.00
02521            -140.00     1680.00
02522            -140.00     1680.00
02523            -180.00     1760.00
02524            -180.00     1760.00
02525            -180.00     1840.00
02526            -180.00     1760.00
02527            -200.00     1840.00
02528            -200.00     1920.00
02529            -200.00     1920.00
02530            -220.00     2000.00
02531            -220.00     2080.00
02532            -220.00     2080.00
02533            -220.00     2160.00
02534            -240.00     2160.00
02535            -240.00     2160.00
02536            -260.00     2240.00
02537            -260.00     2240.00
02538            -260.00     2320.00
02539            -280.00     2400.00
02540            -280.00     2400.00
02541            -280.00     2400.00
02542            -280.00     2480.00
02543            -300.00     2560.00
02544            -300.00     2480.00
02545            -300.00     2560.00
02546            -300.00     2560.00
02547            -300.00     2720.00
02548            -340.00     2720.00
02549            -300.00     2720.00
02550            -340.00     2720.00
02551            -340.00     2880.00
02552            -340.00     2800.00
02553            -360.00     2880.00
02554            -360.00     2880.00
02555            -360.00     2880.00
02556            -380.00     3040.00
02557            -380.00     3040.00
02558            -380.00     3040.00
02559            -380.00     3120.00
02560            -380.00     3120.00
02561            -380.00     3200.00
02562            -400.00     3200.00
02563            -420.00     3280.00
02564            -420.00     3360.00
02565            -420.00     3360.00
02566            -440.00     3360.00
02567            -440.00     3360.00
02568            -440.00     3440.00
02569            -440.00     3440.00
02570            -440.00     3440.00
02571            -440.00     3520.00
02572            -440.00     3520.00
02573            -460.00     3600.00
02574            -460.00     3680.00
02575            -460.00     3680.00
02576            -460.00     3680.00
02577            -500.00     3760.00
02578            -480.00     3760.00
02579            -500.00     3760.00
02580            -500.00     3840.00
02581            -500.00     3840.00
02582            -520.00     3840.00
02583            -540.00     4000.00
02584            -520.00     4000.00
02585            -540.00     4000.00
02586            -520.00     4000.00
02587            -540.00     4080.00
02588            -560.00     4080.00
02589            -540.00     4160.00
02590            -560.00     4160.00
02591            -580.00     4160.00
02592            -580.00     4240.00
02593            -580.00     4160.00
02594            -580.00     4320.00
02595            -580.00     4320.00
02596            -600.00     4320.00
02597            -600.00     4400.00
02598            -600.00     4400.00
02599            -600.00     4480.00
02600            -620.00     4480.00
02601            -620.00     4480.00
02602            -620.00     4560.00
02603            -640.00     4640.00
02604            -620.00     4640.00
02605            -620.00     4640.00
02606            -660.00     4640.00
02607            -660.00     4720.00
02608            -660.00     4720.00
02609            -660.00     4800.00
02610            -660.00     4720.00
02611            -680.00     4800.00
02612            -660.00     4800.00
02613            -680.00     4800.00
02614            -680.00     4880.00
02615            -700.00     4960.00
02616            -680.00     4960.00
02617            -700.00     4960.00
02618            -700.00     4960.00
02619            -700.00     5040.00
02620            -700.00     5040.00
02621            -700.00     5120.00
02622            -700.00     5120.00
02623            -720.00     5040.00
02624            -700.00     5120.00
02625            -720.00     5120.00
02626            -740.00     5120.00
02627            -700.00     5200.00
02628            -740.00     5280.00
02629            -740.00     5280.00
02630            -760.00     5280.00
02631            -740.00     5280.00
02632            -760.00     5360.00
02633            -760.00     5360.00
02634            -760.00     5440.00
02635            -760.00     5440.00
02636            -780.00     5440.00
02637            -760.00     5440.00
02638            -780.00     5440.00
02639            -780.00     5440.00
02640            -780.00     5600.00
02641            -780.00     5520.00
02642            -780.00     5600.00
02643            -780.00     5600.00
02644            -820.00     5600.00
02645            -820.00     5600.00
02646            -820.00     5680.00
02647            -820.00     5760.00
02648            -820.00     5760.00
02649            -820.00     5680.00
02650            -840.00     5760.00
02651            -840.00     5840.00
02652            -840.00     5760.00
02653            -860.00     5840.00
02654            -860.00     5840.00
02655            -840.00     5840.00
02656            -860.00     5920.00
02657            -840.00     5920.00
02658            -860.00     5920.00
02659            -860.00     5920.00
02660            -860.00     6000.00
02661            -860.00     5920.00
02662            -860.00     5920.00
02663            -860.00     6000.00
02664            -860.00     6000.00
02665            -900.00     6000.00
02666            -860.00     6000.00
02667            -900.00     6080.00
02668            -900.00     6080.00
02669            -900.00     6080.00
02670            -900.00     6080.00
02671            -920.00     6160.00
02672            -900.00     6160.00
02673            -900.00     6160.00
02674            -920.00     6160.00
02675            -920.00     6240.00
02676            -900.00     6160.00
02677            -920.00     6240.00
02678            -920.00     6240.00
02679            -920.00     6240.00
02680            -920.00     6320.00
02681            -920.00     6320.00
02682            -920.00     6320.00
02683            -920.00     6320.00
02684            -940.00     6320.00
02685            -940.00     6320.00
02686            -920.00     6320.00
02687            -940.00     6320.00
02688            -940.00     6400.00
02689            -940.00     6320.00
02690            -920.00     6400.00
02691            -940.00     6400.00
02692            -940.00     6400.00
02693            -940.00     6400.00
02694            -940.00     6400.00
02695            -940.00     6400.00
02696            -940.00     6480.00
02697            -940.00     6400.00
02698            -940.00     6480.00
02699            -940.00     6480.00
02700            -940.00     6560.00
02701            -980.00     6480.00
02702            -960.00     6480.00
02703            -980.00     6560.00
02704            -980.00     6480.00
02705            -980.00     6560.00
02706            -980.00     6560.00
02707            -960.00     6560.00
02708            -980.00     6560.00
02709           -1000.00     6560.00
02710            -980.00     6560.00
02711            -980.00     6560.00
02712            -980.00     6560.00
02713            -980.00     6560.00
02714            -980.00     6640.00
02715            -980.00     6560.00
02716            -980.00     6560.00
02717            -980.00     6560.00
02718           -1000.00     6560.00
02719           -1000.00     6560.00
02720           -1000.00     6560.00
02721           -1000.00     6640.00
02722           -1000.00     6560.00
02723           -1000.00     6640.00
02724           -1000.00     6560.00
02725           -1000.00     6560.00
02726           -1000.00     6640.00
02727           -1000.00     6560.00
02728           -1000.00     6640.00
02729           -1000.00     6640.00
02730           -1000.00     6640.00
02731           -1020.00     6640.00
02732           -1000.00     6640.00
02733           -1020.00     6560.00
02734           -1020.00     6640.00
02735           -1020.00     6640.00
02736           -1000.00     6640.00
02737           -1020.00     6640.00
02738           -1020.00     6560.00
02739           -1000.00     6560.00
02740           -1020.00     6640.00
02741           -1020.00     6640.00
02742           -1000.00     6560.00
02743           -1000.00     6560.00
02744           -1020.00     6640.00
02745           -1000.00     6640.00
02746           -1000.00     6640.00
02747           -1020.00     6560.00
02748           -1020.00     6640.00
02749           -1000.00     6560.00
02750           -1020.00     6640.00
02751           -1020.00     6560.00
02752           -1020.00     6560.00
02753           -1020.00     6560.00
02754           -1000.00     6560.00
02755           -1000.00     6560.00
02756           -1000.00     6560.00
02757           -1020.00     6560.00
02758           -1000.00     6560.00
02759           -1000.00     6560.00
02760           -1020.00     6560.00
02761           -1000.00     6560.00
02762           -1000.00     6560.00
02763           -1000.00     6560.00
02764           -1000.00     6480.00
02765           -1000.00     6560.00
02766           -1000.00     6560.00
02767           -1000.00     6560.00
02768           -1000.00     6480.00
02769           -1000.00     6400.00
02770           -1020.00     6400.00
02771            -980.00     6400.00
02772           -1000.00     6400.00
02773           -1000.00     6400.00
02774           -1000.00     6400.00
02775           -1000.00     6400.00
02776           -1000.00     6400.00
02777           -1000.00     6400.00
02778            -980.00     6400.00
02779           -1000.00     6320.00
02780            -980.00     6320.00
02781           -1000.00     6320.00
02782           -1000.00     6320.00
02783            -980.00     6320.00
02784           -1000.00     6320.00
02785           -1000.00     6320.00
02786           -1000.00     6320.00
02787           -1000.00     6240.00
02788            -980.00     6240.00
02789            -980.00     6240.00
02790            -980.00     6240.00
02791            -980.00     6240.00
02792            -980.00     6240.00
02793            -980.00     6240.00
02794            -980.00     6240.00
02795            -980.00     6240.00
02796            -980.00     6160.00
02797            -980.00     6080.00
02798            -940.00     6080.00
02799            -980.00     6080.00
02800            -980.00     6080.00
02801            -960.00     6000.00
02802            -980.00     6080.00
02803            -960.00     6000.00
02804            -960.00     6000.00
02805            -940.00     6000.00
02806            -980.00     5920.00
02807            -940.00     6000.00
02808            -940.00     5920.00
02809            -940.00     5920.00
02810            -940.00     5920.00
02811            -920.00     5920.00
02812            -920.00     5920.00
02813            -920.00     5920.00
02814            -940.00     5840.00
02815            -920.00     5760.00
02816            -940.00     5760.00
02817            -920.00     5760.00
02818            -920.00     5840.00
02819            -920.00     5760.00
02820            -920.00     5680.00
02821            -920.00     5680.00
02822            -900.00     5680.00
02823            -900.00     5680.00
02824            -880.00     5600.00
02825            -920.00     5600.00
02826            -860.00     5600.00
02827            -900.00     5600.00
02828            -900.00     5520.00
02829            -900.00     5520.00
02830            -900.00     5440.00
02831            -860.00     5440.00
02832            -900.00     5440.00
02833            -860.00     5440.00
02834            -860.00     5440.00
02835            -860.00     5360.00
02836            -860.00     5280.00
02837            -860.00     5360.00
02838            -860.00     5280.00
02839            -840.00     5280.00
02840            -860.00     5280.00
02841            -840.00     5280.00
02842            -860.00     5200.00
02843            -840.00     5120.00
02844            -840.00     5120.00
02845            -840.00     5120.00
02846            -840.00     5120.00
02847            -820.00     5120.00
02848            -840.00     5040.00
02849            -820.00     5040.00
02850            -820.00     4960.00
02851            -840.00     4960.00
02852            -820.00     4960.00
02853            -820.00     4960.00
02854            -820.00     4960.00
02855            -820.00     4880.00
02856            -780.00     4880.00
02857            -820.00     4800.00
02858            -820.00     4800.00
02859            -780.00     4800.00
02860            -780.00     4720.00
02861            -780.00     4800.00
02862            -780.00     4720.00
02863            -780.00     4640.00
02864            -760.00     4640.00
02865            -760.00     4480.00
02866            -780.00     4560.00
02867            -760.00     4480.00
02868            -740.00     4480.00
02869            -760.00     4480.00
02870            -760.00     4400.00
02871            -740.00     4400.00
02872            -740.00     4320.00
02873            -740.00     4320.00
02874            -740.00     4320.00
02875            -700.00     4240.00
02876            -720.00     4320.00
02877            -700.00     4240.00
02878            -700.00     4160.00
02879            -700.00     4160.00
02880            -700.00     4080.00
02881            -700.00     4080.00
02882            -700.00     4080.00
02883            -680.00     4000.00
02884            -680.00     4000.00
02885            -680.00     4000.00
02886            -680.00     3920.00
02887            -680.00     3840.00
02888            -660.00     3840.00
02889            -660.00     3760.00
02890            -660.00     3760.00
02891            -640.00     3760.00
02892            -620.00     3680.00
02893            -620.00     3680.00
02894            -620.00     3680.00
02895            -620.00     3680.00
02896            -620.00     3600.00
02897            -600.00     3600.00
02898            -600.00     3520.00
02899            -620.00     3520.00
02900            -600.00     3440.00
02901            -600.00     3440.00
02902            -580.00     3440.00
02903            -600.00     3360.00
02904            -600.00     3360.00
02905            -580.00     3360.00
02906            -580.00     3200.00
02907            -580.00     3280.00
02908            -580.00     3200.00
02909            -540.00     3200.00
02910            -560.00     3120.00
02911            -540.00     3040.00
02912            -560.00     3040.00
02913            -540.00     3040.00
02914            -540.00     2960.00
02915            -540.00     2960.00
02916            -520.00     2880.00
02917            -520.00     2880.00
02918            -520.00     2880.00
02919            -520.00     2800.00
02920            -500.00     2720.00
02921            -520.00     2720.00
02922            -520.00     2640.00
02923            -520.00     2720.00
02924            -460.00     2560.00
02925            -480.00     2560.00
02926            -460.00     2480.00
02927            -460.00     2480.00
02928            -460.00     2480.00
02929            -460.00     2400.00
02930            -460.00     2400.00
02931            -440.00     2400.00
02932            -440.00     2320.00
02933            -440.00     2320.00
02934            -440.00     2240.00
02935            -440.00     2160.00
02936            -440.00     2160.00
02937            -420.00     2080.00
02938            -420.00     2080.00
02939            -420.00     2080.00
02940            -380.00     1920.00
02941            -380.00     1920.00
02942            -380.00     1920.00
02943            -380.00     1920.00
02944            -360.00     1760.00
02945            -380.00     1760.00
02946            -360.00     1760.00
02947            -360.00     1760.00
02948            -360.00     1680.00
02949            -340.00     1600.00
02950            -340.00     1600.00
02951            -340.00     1600.00
02952            -340.00     1520.00
02953            -300.00     1520.00
02954            -300.00     1440.00
02955            -280.00     1440.00
02956            -300.00     1440.00
02957            -280.00     1360.00
02958            -280.00     1280.00
02959            -280.00     1280.00
02960            -280.00     1280.00
02961            -260.00     1200.00
02962            -280.00     1120.00
02963            -260.00     1120.00
02964            -240.00     1040.00
02965            -260.00      960.00
02966            -240.00      960.00
02967            -220.00      960.00
02968            -220.00      880.00
02969            -220.00      880.00
02970            -220.00      800.00
02971            -200.00      800.00
02972            -200.00      800.00
02973            -200.00      720.00
02974            -200.00      640.00
02975            -180.00      640.00
02976            -180.00      640.00
02977            -180.00      560.00
02978            -180.00      480.00
02979            -180.00      480.00
02980            -180.00      400.00
02981            -160.00      320.00
02982            -140.00      320.00
02983            -140.00      320.00
02984            -140.00      240.00
02985            -120.00      160.00
02986            -120.00      160.00
02987            -120.00      160.00
02988            -120.00       80.00
02989            -100.00       80.00
02990            -100.00        0.00
02991            -100.00      -80.00
02992            -100.00        0.00
02993            -100.00      -80.00
02994             -60.00     -160.00
02995             -60.00     -160.00
02996             -60.00     -240.00
02997             -60.00     -240.00
02998             -60.00     -320.00
02999             -60.00     -320.00
03000             -40.00     -400.00
03001             -40.00     -400.00
03002             -20.00     -400.00
03003             -20.00     -560.00
03004             -40.00     -720.00
03005             -40.00     -720.00
03006               0.00     -560.00
03007              40.00     -560.00
03008              20.00     -800.00
03009              20.00     -880.00
03010              40.00     -720.00
03011              40.00     -800.00
03012              20.00     -960.00
03013              40.00     -880.00
03014              60.00     -960.00
03015              40.00    -1040.00
03016              60.00    -1040.00
03017             100.00    -1040.00
03018              60.00    -1200.00
03019             100.00    -1120.00
03020             100.00    -1120.00
03021             100.00    -1280.00
03022              80.00    -1280.00
03023             120.00    -1280.00
03024             120.00    -1360.00
03025             120.00    -1360.00
03026             140.00    -1440.00
03027             140.00    -1520.00
03028             140.00    -1440.00
03029             140.00    -1600.00
03030             160.00    -1600.00
03031             160.00    -1600.00
03032             180.00    -1680.00
03033             180.00    -1760.00
03034             200.00    -1760.00
03035             200.00    -1760.00
03036             200.00    -1840.00
03037             200.00    -1840.00
03038             200.00    -1920.00
03039             200.00    -1920.00
03040             220.00    -2000.00
03041             200.00    -2000.00
03042             220.00    -2080.00
03043             220.00    -2080.00
03044             220.00    -2160.00
03045             260.00    -2240.00
03046             260.00    -2240.00
03047             260.00    -2240.00
03048             260.00    -2320.00
03049             260.00    -2320.00
03050             260.00    -2400.00
03051             280.00    -2400.00
03052             280.00    -2400.00
03053             280.00    -2480.00
03054             300.00    -2560.00
03055             300.00    -2560.00
03056             300.00    -2560.00
03057             300.00    -2640.00
03058             340.00    -2720.00
03059             340.00    -2720.00
03060             340.00    -2720.00
03061             340.00    -2800.00
03062             340.00    -2720.00
03063             340.00    -2880.00
03064             360.00    -2880.00
03065             360.00    -2960.00
03066             360.00    -2960.00
03067             380.00    -3040.00
03068             360.00    -3040.00
03069             380.00    -3120.00
03070             400.00    -3200.00
03071             420.00    -3200.00
03072             400.00    -3200.00
03073             420.00    -3280.00
03074             420.00    -3280.00
03075             420.00    -3280.00
03076             440.00    -3360.00
03077             420.00    -3360.00
03078             440.00    -3360.00
03079             440.00    -3360.00
03080             460.00    -3520.00
03081             460.00    -3520.00
03082             480.00    -3600.00
03083             460.00    -3520.00
03084             500.00    -3600.00
03085             500.00    -3600.00
03086             500.00    -3680.00
03087             500.00    -3680.00
03088             500.00    -3680.00
03089             520.00    -3680.00
03090             520.00    -3840.00
03091             520.00    -3840.00
03092             520.00    -3920.00
03093             540.00    -3840.00
03094             540.00    -3920.00
03095             540.00    -4000.00
03096             540.00    -4000.00
03097             540.00    -4000.00
03098             540.00    -4080.00
03099             560.00    -4000.00
03100             580.00    -4160.00
03101             560.00    -4160.00
03102             600.00    -4160.00
03103             580.00    -4160.00
03104             580.00    -4240.00
03105             580.00    -4320.00
03106             620.00    -4240.00
03107             600.00    -4320.00
03108             600.00    -4320.00
03109             600.00    -4320.00
03110             600.00    -4400.00
03111             600.00    -4400.00
03112             620.00    -4560.00
03113             600.00    -4480.00
03114             620.00    -4560.00
03115             660.00    -4560.00
03116             660.00    -4640.00
03117             640.00    -4640.00
03118             660.00    -4640.00
03119             660.00    -4640.00
03120             660.00    -4720.00
03121             660.00    -4640.00
03122             680.00    -4800.00
03123             680.00    -4800.00
03124             680.00    -4880.00
03125             680.00    -4880.00
03126             680.00    -4880.00
03127             680.00    -4960.00
03128             680.00    -4960.00
03129             700.00    -4960.00
03130             700.00    -5040.00
03131             680.00    -5040.00
03132             700.00    -5120.00
03133             700.00    -5120.00
03134             740.00    -5120.00
03135             740.00    -5120.00
03136             720.00    -5200.00
03137             740.00    -5120.00
03138             740.00    -5200.00
03139             760.00    -5200.00
03140             760.00    -5200.00
03141             760.00    -5280.00
03142             760.00    -5280.00
03143             780.00    -5360.00
03144             780.00    -5360.00
03145             760.00    -5280.00
03146             780.00    -5360.00
03147             780.00    -5440.00
03148             780.00    -5440.00
03149             820.00    -5440.00
03150             780.00    -5440.00
03151             780.00    -5520.00
03152             820.00    -5520.00
03153             820.00    -5520.00
03154             800.00    -5520.00
03155             820.00    -5600.00
03156             820.00    -5600.00
03157             820.00    -5600.00
03158             820.00    -5600.00
03159             840.00    -5680.00
03160             840.00    -5680.00
03161             840.00    -5760.00
03162             840.00    -5760.00
03163             840.00    -5760.00
03164             840.00    -5760.00
03165             840.00    -5840.00
03166             840.00    -5840.00
03167             860.00    -5840.00
03168             840.00    -5840.00
03169             860.00    -5840.00
03170             860.00    -5920.00
03171             860.00    -5920.00
03172             860.00    -5920.00
03173             860.00    -5920.00
03174             860.00    -5920.00
03175             860.00    -6000.00
03176             900.00    -6000.00
03177             860.00    -5920.00
03178             900.00    -6080.00
03179             900.00    -6000.00
03180             900.00    -6000.00
03181             900.00    -6080.00
03182             900.00    -6080.00
03183             900.00    -6080.00
03184             900.00    -6160.00
03185             900.00    -6080.00
03186             900.00    -6080.00
03187             920.00    -6160.00
03188             900.00    -6160.00
03189             900.00    -6160.00
03190             920.00    -6160.00
03191             920.00    -6240.00
03192             920.00    -6160.00
03193             940.00    -6240.00
03194             920.00    -6240.00
03195             940.00    -6240.00
03196             940.00    -6240.00
03197             920.00    -6240.00
03198             940.00    -6240.00
03199             960.00    -6240.00
03200             940.00    -6400.00
03201             940.00    -6240.00
03202             980.00    -6400.00
03203             980.00    -6320.00
03204             980.00    -6400.00
03205             940.00    -6400.00
03206             980.00    -6400.00
03207             940.00    -6400.00
03208             960.00    -6400.00
03209             940.00    -6400.00
03210             980.00    -6480.00
03211             980.00    -6400.00
03212             980.00    -6480.00
03213             980.00    -6400.00
03214             980.00    -6400.00
03215             980.00    -6400.00
03216             980.00    -6400.00
03217             980.00    -6480.00
03218             980.00    -6480.00
03219             980.00    -6480.00
03220            1000.00    -6400.00
03221            1000.00    -6480.00
03222             980.00    -6480.00
03223            1000.00    -6480.00
03224            1000.00    -6480.00
03225             980.00    -6560.00
03226            1000.00    -6480.00
03227            1000.00    -6480.00
03228            1000.00    -6480.00
03229            1000.00    -6560.00
03230            1000.00    -6480.00
03231            1000.00    -6480.00
03232            1000.00    -6480.00
03233            1000.00    -6560.00
03234            1000.00    -6560.00
03235            1000.00    -6560.00
03236            1000.00    -6480.00
03237            1000.00    -6560.00
03238            1000.00    -6560.00
03239            1000.00    -6560.00
03240            1000.00    -6560.00
03241            1000.00    -6560.00
03242            1000.00    -6560.00
03243            1000.00    -6560.00
03244            1000.00    -6560.00
03245            1000.00    -6560.00
03246            1000.00    -6560.00
03247            1000.00    -6560.00
03248            1000.00    -6480.00
03249            1020.00    -6480.00
03250            1000.00    -6560.00
03251            1000.00    -6560.00
03252            1000.00    -6560.00
03253            1000.00    -6480.00
03254            1000.00    -6480.00
03255            1000.00    -6560.00
03256            1000.00    -6480.00
03257            1020.00    -6480.00
03258            1000.00    -6560.00
03259            1000.00    -6480.00
03260            1000.00    -6480.00
03261            1000.00    -6480.00
03262            1000.00    -6480.00
03263            1000.00    -6480.00
03264            1000.00    -6480.00
03265            1000.00    -6480.00
03266            1000.00    -6480.00
03267            1020.00    -6480.00
03268            1000.00    -6480.00
03269            1000.00    -6400.00
03270            1000.00    -6480.00
03271            1000.00    -6400.00
03272            1000.00    -6400.00
03273            1000.00    -6480.00
03274             980.00    -6400.00
03275            1000.00    -6400.00
03276            1000.00    -6400.00
03277            1000.00    -6400.00
03278            1000.00    -6400.00
03279            1000.00    -6400.00
03280            1000.00    -6400.00
03281            1000.00    -6400.00
03282            1000.00    -6400.00
03283            1000.00    -6320.00
03284            1000.00    -6240.00
03285            1000.00    -6240.00
03286            1000.00    -6240.00
03287            1000.00    -6240.00
03288            1000.00    -6240.00
03289             980.00    -6240.00
03290            1000.00    -6240.00
03291            1000.00    -6240.00
03292            1000.00    -6240.00
03293            1000.00    -6160.00
03294             980.00    -6240.00
03295             980.00    -6160.00
03296            1000.00    -6160.00
03297            1000.00    -6160.00
03298             980.00    -6160.00
03299             980.00    -6080.00
03300             980.00    -6080.00
03301             980.00    -6080.00
03302             980.00    -6080.00
03303             980.00    -6080.00
03304             980.00    -6080.00
03305             980.00    -6080.00
03306             940.00    -6080.00
03307             980.00    -6000.00
03308             940.00    -5920.00
03309             960.00    -5920.00
03310             940.00    -5920.00
03311             940.00    -5920.00
03312             940.00    -5920.00
03313             920.00    -5920.00
03314             940.00    -5920.00
03315             940.00    -5840.00
03316             920.00    -5840.00
03317             940.00    -5840.00
03318             940.00    -5840.00
03319             940.00    -5760.00
03320             920.00    -5760.00
03321             940.00    -5760.00
03322             920.00    -5760.00
03323             920.00    -5760.00
03324             920.00    -5760.00
03325             920.00    -5600.00
03326             920.00    -5680.00
03327             900.00    -5600.00
03328             900.00    -5600.00
03329             900.00    -5600.00
03330             920.00    -5600.00
03331             900.00    -5520.00
03332             900.00    -5600.00
03333             900.00    -5520.00
03334             900.00    -5440.00
03335             900.00    -5440.00
03336             880.00    -5440.00
03337             900.00    -5440.00
03338             860.00    -5440.00
03339             860.00    -5440.00
03340             880.00    -5360.00
03341             860.00    -5280.00
03342             900.00    -5280.00
03343             860.00    -5280.00
03344             860.00    -5200.00
03345             860.00    -5280.00
03346             860.00    -5200.00
03347             860.00    -5200.00
03348             860.00    -5200.00
03349             860.00    -5120.00
03350             840.00    -5120.00
03351             840.00    -5120.00
03352             860.00    -5040.00
03353             840.00    -5040.00
03354             840.00    -5040.00
03355             840.00    -4960.00
03356             840.00    -4960.00
03357             820.00    -4960.00
03358             820.00    -4880.00
03359             840.00    -4880.00
03360             820.00    -4880.00
03361             820.00    -4880.00
03362             820.00    -4880.00
03363             820.00    -4800.00
03364             820.00    -4800.00
03365             820.00    -4720.00
03366             780.00    -4720.00
03367             780.00    -4640.00
03368             780.00    -4640.00
03369             780.00    -4560.00
03370             760.00    -4560.00
03371             760.00    -4560.00
03372             760.00    -4560.00
03373             760.00    -4560.00
03374             760.00    -4400.00
03375             760.00    -4400.00
03376             740.00    -4400.00
03377             760.00    -4320.00
03378             740.00    -4320.00
03379             740.00    -4240.00
03380             740.00    -4320.00
03381             740.00    -4240.00
03382             740.00    -4240.00
03383             700.00    -4160.00
03384             720.00    -4160.00
03385             700.00    -4160.00
03386             700.00    -4080.00
03387             700.00    -4080.00
03388             680.00    -4000.00
03389             680.00    -4000.00
03390             680.00    -4000.00
03391             680.00    -3920.00
03392             680.00    -3920.00
03393             680.00    -3840.00
03394             660.00    -3840.00
03395             680.00    -3760.00
03396             660.00    -3840.00
03397             660.00    -3760.00
03398             660.00    -3760.00
03399             660.00    -3680.00
03400             660.00    -3680.00
03401             660.00    -3600.00
03402             660.00    -3600.00
03403             620.00    -3520.00
03404             620.00    -3520.00
03405             600.00    -3520.00
03406             620.00    -3440.00
03407             600.00    -3440.00
03408             620.00    -3360.00
03409             600.00    -3360.00
03410             600.00    -3280.00
03411             580.00    -3280.00
03412             600.00    -3200.00
03413             580.00    -3200.00
03414             580.00    -3200.00
03415             580.00    -3200.00
03416             580.00    -3120.00
03417             560.00    -3040.00
03418             580.00    -3040.00
03419             560.00    -3040.00
03420             540.00    -2960.00
03421             540.00    -2880.00
03422             540.00    -2880.00
03423             540.00    -2880.00
03424             520.00    -2880.00
03425             520.00    -2720.00
03426             520.00    -2720.00
03427             520.00    -2720.00
03428             520.00    -2720.00
03429             520.00    -2720.00
03430             500.00    -2560.00
03431             500.00    -2560.00
03432             480.00    -2560.00
03433             460.00    -2480.00
03434             460.00    -2560.00
03435             460.00    -2400.00
03436             440.00    -2400.00
03437             440.00    -2320.00
03438             440.00    -2320.00
03439             420.00    -2320.00
03440             440.00    -2240.00
03441             420.00    -2240.00
03442             420.00    -2160.00
03443             420.00    -2080.00
03444             420.00    -2080.00
03445             420.00    -2000.00
03446             400.00    -2000.00
03447             380.00    -2000.00
03448             380.00    -1840.00
03449             380.00    -1840.00
03450             360.00    -1840.00
03451             380.00    -1760.00
03452             360.00    -1760.00
03453             360.00    -1680.00
03454             360.00    -1680.00
03455             360.00    -1600.00
03456             340.00    -1600.00
03457             340.00    -1600.00
03458             300.00    -1600.00
03459             340.00    -1520.00
03460             300.00    -1440.00
03461             320.00    -1440.00
03462             300.00    -1360.00
03463             300.00    -1360.00
03464             280.00    -1280.00
03465             280.00    -1280.00
03466             280.00    -1200.00
03467             260.00    -1200.00
03468             260.00    -1120.00
03469             260.00    -1120.00
03470             260.00    -1040.00
03471             260.00    -1040.00
03472             260.00     -960.00
03473             220.00     -960.00
03474             220.00     -960.00
03475             240.00     -880.00
03476             220.00     -800.00
03477             220.00     -800.00
03478             220.00     -720.00
03479             200.00     -720.00
03480             200.00     -640.00
03481             200.00     -640.00
03482             200.00     -640.00
03483             200.00     -560.00
03484             180.00     -480.00
03485             180.00     -480.00
03486             180.00     -480.00
03487             180.00     -400.00
03488             160.00     -320.00
03489             180.00     -320.00
03490             140.00     -320.00
03491             140.00     -160.00
03492             120.00     -160.00
03493             120.00     -160.00
03494             120.00     -160.00
03495             120.00      -80.00
03496             120.00        0.00
03497             100.00        0.00
03498             100.00        0.00
03499             100.00       80.00
03500              80.00       80.00
03501              60.00      160.00
03502              60.00      160.00
03503              60.00      240.00
03504              40.00      240.00
03505              40.00      320.00
03506              40.00      400.00
03507              40.00      320.00
03508              40.00      480.00
03509              40.00      560.00
03510              40.00      640.00
03511             -20.00      560.00
03512             -20.00      560.00
03513             -40.00      640.00
03514              20.00      800.00
03515             -20.00      720.00
03516             -40.00      720.00
03517             -20.00      880.00
03518             -20.00      880.00
03519             -60.00      800.00
03520             -40.00      960.00
03521             -40.00     1120.00
03522             -60.00      960.00
03523             -80.00      960.00
03524             -60.00     1200.00
03525             -60.00     1120.00
03526            -100.00     1200.00
03527             -80.00     1280.00
03528            -100.00     1280.00
03529            -100.00     1200.00
03530            -120.00     1360.00
03531            -120.00     1440.00
03532            -120.00     1440.00
03533            -120.00     1520.00
03534            -120.00     1520.00
03535            -140.00     1520.00
03536            -120.00     1600.00
03537            -140.00     1600.00
03538            -160.00     1680.00
03539            -140.00     1760.00
03540            -200.00     1760.00
03541            -180.00     1760.00
03542            -180.00     1840.00
03543            -200.00     1840.00
03544            -180.00     1920.00
03545            -200.00     1920.00
03546            -200.00     1920.00
03547            -220.00     2080.00
03548            -220.00     2080.00
03549            -220.00     2160.00
03550            -220.00     2160.00
03551            -220.00     2160.00
03552            -220.00     2240.00
03553            -260.00     2320.00
03554            -260.00     2320.00
03555            -260.00     2320.00
03556            -260.00     2400.00
03557            -260.00     2400.00
03558            -280.00     2480.00
03559            -280.00     2480.00
03560            -280.00     2560.00
03561            -300.00     2560.00
03562            -300.00     2640.00
03563            -320.00     2720.00
03564            -320.00     2720.00
03565            -340.00     2720.00
03566            -320.00     2720.00
03567            -360.00     2800.00
03568            -360.00     2880.00
03569            -360.00     2800.00
03570            -340.00     2880.00
03571            -380.00     2960.00
03572            -360.00     2960.00
03573            -380.00     3040.00
03574            -380.00     3040.00
03575            -380.00     3120.00
03576            -380.00     3120.00
03577            -400.00     3120.00
03578            -400.00     3200.00
03579            -420.00     3280.00
03580            -420.00     3200.00
03581            -440.00     3360.00
03582            -440.00     3360.00
03583            -440.00     3360.00
03584            -440.00     3360.00
03585            -440.00     3440.00
03586            -440.00     3440.00
03587            -440.00     3520.00
03588            -460.00     3520.00
03589            -460.00     3520.00
03590            -460.00     3600.00
03591            -460.00     3600.00
03592            -460.00     3680.00
03593            -500.00     3760.00
03594            -460.00     3760.00
03595            -500.00     3760.00
03596            -500.00     3840.00
03597            -520.00     3840.00
03598            -500.00     4000.00
03599            -520.00     3840.00
03600            -520.00     3920.00
03601            -540.00     4000.00
03602            -520.00     4000.00
03603            -540.00     4080.00
03604            -540.00     4080.00
03605            -540.00     4080.00
03606            -540.00     4160.00
03607            -540.00     4160.00
03608            -560.00     4160.00
03609            -560.00     4160.00
03610            -580.00     4320.00
03611            -580.00     4320.00
03612            -580.00     4320.00
03613            -600.00     4400.00
03614            -600.00     4400.00
03615            -600.00     4400.00
03616            -600.00     4480.00
03617            -600.00     4480.00
03618            -600.00     4480.00
03619            -620.00     4640.00
03620            -600.00     4640.00
03621            -620.00     4640.00
03622            -620.00     4640.00
03623            -620.00     4640.00
03624            -620.00     4720.00
03625            -620.00     4720.00
03626            -660.00     4800.00
03627            -660.00     4800.00
03628            -660.00     4800.00
03629            -680.00     4800.00
03630            -680.00     4880.00
03631            -700.00     4880.00
03632            -700.00     4960.00
03633            -700.00     4960.00
03634            -700.00     4960.00
03635            -700.00     5040.00
03636            -700.00     5040.00
03637            -700.00     5120.00
03638            -720.00     5040.00
03639            -700.00     5120.00
03640            -740.00     5120.00
03641            -720.00     5120.00
03642            -740.00     5200.00
03643            -740.00     5200.00
03644            -760.00     5280.00
03645            -760.00     5280.00
03646            -740.00     5280.00
03647            -760.00     5280.00
03648            -760.00     5360.00
03649            -760.00     5360.00
03650            -760.00     5360.00
03651            -760.00     5440.00
03652            -780.00     5440.00
03653            -760.00     5440.00
03654            -780.00     5440.00
03655            -800.00     5440.00
03656            -780.00     5600.00
03657            -820.00     5600.00
03658            -780.00     5600.00
03659            -820.00     5600.00
03660            -820.00     5600.00
03661            -820.00     5680.00
03662            -820.00     5680.00
03663            -820.00     5680.00
03664            -820.00     5680.00
03665            -820.00     5680.00
03666            -820.00     5840.00
03667            -840.00     5840.00
03668            -840.00     5760.00
03669            -840.00     5840.00
03670            -840.00     5840.00
03671            -840.00     5840.00
03672            -840.00     5920.00
03673            -840.00     5920.00
03674            -840.00     5920.00
03675            -860.00     5920.00
03676            -860.00     5920.00
03677            -860.00     6000.00
03678            -860.00     5920.00
03679            -860.00     6000.00
03680            -860.00     6000.00
03681            -860.00     6080.00
03682            -880.00     6000.00
03683            -880.00     6080.00
03684            -880.00     6080.00
03685            -880.00     6080.00
03686            -900.00     6080.00
03687            -900.00     6080.00
03688            -900.00     6080.00
03689            -900.00     6080.00
03690            -900.00     6160.00
03691            -900.00     6240.00
03692            -920.00     6240.00
03693            -920.00     6240.00
03694            -920.00     6240.00
03695            -920.00     6240.00
03696            -920.00     6240.00
03697            -920.00     6240.00
03698            -920.00     6320.00
03699            -940.00     6320.00
03700            -920.00     6320.00
03701            -920.00     6320.00
03702            -920.00     6320.00
03703            -940.00     6400.00
03704            -940.00     6400.00
03705            -940.00     6400.00
03706            -940.00     6320.00
03707            -940.00     6400.00
03708            -960.00     6400.00
03709            -940.00     6400.00
03710            -960.00     6400.00
03711            -940.00     6400.00
03712            -980.00     6400.00
03713            -940.00     6400.00
03714            -980.00     6480.00
03715            -960.00     6400.00
03716            -980.00     6480.00
03717            -980.00     6480.00
03718            -980.00     6560.00
03719            -980.00     6560.00
03720            -980.00     6560.00
03721            -980.00     6560.00
03722            -980.00     6560.00
03723            -980.00     6560.00
03724            -980.00     6560.00
03725            -980.00     6560.00
03726            -980.00     6560.00
03727            -980.00     6560.00
03728            -980.00     6560.00
03729           -1000.00     6560.00
03730           -1000.00     6560.00
03731            -980.00     6560.00
03732           -1000.00     6640.00
03733           -1000.00     6560.00
03734            -980.00     6560.00
03735           -1000.00     6560.00
03736           -1000.00     6640.00
03737            -980.00     6640.00
03738           -1000.00     6560.00
03739           -1000.00     6560.00
03740           -1000.00     6640.00
03741            -980.00     6560.00
03742           -1000.00     6640.00
03743           -1000.00     6640.00
03744           -1000.00     6560.00
03745           -1000.00     6640.00
03746           -1000.00     6640.00
03747           -1000.00     6560.00
03748           -1000.00     6640.00
03749           -1000.00     6720.00
03750           -1000.00     6640.00
03751           -1000.00     6640.00
03752           -1020.00     6560.00
03753           -1000.00     6640.00
03754           -1020.00     6640.00
03755           -1000.00     6560.00
03756           -1000.00     6640.00
03757           -1000.00     6640.00
03758           -1000.00     6560.00
03759           -1020.00     6640.00
03760           -1020.00     6640.00
03761           -1020.00     6640.00
03762           -1020.00     6640.00
03763           -1020.00     6640.00
03764           -1020.00     6560.00
03765           -1020.00     6560.00
03766           -1020.00     6560.00
03767           -1020.00     6560.00
03768           -1000.00     6640.00
03769           -1020.00     6560.00
03770           -1020.00     6560.00
03771           -1000.00     6560.00
03772           -1020.00     6560.00
03773           -1020.00     6560.00
03774           -1000.00     6560.00
03775           -1020.00     6560.00
03776           -1020.00     6560.00
03777           -1000.00     6560.00
03778           -1000.00     6560.00
03779           -1020.00     6480.00
03780           -1020.00     6560.00
03781           -1020.00     6560.00
03782           -1020.00     6560.00
03783           -1000.00     6560.00
03784           -1020.00     6480.00
03785           -1020.00     6480.00
03786           -1020.00     6560.00
03787           -1000.00     6400.00
03788           -1000.00     6400.00
03789           -1020.00     6400.00
03790           -1000.00     6480.00
03791           -1000.00     6400.00
03792           -1000.00     6400.00
03793           -1000.00     6400.00
03794           -1000.00     6400.00
03795            -980.00     6400.00
03796           -1000.00     6400.00
03797            -980.00     6400.00
03798           -1000.00     6320.00
03799            -980.00     6400.00
03800            -980.00     6320.00
03801            -980.00     6320.00
03802            -980.00     6320.00
03803           -1000.00     6240.00
03804            -980.00     6240.00
03805            -980.00     6240.00
03806            -980.00     6240.00
03807            -980.00     6240.00
03808            -980.00     6240.00
03809            -960.00     6160.00
03810            -980.00     6240.00
03811            -980.00     6240.00
03812            -980.00     6080.00
03813            -980.00     6160.00
03814            -940.00     6160.00
03815            -960.00     6080.00
03816            -940.00     6080.00
03817            -980.00     6000.00
03818            -940.00     6080.00
03819            -940.00     6000.00
03820            -940.00     6000.00
03821            -960.00     6000.00
03822            -940.00     6000.00
03823            -940.00     5920.00
03824            -940.00     5920.00
03825            -940.00     5920.00
03826            -940.00     5920.00
03827            -940.00     5920.00
03828            -940.00     5920.00
03829            -940.00     5920.00
03830            -920.00     5920.00
03831            -920.00     5840.00
03832            -920.00     5840.00
03833            -920.00     5760.00
03834            -940.00     5760.00
03835            -920.00     5760.00
03836            -920.00     5760.00
03837            -920.00     5680.00
03838            -920.00     5680.00
03839            -920.00     5680.00
03840            -920.00     5680.00
03841            -920.00     5600.00
03842            -900.00     5600.00
03843            -900.00     5600.00
03844            -920.00     5600.00
03845            -900.00     5600.00
03846            -900.00     5600.00
03847            -860.00     5440.00
03848            -900.00     5440.00
03849            -900.00     5440.00
03850            -880.00     5360.00
03851            -860.00     5360.00
03852            -860.00     5360.00
03853            -860.00     5360.00
03854            -860.00     5360.00
03855            -860.00     5280.00
03856            -860.00     5280.00
03857            -860.00     5200.00
03858            -840.00     5200.00
03859            -860.00     5200.00
03860            -860.00     5200.00
03861            -840.00     5120.00
03862            -840.00     5120.00
03863            -840.00     5120.00
03864            -840.00     5040.00
03865            -840.00     5040.00
03866            -820.00     5040.00
03867            -820.00     4960.00
03868            -820.00     4960.00
03869            -820.00     4960.00
03870            -800.00     4960.00
03871            -820.00     4880.00
03872            -820.00     4880.00
03873            -780.00     4800.00
03874            -800.00     4800.00
03875            -780.00     4800.00
03876            -780.00     4800.00
03877            -780.00     4720.00
03878            -780.00     4640.00
03879            -760.00     4720.00
03880            -760.00     4720.00
03881            -760.00     4640.00
03882            -760.00     4560.00
03883            -760.00     4560.00
03884            -760.00     4480.00
03885            -740.00     4480.00
03886            -760.00     4480.00
03887            -740.00     4400.00
03888            -740.00     4400.00
03889            -740.00     4320.00
03890            -740.00     4320.00
03891            -720.00     4320.00
03892            -740.00     4240.00
03893            -720.00     4320.00
03894            -700.00     4160.00
03895            -700.00     4160.00
03896            -700.00     4080.00
03897            -700.00     4080.00
03898            -700.00     4080.00
03899            -700.00     4080.00
03900            -700.00     4080.00
03901            -680.00     4000.00
03902            -700.00     4000.00
03903            -680.00     3920.00
03904            -680.00     3840.00
03905            -680.00     3840.00
03906            -680.00     3760.00
03907            -660.00     3760.00
03908            -660.00     3760.00
03909            -640.00     3680.00
03910            -640.00     3680.00
03911            -640.00     3680.00
03912            -660.00     3600.00
03913            -620.00     3600.00
03914            -620.00     3520.00
03915            -620.00     3440.00
03916            -620.00     3520.00
03917            -620.00     3440.00
03918            -600.00     3440.00
03919            -600.00     3360.00
03920            -600.00     3360.00
03921            -580.00     3360.00
03922            -600.00     3280.00
03923            -580.00     3280.00
03924            -560.00     3200.00
03925            -580.00     3200.00
03926            -560.00     3120.00
03927            -540.00     3120.00
03928            -540.00     3040.00
03929            -520.00     3040.00
03930            -540.00     3040.00
03931            -520.00     3040.00
03932            -540.00     2880.00
03933            -520.00     2880.00
03934            -520.00     2880.00
03935            -520.00     2800.00
03936            -500.00     2720.00
03937            -500.00     2720.00
03938            -500.00     2720.00
03939            -500.00     2560.00
03940            -460.00     2560.00
03941            -480.00     2560.00
03942            -460.00     2560.00
03943            -460.00     2560.00
03944            -460.00     2480.00
03945            -440.00     2480.00
03946            -460.00     2400.00
03947            -440.00     2400.00
03948            -440.00     2320.00
03949            -440.00     2240.00
03950            -420.00     2240.00
03951            -420.00     2160.00
03952            -400.00     2160.00
03953            -420.00     2160.00
03954            -420.00     2160.00
03955            -420.00     2080.00
03956            -380.00     2080.00
03957            -380.00     2000.00
03958            -380.00     1920.00
03959            -380.00     1920.00
03960            -380.00     1840.00
03961            -380.00     1840.00
03962            -360.00     1760.00
03963            -380.00     1760.00
03964            -360.00     1680.00
03965            -360.00     1600.00
03966            -360.00     1600.00
03967            -340.00     1600.00
03968            -340.00     1600.00
03969            -320.00     1520.00
03970            -340.00     1440.00
03971            -320.00     1440.00
03972            -320.00     1360.00
03973            -300.00     1360.00
03974            -300.00     1280.00
03975            -280.00     1280.00
03976            -280.00     1200.00
03977            -280.00     1200.00
03978            -280.00     1200.00
03979            -260.00     1120.00
03980            -260.00     1120.00
03981            -260.00     1120.00
03982            -260.00      960.00
03983            -220.00     1040.00
03984            -240.00      880.00
03985            -220.00      880.00
03986            -220.00      880.00
03987            -220.00      800.00
03988            -220.00      800.00
03989            -220.00      720.00
03990            -200.00      640.00
03991            -200.00      640.00
03992            -180.00      720.00
03993            -200.00      560.00
03994            -180.00      560.00
03995            -160.00      480.00
03996            -160.00      480.00
03997            -180.00      400.00
03998            -140.00      320.00
03999            -140.00      320.00
04000            -140.00      240.00
04001            -120.00      240.00
04002            -120.00      160.00
04003            -120.00      160.00
04004            -100.00      160.00
04005            -100.00       80.00
04006             -80.00        0.00
04007            -100.00        0.00
04008             -60.00        0.00
04009             -60.00     -160.00
04010             -60.00      -80.00
04011             -60.00     -160.00
04012             -60.00     -160.00
04013             -40.00     -160.00
04014             -40.00     -320.00
04015             -40.00     -320.00
04016             -40.00     -320.00
04017             -20.00     -400.00
04018             -20.00     -400.00
04019             -20.00     -480.00
04020             -40.00     -640.00
04021             -40.00     -720.00
04022             -20.00     -640.00
04023              20.00     -560.00
04024              20.00     -720.00
04025             -20.00     -880.00
04026              20.00     -720.00
04027              40.00     -720.00
04028              20.00     -960.00
04029              40.00     -960.00
04030              60.00     -880.00
04031              40.00     -960.00
04032              40.00    -1040.00
04033              60.00     -960.00
04034              60.00    -1120.00
04035              60.00    -1120.00
04036             100.00    -1120.00
04037              80.00    -1200.00
04038              80.00    -1280.00
04039             100.00    -1280.00
04040             120.00    -1360.00
04041             100.00    -1360.00
04042             120.00    -1360.00
04043             120.00    -1440.00
04044             120.00    -1440.00
04045             140.00    -1520.00
04046             140.00    -1600.00
04047             160.00    -1600.00
04048             160.00    -1680.00
04049             180.00    -1760.00
04050             180.00    -1760.00
04051             180.00    -1760.00
04052             200.00    -1840.00
04053             200.00    -1920.00
04054             200.00    -1840.00
04055             200.00    -1920.00
04056             200.00    -1920.00
04057             220.00    -2000.00
04058             220.00    -2000.00
04059             240.00    -2080.00
04060             260.00    -2160.00
04061             260.00    -2240.00
04062             260.00    -2240.00
04063             260.00    -2240.00
04064             280.00    -2320.00
04065             280.00    -2320.00
04066             260.00    -2400.00
04067             280.00    -2400.00
04068             280.00    -2480.00
04069             300.00    -2480.00
04070             280.00    -2480.00
04071             300.00    -2560.00
04072             320.00    -2560.00
04073             340.00    -2560.00
04074             320.00    -2640.00
04075             340.00    -2640.00
04076             340.00    -2720.00
04077             340.00    -2800.00
04078             360.00    -2800.00
04079             360.00    -2880.00
04080             360.00    -2880.00
04081             380.00    -2960.00
04082             360.00    -2960.00
04083             380.00    -2960.00
04084             380.00    -3040.00
04085             360.00    -3040.00
04086             380.00    -3120.00
04087             380.00    -3200.00
04088             380.00    -3200.00
04089             400.00    -3200.00
04090             420.00    -3280.00
04091             420.00    -3280.00
04092             440.00    -3360.00
04093             420.00    -3360.00
04094             420.00    -3360.00
04095             440.00    -3440.00
04096             440.00    -3440.00
04097             440.00    -3520.00
04098             440.00    -3520.00
04099             460.00    -3520.00
04100             460.00    -3600.00
04101             480.00    -3600.00
04102             460.00    -3680.00
04103             500.00    -3680.00
04104             480.00    -3680.00
04105             520.00    -3840.00
04106             500.00    -3680.00
04107             520.00    -3840.00
04108             520.00    -3840.00
04109             520.00    -3920.00
04110             520.00    -3920.00
04111             520.00    -3920.00
04112             540.00    -4000.00
04113             540.00    -4000.00
04114             540.00    -4000.00
04115             580.00    -4080.00
04116             580.00    -4160.00
04117             560.00    -4160.00
04118             580.00    -4160.00
04119             580.00    -4240.00
04120             580.00    -4240.00
04121             580.00    -4240.00
04122             580.00    -4320.00
04123             600.00    -4320.00
04124             600.00    -4320.00
04125             600.00    -4400.00
04126             620.00    -4480.00
04127             620.00    -4400.00
04128             620.00    -4480.00
04129             660.00    -4480.00
04130             640.00    -4560.00
04131             660.00    -4560.00
04132             660.00    -4640.00
04133             660.00    -4560.00
04134             640.00    -4640.00
04135             660.00    -4640.00
04136             680.00    -4720.00
04137             660.00    -4800.00
04138             680.00    -4800.00
04139             680.00    -4800.00
04140             680.00    -4880.00
04141             680.00    -4880.00
04142             700.00    -4880.00
04143             680.00    -4880.00
04144             700.00    -4960.00
04145             700.00    -4960.00
04146             740.00    -4960.00
04147             700.00    -4960.00
04148             700.00    -5120.00
04149             740.00    -5040.00
04150             700.00    -5120.00
04151             740.00    -5120.00
04152             740.00    -5200.00
04153             720.00    -5120.00
04154             740.00    -5200.00
04155             740.00    -5200.00
04156             760.00    -5200.00
04157             760.00    -5280.00
04158             740.00    -5280.00
04159             760.00    -5280.00
04160             760.00    -5280.00
04161             760.00    -5280.00
04162             760.00    -5360.00
04163             780.00    -5440.00
04164             780.00    -5440.00
04165             780.00    -5440.00
04166             780.00    -5440.00
04167             780.00    -5520.00
04168             800.00    -5520.00
04169             800.00    -5520.00
04170             820.00    -5520.00
04171             820.00    -5600.00
04172             820.00    -5600.00
04173             820.00    -5600.00
04174             840.00    -5680.00
04175             840.00    -5680.00
04176             820.00    -5600.00
04177             820.00    -5760.00
04178             840.00    -5760.00
04179             820.00    -5760.00
04180             840.00    -5760.00
04181             840.00    -5840.00
04182             860.00    -5760.00
04183             840.00    -5840.00
04184             840.00    -5840.00
04185             860.00    -5920.00
04186             840.00    -5920.00
04187             860.00    -5920.00
04188             860.00    -5920.00
04189             900.00    -5920.00
04190             860.00    -5920.00
04191             900.00    -6000.00
04192             900.00    -6000.00
04193             900.00    -5920.00
04194             900.00    -6080.00
04195             900.00    -6080.00
04196             900.00    -6080.00
04197             920.00    -6080.00
04198             900.00    -6080.00
04199             920.00    -6080.00
04200             900.00    -6160.00
04201             920.00    -6080.00
04202             920.00    -6080.00
04203             920.00    -6160.00
04204             920.00    -6160.00
04205             920.00    -6160.00
04206             920.00    -6160.00
04207             920.00    -6160.00
04208             920.00    -6240.00
04209             920.00    -6160.00
04210             920.00    -6240.00
04211             940.00    -6240.00
04212             940.00    -6240.00
04213             940.00    -6240.00
04214             940.00    -6400.00
04215             940.00    -6320.00
04216             940.00    -6400.00
04217             940.00    -6240.00
04218             940.00    -6400.00
04219             940.00    -6320.00
04220             980.00    -6320.00
04221             940.00    -6400.00
04222             940.00    -6400.00
04223             960.00    -6400.00
04224             960.00    -6400.00
04225             940.00    -6480.00
04226             980.00    -6400.00
04227             960.00    -6480.00
04228             980.00    -6400.00
04229             980.00    -6400.00
04230             980.00    -6480.00
04231             980.00    -6400.00
04232             980.00    -6480.00
04233             980.00    -6480.00
04234             980.00    -6400.00
04235             980.00    -6480.00
04236             980.00    -6480.00
04237             980.00    -6400.00
04238             980.00    -6480.00
04239             980.00    -6560.00
04240             980.00    -6480.00
04241             980.00    -6480.00
04242             980.00    -6560.00
04243            1000.00    -6560.00
04244            1000.00    -6480.00
04245            1000.00    -6480.00
04246            1000.00    -6480.00
04247            1000.00    -6560.00
04248             980.00    -6560.00
04249            1000.00    -6560.00
04250            1000.00    -6560.00
04251            1000.00    -6560.00
04252            1000.00    -6480.00
04253            1000.00    -6560.00
04254            1000.00    -6560.00
04255            1000.00    -6560.00
04256            1000.00    -6560.00
04257            1000.00    -6480.00
04258            1000.00    -6560.00
04259            1000.00    -6560.00
04260            1000.00    -6560.00
04261            1020.00    -6560.00
04262            1000.00    -6560.00
04263            1000.00    -6480.00
04264            1000.00    -6560.00
04265            1000.00    -6560.00
04266            1000.00    -6560.00
04267            1000.00    -6560.00
04268            1020.00    -6560.00
04269            1020.00    -6560.00
04270            1000.00    -6560.00
04271            1020.00    -6560.00
04272            1020.00    -6560.00
04273            1020.00    -6480.00
04274            1020.00    -6480.00
04275            1020.00    -6480.00
04276            1000.00    -6560.00
04277            1000.00    -6480.00
04278            1020.00    -6480.00
04279            1020.00    -6480.00
04280            1020.00    -6480.00
04281            1020.00    -6480.00
04282            1000.00    -6480.00
04283            1020.00    -6480.00
04284            1000.00    -6400.00
04285            1000.00    -6400.00
04286            1000.00    -6480.00
04287            1000.00    -6400.00
04288            1000.00    -6480.00
04289            1000.00    -6400.00
04290            1000.00    -6400.00
04291            1000.00    -6400.00
04292             980.00    -6400.00
04293            1000.00    -6400.00
04294            1000.00    -6320.00
04295            1000.00    -6400.00
04296            1000.00    -6400.00
04297            1000.00    -6400.00
04298            1000.00    -6320.00
04299            1000.00    -6320.00
04300             980.00    -6320.00
04301             980.00    -6240.00
04302            1000.00    -6240.00
04303            1000.00    -6240.00
04304            1000.00    -6240.00
04305             980.00    -6240.00
04306            1000.00    -6240.00
04307            1000.00    -6240.00
04308             980.00    -6240.00
04309             980.00    -6240.00
04310             980.00    -6240.00
04311            1000.00    -6160.00
04312            1000.00    -6240.00
04313            1000.00    -6080.00
04314             980.00    -6160.00
04315             980.00    -6080.00
04316            1000.00    -6080.00
04317             980.00    -6080.00
04318             980.00    -6160.00
04319             980.00    -6080.00
04320             980.00    -6080.00
04321             980.00    -6080.00
04322             980.00    -6000.00
04323             980.00    -6080.00
04324             980.00    -6080.00
04325             980.00    -5920.00
04326             940.00    -6000.00
04327             940.00    -5920.00
04328             980.00    -5920.00
04329             960.00    -5920.00
04330             940.00    -5920.00
04331             960.00    -5840.00
04332             960.00    -5920.00
04333             940.00    -5840.00
04334             960.00    -5840.00
04335             940.00    -5840.00
04336             940.00    -5840.00
04337             940.00    -5760.00
04338             940.00    -5760.00
04339             940.00    -5760.00
04340             920.00    -5760.00
04341             940.00    -5760.00
04342             920.00    -5760.00
04343             920.00    -5680.00
04344             920.00    -5600.00
04345             920.00    -5600.00
04346             900.00    -5600.00
04347             900.00    -5600.00
04348             900.00    -5520.00
04349             900.00    -5520.00
04350             900.00    -5440.00
04351             900.00    -5440.00
04352             900.00    -5520.00
04353             900.00    -5520.00
04354             860.00    -5440.00
04355             860.00    -5440.00
04356             860.00    -5440.00
04357             900.00    -5360.00
04358             860.00    -5280.00
04359             860.00    -5280.00
04360             860.00    -5280.00
04361             860.00    -5280.00
04362             860.00    -5280.00
04363             840.00    -5200.00
04364             840.00    -5200.00
04365             840.00    -5120.00
04366             840.00    -5200.00
04367             840.00    -5120.00
04368             840.00    -5120.00
04369             840.00    -5120.00
04370             840.00    -5120.00
04371             840.00    -4960.00
04372             820.00    -4960.00
04373             820.00    -4960.00
04374             840.00    -4880.00
04375             820.00    -4960.00
04376             820.00    -4880.00
04377             820.00    -4800.00
04378             820.00    -4880.00
04379             800.00    -4800.00
04380             780.00    -4800.00
04381             780.00    -4800.00
04382             780.00    -4720.00
04383             780.00    -4640.00
04384             780.00    -4720.00
04385             780.00    -4640.00
04386             780.00    -4560.00
04387             780.00    -4560.00
04388             780.00    -4560.00
04389             760.00    -4560.00
04390             760.00    -4400.00
04391             760.00    -4480.00
04392             760.00    -4400.00
04393             760.00    -4320.00
04394             760.00    -4320.00
04395             760.00    -4320.00
04396             740.00    -4240.00
04397             740.00    -4240.00
04398             740.00    -4240.00
04399             740.00    -4240.00
04400             740.00    -4160.00
04401             740.00    -4160.00
04402             700.00    -4160.00
04403             700.00    -4080.00
04404             700.00    -4000.00
04405             700.00    -4000.00
04406             700.00    -4000.00
04407             680.00    -3920.00
04408             680.00    -3920.00
04409             680.00    -3920.00
04410             680.00    -3840.00
04411             660.00    -3840.00
04412             660.00    -3840.00
04413             660.00    -3760.00
04414             660.00    -3760.00
04415             660.00    -3680.00
04416             640.00    -3600.00
04417             620.00    -3680.00
04418             620.00    -3600.00
04419             620.00    -3600.00
04420             620.00    -3520.00
04421             620.00    -3520.00
04422             600.00    -3520.00
04423             600.00    -3440.00
04424             600.00    -3360.00
04425             600.00    -3360.00
04426             580.00    -3360.00
04427             580.00    -3360.00
04428             580.00    -3280.00
04429             580.00    -3280.00
04430             580.00    -3200.00
04431             580.00    -3200.00
04432             580.00    -3120.00
04433             540.00    -3120.00
04434             540.00    -3040.00
04435             540.00    -3040.00
04436             540.00    -2960.00
04437             540.00    -2960.00
04438             520.00    -2960.00
04439             520.00    -2880.00
04440             520.00    -2880.00
04441             520.00    -2880.00
04442             520.00    -2720.00
04443             520.00    -2720.00
04444             520.00    -2640.00
04445             500.00    -2640.00
04446             480.00    -2640.00
04447             480.00    -2640.00
04448             500.00    -2560.00
04449             480.00    -2560.00
04450             460.00    -2560.00
04451             440.00    -2400.00
04452             460.00    -2400.00
04453             440.00    -2400.00
04454             440.00    -2320.00
04455             440.00    -2240.00
04456             440.00    -2240.00
04457             420.00    -2240.00
04458             420.00    -2160.00
04459             420.00    -2160.00
04460             420.00    -2080.00
04461             420.00    -2080.00
04462             420.00    -2000.00
04463             420.00    -2000.00
04464             380.00    -1920.00
04465             380.00    -1840.00
04466             380.00    -1840.00
04467             360.00    -1760.00
04468             380.00    -1840.00
04469             360.00    -1760.00
04470             360.00    -1680.00
04471             360.00    -1680.00
04472             360.00    -1600.00
04473             340.00    -1600.00
04474             340.00    -1600.00
04475             340.00    -1520.00
04476             320.00    -1600.00
04477             300.00    -1440.00
04478             300.00    -1440.00
04479             300.00    -1360.00
04480             300.00    -1360.00
04481             280.00    -1280.00
04482             280.00    -1280.00
04483             280.00    -1280.00
04484             260.00    -1120.00
04485             280.00    -1120.00
04486             260.00    -1120.00
04487             260.00    -1040.00
04488             260.00    -1040.00
04489             240.00     -960.00
04490             240.00     -960.00
04491             220.00     -960.00
04492             220.00     -800.00
04493             220.00     -800.00
04494             200.00     -800.00
04495             200.00     -720.00
04496             200.00     -720.00
04497             180.00     -720.00
04498             180.00     -640.00
04499             180.00     -560.00
04500             180.00     -560.00
04501             180.00     -480.00
04502             180.00     -480.00
04503             140.00     -400.00
04504             140.00     -400.00
04505             140.00     -320.00
04506             160.00     -240.00
04507             140.00     -320.00
04508             140.00     -160.00
04509             140.00     -160.00
04510             120.00      -80.00
04511             120.00      -80.00
04512             100.00      -80.00
04513             100.00        0.00
04514             100.00        0.00
04515             100.00       80.00
04516             100.00       80.00
04517              80.00      160.00
04518              60.00      160.00
04519              80.00      240.00
04520              60.00      240.00
04521              40.00      320.00
04522              40.00      320.00
04523              40.00      320.00
04524              40.00      400.00
04525              40.00      480.00
04526              40.00      640.00
04527              20.00      560.00
04528             -20.00      480.00
04529             -20.00      560.00
04530              20.00      800.00
04531              40.00      800.00
04532             -40.00      640.00
04533             -20.00      800.00
04534               0.00      960.00
04535             -40.00      880.00
04536             -60.00      800.00
04537             -40.00     1120.00
04538             -40.00     1040.00
04539             -60.00      880.00
04540             -60.00     1120.00
04541             -40.00     1200.00
04542            -100.00     1120.00
04543            -100.00     1200.00
04544             -60.00     1280.00
04545            -120.00     1200.00
04546            -120.00     1280.00
04547            -120.00     1440.00
04548            -140.00     1360.00
04549            -140.00     1440.00
04550            -120.00     1440.00
04551            -160.00     1440.00
04552            -140.00     1600.00
04553            -140.00     1600.00
04554            -160.00     1600.00
04555            -180.00     1760.00
04556            -180.00     1760.00
04557            -200.00     1760.00
04558            -180.00     1760.00
04559            -200.00     1840.00
04560            -200.00     1840.00
04561            -200.00     1920.00
04562            -220.00     1920.00
04563            -220.00     2000.00
04564            -220.00     2080.00
04565            -220.00     2080.00
04566            -220.00     2160.00
04567            -220.00     2160.00
04568            -240.00     2160.00
04569            -240.00     2240.00
04570            -260.00     2240.00
04571            -280.00     2320.00
04572            -260.00     2400.00
04573            -280.00     2400.00
04574            -280.00     2480.00
04575            -280.00     2480.00
04576            -300.00     2480.00
04577            -300.00     2560.00
04578            -300.00     2560.00
04579            -300.00     2640.00
04580            -300.00     2720.00
04581            -340.00     2720.00
04582            -340.00     2720.00
04583            -340.00     2800.00
04584            -340.00     2800.00
04585            -340.00     2800.00
04586            -360.00     2880.00
04587            -360.00     2960.00
04588            -360.00     2880.00
04589            -380.00     3040.00
04590            -380.00     3040.00
04591            -380.00     3120.00
04592            -380.00     3120.00
04593            -380.00     3120.00
04594            -380.00     3280.00
04595            -420.00     3200.00
04596            -400.00     3280.00
04597            -420.00     3360.00
04598            -420.00     3280.00
04599            -440.00     3360.00
04600            -420.00     3440.00
04601            -440.00     3440.00
04602            -440.00     3440.00
04603            -440.00     3440.00
04604            -460.00     3520.00
04605            -460.00     3520.00
04606            -460.00     3520.00
04607            -460.00     3600.00
04608            -500.00     3600.00
04609            -500.00     3680.00
04610            -500.00     3680.00
04611            -480.00     3840.00
04612            -500.00     3760.00
04613            -520.00     3840.00
04614            -520.00     3840.00
04615            -520.00     3840.00
04616            -520.00     4000.00
04617            -520.00     4000.00
04618            -540.00     4000.00
04619            -540.00     4000.00
04620            -540.00     4080.00
04621            -540.00     4160.00
04622            -540.00     4080.00
04623            -580.00     4160.00
04624            -580.00     4160.00
04625            -580.00     4240.00
04626            -580.00     4320.00
04627            -600.00     4320.00
04628            -600.00     4320.00
04629            -600.00     4320.00
04630            -600.00     4320.00
04631            -620.00     4400.00
04632            -600.00     4400.00
04633            -600.00     4480.00
04634            -620.00     4480.00
04635            -620.00     4480.00
04636            -620.00     4480.00
04637            -620.00     4560.00
04638            -620.00     4640.00
04639            -620.00     4720.00
04640            -640.00     4720.00
04641            -620.00     4720.00
04642            -660.00     4720.00
04643            -660.00     4800.00
04644            -660.00     4800.00
04645            -680.00     4800.00
04646            -680.00     4880.00
04647            -680.00     4880.00
04648            -680.00     4960.00
04649            -680.00     4960.00
04650            -700.00     4960.00
04651            -700.00     4960.00
04652            -700.00     4960.00
04653            -700.00     5040.00
04654            -700.00     5120.00
04655            -700.00     5120.00
04656            -700.00     5120.00
04657            -700.00     5120.00
04658            -740.00     5120.00
04659            -720.00     5120.00
04660            -740.00     5280.00
04661            -760.00     5280.00
04662            -740.00     5280.00
04663            -740.00     5280.00
04664            -740.00     5360.00
04665            -760.00     5360.00
04666            -760.00     5360.00
04667            -760.00     5360.00
04668            -760.00     5440.00
04669            -760.00     5440.00
04670            -760.00     5440.00
04671            -780.00     5440.00
04672            -760.00     5600.00
04673            -800.00     5520.00
04674            -800.00     5440.00
04675            -820.00     5600.00
04676            -780.00     5600.00
04677            -820.00     5600.00
04678            -820.00     5600.00
04679            -820.00     5680.00
04680            -820.00     5680.00
04681            -840.00     5680.00
04682            -840.00     5760.00
04683            -840.00     5760.00
04684            -840.00     5840.00
04685            -840.00     5760.00
04686            -860.00     5760.00
04687            -860.00     5840.00
04688            -860.00     5920.00
04689            -840.00     5840.00
04690            -860.00     5920.00
04691            -860.00     5920.00
04692            -860.00     5920.00
04693            -860.00     5920.00
04694            -860.00     5920.00
04695            -860.00     6000.00
04696            -860.00     6000.00
04697            -900.00     6000.00
04698            -900.00     6080.00
04699            -900.00     6000.00
04700            -900.00     6080.00
04701            -880.00     6080.00
04702            -900.00     6080.00
04703            -900.00     6080.00
04704            -900.00     6160.00
04705            -920.00     6160.00
04706            -900.00     6240.00
04707            -900.00     6240.00
04708            -920.00     6240.00
04709            -920.00     6240.00
04710            -920.00     6240.00
04711            -920.00     6240.00
04712            -920.00     6240.00
04713            -920.00     6320.00
04714            -920.00     6240.00
04715            -920.00     6320.00
04716            -920.00     6320.00
04717            -920.00     6320.00
04718            -920.00     6320.00
04719            -920.00     6320.00
04720            -940.00     6400.00
04721            -920.00     6320.00
04722            -920.00     6320.00
04723            -940.00     6400.00
04724            -940.00     6400.00
04725            -940.00     6400.00
04726            -940.00     6400.00
04727            -940.00     6400.00
04728            -940.00     6480.00
04729            -940.00     6400.00
04730            -980.00     6400.00
04731            -940.00     6400.00
04732            -960.00     6480.00
04733            -980.00     6400.00
04734            -960.00     6480.00
04735            -980.00     6560.00
04736            -980.00     6480.00
04737           -1000.00     6560.00
04738            -980.00     6560.00
04739            -980.00     6560.00
04740            -980.00     6560.00
04741            -980.00     6560.00
04742            -980.00     6560.00
04743            -980.00     6560.00
04744           -1000.00     6560.00
04745            -980.00     6560.00
04746           -1000.00     6560.00
04747           -1000.00     6560.00
04748           -1000.00     6640.00
04749           -1000.00     6640.00
04750           -1000.00     6560.00
04751           -1000.00     6640.00
04752           -1000.00     6560.00
04753           -1000.00     6560.00
04754           -1000.00     6560.00
04755           -1000.00     6560.00
04756           -1000.00     6640.00
04757           -1000.00     6640.00
04758           -1000.00     6560.00
04759           -1000.00     6560.00
04760           -1020.00     6560.00
04761           -1020.00     6640.00
04762           -1000.00     6640.00
04763           -1020.00     6640.00
04764           -1000.00     6640.00
04765           -1000.00     6640.00
04766           -1020.00     6560.00
04767           -1020.00     6640.00
04768           -1000.00     6640.00
04769           -1000.00     6640.00
04770           -1020.00     6640.00
04771           -1000.00     6640.00
04772           -1020.00     6640.00
04773           -1020.00     6560.00
04774           -1000.00     6640.00
04775           -1020.00     6560.00
04776           -1000.00     6640.00
04777           -1020.00     6640.00
04778           -1000.00     6560.00
04779           -1000.00     6640.00
04780           -1000.00     6640.00
04781           -1020.00     6560.00
04782           -1020.00     6640.00
04783           -1020.00     6640.00
04784           -1000.00     6560.00
04785           -1000.00     6640.00
04786           -1000.00     6560.00
04787           -1020.00     6560.00
04788           -1000.00     6560.00
04789           -1020.00     6560.00
04790           -1000.00     6560.00
04791           -1000.00     6560.00
04792           -1020.00     6560.00
04793            -980.00     6560.00
04794           -1000.00     6560.00
04795           -1020.00     6560.00
04796           -1000.00     6560.00
04797           -1000.00     6560.00
04798           -1000.00     6480.00
04799           -1000.00     6480.00
04800           -1000.00     6480.00
04801           -1000.00     6480.00
04802           -1000.00     6400.00
04803            -980.00     6480.00
04804           -1020.00     6400.00
04805           -1000.00     6400.00
04806           -1020.00     6400.00
04807           -1020.00     6400.00
04808           -1020.00     6400.00
04809           -1000.00     6400.00
04810           -1000.00     6400.00
04811           -1000.00     6400.00
04812           -1020.00     6400.00
04813            -980.00     6320.00
04814           -1000.00     6320.00
04815           -1000.00     6320.00
04816           -1000.00     6320.00
04817           -1000.00     6320.00
04818           -1000.00     6320.00
04819            -980.00     6320.00
04820            -980.00     6320.00
04821            -980.00     6240.00
04822           -1000.00     6240.00
04823            -980.00     6240.00
04824            -980.00     6240.00
04825            -980.00     6240.00
04826            -980.00     6240.00
04827            -980.00     6240.00
04828            -980.00     6160.00
04829            -960.00     6160.00
04830            -980.00     6080.00
04831            -960.00     6080.00
04832            -980.00     6080.00
04833            -960.00     6080.00
04834            -940.00     6000.00
04835            -960.00     6000.00
04836            -960.00     6080.00
04837            -940.00     6000.00
04838            -940.00     6000.00
04839            -940.00     5920.00
04840            -940.00     5920.00
04841            -940.00     5920.00
04842            -920.00     5920.00
04843            -940.00     5920.00
04844            -940.00     5920.00
04845            -920.00     5920.00
04846            -940.00     5840.00
04847            -920.00     5840.00
04848            -920.00     5840.00
04849            -920.00     5760.00
04850            -920.00     5760.00
04851            -920.00     5680.00
04852            -920.00     5760.00
04853            -920.00     5680.00
04854            -920.00     5680.00
04855            -900.00     5680.00
04856            -900.00     5680.00
04857            -920.00     5600.00
04858            -900.00     5600.00
04859            -900.00     5600.00
04860            -900.00     5440.00
04861            -880.00     5600.00
04862            -900.00     5520.00
04863            -860.00     5440.00
04864            -860.00     5440.00
04865            -860.00     5440.00
04866            -860.00     5440.00
04867            -900.00     5440.00
04868            -860.00     5360.00
04869            -880.00     5360.00
04870            -860.00     5280.00
04871            -860.00     5280.00
04872            -860.00     5280.00
04873            -860.00     5280.00
04874            -860.00     5200.00
04875            -860.00     5200.00
04876            -860.00     5200.00
04877            -860.00     5120.00
04878            -860.00     5120.00
04879            -840.00     5120.00
04880            -840.00     5040.00
04881            -820.00     5040.00
04882            -840.00     5040.00
04883            -840.00     4960.00
04884            -840.00     4960.00
04885            -820.00     4960.00
04886            -840.00     4960.00
04887            -820.00     4880.00
04888            -820.00     4880.00
04889            -820.00     4800.00
04890            -780.00     4800.00
04891            -820.00     4800.00
04892            -780.00     4720.00
04893            -780.00     4800.00
04894            -780.00     4720.00
04895            -780.00     4640.00
04896            -760.00     4640.00
04897            -760.00     4640.00
04898            -760.00     4560.00
04899            -760.00     4480.00
04900            -760.00     4560.00
04901            -760.00     4480.00
04902            -740.00     4480.00
04903            -760.00     4480.00
04904            -740.00     4400.00
04905            -740.00     4320.00
04906            -740.00     4320.00
04907            -720.00     4320.00
04908            -700.00     4320.00
04909            -700.00     4240.00
04910            -700.00     4160.00
04911            -700.00     4160.00
04912            -700.00     4160.00
04913            -680.00     4080.00
04914            -700.00     4080.00
04915            -700.00     4080.00
04916            -700.00     4000.00
04917            -680.00     4000.00
04918            -680.00     3840.00
04919            -680.00     3920.00
04920            -660.00     3920.00
04921            -660.00     3840.00
04922            -660.00     3840.00
04923            -660.00     3840.00
04924            -660.00     3760.00
04925            -660.00     3680.00
04926            -640.00     3680.00
04927            -620.00     3680.00
04928            -620.00     3680.00
04929            -620.00     3600.00
04930            -620.00     3520.00
04931            -600.00     3520.00
04932            -600.00     3440.00
04933            -620.00     3440.00
04934            -620.00     3440.00
04935            -600.00     3360.00
04936            -600.00     3360.00
04937            -600.00     3360.00
04938            -600.00     3280.00
04939            -600.00     3280.00
04940            -580.00     3200.00
04941            -580.00     3200.00
04942            -560.00     3120.00
04943            -580.00     3120.00
04944            -560.00     3040.00
04945            -540.00     3120.00
04946            -540.00     2880.00
04947            -540.00     2880.00
04948            -540.00     2880.00
04949            -540.00     2880.00
04950            -520.00     2880.00
04951            -520.00     2800.00
04952            -520.00     2800.00
04953            -500.00     2720.00
04954            -500.00     2720.00
04955            -500.00     2640.00
04956            -500.00     2560.00
04957            -480.00     2640.00
04958            -480.00     2560.00
04959            -480.00     2480.00
04960            -460.00     2560.00
04961            -460.00     2480.00
04962            -460.00     2400.00
04963            -440.00     2400.00
04964            -440.00     2400.00
04965            -440.00     2400.00
04966            -440.00     2240.00
04967            -440.00     2240.00
04968            -420.00     2240.00
04969            -420.00     2160.00
04970            -420.00     2080.00
04971            -400.00     2160.00
04972            -400.00     2000.00
04973            -380.00     2000.00
04974            -380.00     1920.00
04975            -380.00     1920.00
04976            -380.00     1840.00
04977            -380.00     1760.00
04978            -360.00     1760.00
04979            -360.00     1760.00
04980            -360.00     1760.00
04981            -340.00     1760.00
04982            -320.00     1600.00
04983            -340.00     1600.00
04984            -340.00     1600.00
04985            -320.00     1520.00
04986            -300.00     1520.00
04987            -280.00     1440.00
04988            -300.00     1360.00
04989            -280.00     1360.00
04990            -280.00     1280.00
04991            -300.00     1280.00
04992            -260.00     1200.00
04993            -280.00     1200.00
04994            -280.00     1200.00
04995            -280.00     1120.00
04996            -260.00     1120.00
04997            -260.00     1040.00
04998            -260.00      960.00
04999            -260.00      960.00
05000            -240.00      960.00
