Unit:(mV)
                     CH1         CH2
Frequency              ?  98.433 kHz
00001            -420.00    -2720.00
00002            -440.00    -2720.00
00003            -440.00    -2720.00
00004            -440.00    -2800.00
00005            -460.00    -2880.00
00006            -460.00    -2880.00
00007            -460.00    -2960.00
00008            -460.00    -2960.00
00009            -500.00    -3040.00
00010            -480.00    -3040.00
00011            -500.00    -3200.00
00012            -520.00    -3120.00
00013            -520.00    -3200.00
00014            -520.00    -3280.00
00015            -540.00    -3280.00
00016            -540.00    -3360.00
00017            -540.00    -3360.00
00018            -580.00    -3440.00
00019            -560.00    -3440.00
00020            -580.00    -3520.00
00021            -580.00    -3520.00
00022            -580.00    -3600.00
00023            -600.00    -3600.00
00024            -600.00    -3680.00
00025            -600.00    -3680.00
00026            -620.00    -3680.00
00027            -640.00    -3760.00
00028            -620.00    -3840.00
00029            -660.00    -3840.00
00030            -660.00    -3920.00
00031            -660.00    -3920.00
00032            -680.00    -3920.00
00033            -680.00    -4000.00
00034            -680.00    -4000.00
00035            -700.00    -4080.00
00036            -700.00    -4080.00
00037            -740.00    -4160.00
00038            -700.00    -4240.00
00039            -740.00    -4240.00
00040            -740.00    -4240.00
00041            -740.00    -4320.00
00042            -760.00    -4320.00
00043            -760.00    -4400.00
00044            -760.00    -4400.00
00045            -780.00    -4480.00
00046            -760.00    -4480.00
00047            -780.00    -4560.00
00048            -780.00    -4560.00
00049            -820.00    -4640.00
00050            -800.00    -4640.00
00051            -820.00    -4720.00
00052            -840.00    -4800.00
00053            -820.00    -4800.00
00054            -840.00    -4880.00
00055            -840.00    -4880.00
00056            -840.00    -4960.00
00057            -860.00    -4960.00
00058            -860.00    -4960.00
00059            -860.00    -5040.00
00060            -860.00    -5040.00
00061            -860.00    -5120.00
00062            -860.00    -5120.00
00063            -860.00    -5120.00
00064            -900.00    -5200.00
00065            -920.00    -5200.00
00066            -900.00    -5200.00
00067            -920.00    -5280.00
00068            -920.00    -5280.00
00069            -920.00    -5360.00
00070            -920.00    -5360.00
00071            -920.00    -5440.00
00072            -940.00    -5440.00
00073            -940.00    -5520.00
00074            -940.00    -5520.00
00075            -940.00    -5520.00
00076            -960.00    -5600.00
00077            -960.00    -5600.00
00078            -980.00    -5680.00
00079            -980.00    -5680.00
00080            -980.00    -5760.00
00081           -1000.00    -5760.00
00082           -1000.00    -5760.00
00083           -1000.00    -5760.00
00084           -1000.00    -5840.00
00085           -1020.00    -5920.00
00086           -1020.00    -5840.00
00087           -1020.00    -5920.00
00088           -1020.00    -5920.00
00089           -1040.00    -5920.00
00090           -1040.00    -6000.00
00091           -1020.00    -6080.00
00092           -1060.00    -6080.00
00093           -1080.00    -6160.00
00094           -1060.00    -6080.00
00095           -1080.00    -6160.00
00096           -1080.00    -6160.00
00097           -1080.00    -6160.00
00098           -1080.00    -6240.00
00099           -1100.00    -6240.00
00100           -1100.00    -6240.00
00101           -1100.00    -6240.00
00102           -1100.00    -6400.00
00103           -1120.00    -6400.00
00104           -1140.00    -6400.00
00105           -1140.00    -6400.00
00106           -1140.00    -6480.00
00107           -1140.00    -6480.00
00108           -1160.00    -6480.00
00109           -1160.00    -6480.00
00110           -1140.00    -6560.00
00111           -1160.00    -6560.00
00112           -1180.00    -6560.00
00113           -1160.00    -6560.00
00114           -1180.00    -6640.00
00115           -1180.00    -6720.00
00116           -1180.00    -6720.00
00117           -1180.00    -6720.00
00118           -1180.00    -6720.00
00119           -1180.00    -6720.00
00120           -1180.00    -6800.00
00121           -1220.00    -6800.00
00122           -1200.00    -6800.00
00123           -1180.00    -6880.00
00124           -1220.00    -6880.00
00125           -1220.00    -6880.00
00126           -1200.00    -6880.00
00127           -1240.00    -6880.00
00128           -1220.00    -6880.00
00129           -1240.00    -6880.00
00130           -1240.00    -6880.00
00131           -1240.00    -7040.00
00132           -1240.00    -6880.00
00133           -1240.00    -6960.00
00134           -1240.00    -6960.00
00135           -1240.00    -7040.00
00136           -1240.00    -6960.00
00137           -1240.00    -7120.00
00138           -1260.00    -7040.00
00139           -1240.00    -7120.00
00140           -1260.00    -7120.00
00141           -1260.00    -7120.00
00142           -1260.00    -7120.00
00143           -1260.00    -7200.00
00144           -1260.00    -7120.00
00145           -1280.00    -7200.00
00146           -1280.00    -7200.00
00147           -1280.00    -7280.00
00148           -1280.00    -7200.00
00149           -1300.00    -7360.00
00150           -1300.00    -7280.00
00151           -1280.00    -7360.00
00152           -1280.00    -7200.00
00153           -1320.00    -7360.00
00154           -1300.00    -7360.00
00155           -1320.00    -7360.00
00156           -1320.00    -7360.00
00157           -1320.00    -7360.00
00158           -1320.00    -7360.00
00159           -1320.00    -7360.00
00160           -1320.00    -7440.00
00161           -1320.00    -7360.00
00162           -1320.00    -7440.00
00163           -1340.00    -7440.00
00164           -1320.00    -7440.00
00165           -1340.00    -7440.00
00166           -1340.00    -7440.00
00167           -1340.00    -7440.00
00168           -1340.00    -7440.00
00169           -1340.00    -7520.00
00170           -1340.00    -7440.00
00171           -1340.00    -7520.00
00172           -1340.00    -7440.00
00173           -1340.00    -7520.00
00174           -1340.00    -7520.00
00175           -1340.00    -7440.00
00176           -1360.00    -7520.00
00177           -1360.00    -7520.00
00178           -1340.00    -7520.00
00179           -1380.00    -7520.00
00180           -1340.00    -7520.00
00181           -1340.00    -7520.00
00182           -1360.00    -7520.00
00183           -1340.00    -7520.00
00184           -1380.00    -7520.00
00185           -1340.00    -7600.00
00186           -1340.00    -7520.00
00187           -1380.00    -7600.00
00188           -1340.00    -7520.00
00189           -1360.00    -7520.00
00190           -1380.00    -7520.00
00191           -1340.00    -7520.00
00192           -1380.00    -7520.00
00193           -1380.00    -7520.00
00194           -1380.00    -7600.00
00195           -1340.00    -7520.00
00196           -1380.00    -7600.00
00197           -1360.00    -7520.00
00198           -1380.00    -7600.00
00199           -1360.00    -7520.00
00200           -1340.00    -7520.00
00201           -1340.00    -7520.00
00202           -1360.00    -7520.00
00203           -1380.00    -7600.00
00204           -1360.00    -7520.00
00205           -1360.00    -7600.00
00206           -1380.00    -7520.00
00207           -1340.00    -7520.00
00208           -1360.00    -7520.00
00209           -1340.00    -7520.00
00210           -1380.00    -7520.00
00211           -1340.00    -7520.00
00212           -1340.00    -7520.00
00213           -1340.00    -7520.00
00214           -1360.00    -7520.00
00215           -1340.00    -7520.00
00216           -1340.00    -7520.00
00217           -1340.00    -7440.00
00218           -1340.00    -7520.00
00219           -1340.00    -7520.00
00220           -1340.00    -7520.00
00221           -1360.00    -7440.00
00222           -1360.00    -7440.00
00223           -1340.00    -7440.00
00224           -1340.00    -7440.00
00225           -1360.00    -7440.00
00226           -1360.00    -7440.00
00227           -1340.00    -7440.00
00228           -1340.00    -7360.00
00229           -1340.00    -7440.00
00230           -1340.00    -7440.00
00231           -1340.00    -7360.00
00232           -1340.00    -7360.00
00233           -1340.00    -7360.00
00234           -1340.00    -7360.00
00235           -1340.00    -7360.00
00236           -1340.00    -7360.00
00237           -1320.00    -7360.00
00238           -1340.00    -7360.00
00239           -1340.00    -7280.00
00240           -1340.00    -7360.00
00241           -1320.00    -7280.00
00242           -1340.00    -7360.00
00243           -1340.00    -7280.00
00244           -1320.00    -7200.00
00245           -1320.00    -7200.00
00246           -1320.00    -7200.00
00247           -1320.00    -7200.00
00248           -1340.00    -7200.00
00249           -1320.00    -7200.00
00250           -1320.00    -7120.00
00251           -1300.00    -7120.00
00252           -1300.00    -7120.00
00253           -1300.00    -7120.00
00254           -1280.00    -7040.00
00255           -1280.00    -7040.00
00256           -1300.00    -6960.00
00257           -1300.00    -6960.00
00258           -1280.00    -7040.00
00259           -1260.00    -6960.00
00260           -1280.00    -6960.00
00261           -1260.00    -6880.00
00262           -1260.00    -6960.00
00263           -1260.00    -6880.00
00264           -1260.00    -6880.00
00265           -1260.00    -6880.00
00266           -1260.00    -6800.00
00267           -1240.00    -6880.00
00268           -1260.00    -6800.00
00269           -1240.00    -6720.00
00270           -1240.00    -6720.00
00271           -1240.00    -6720.00
00272           -1240.00    -6720.00
00273           -1240.00    -6720.00
00274           -1240.00    -6720.00
00275           -1220.00    -6640.00
00276           -1220.00    -6640.00
00277           -1240.00    -6560.00
00278           -1220.00    -6560.00
00279           -1220.00    -6560.00
00280           -1220.00    -6560.00
00281           -1220.00    -6480.00
00282           -1180.00    -6480.00
00283           -1200.00    -6480.00
00284           -1180.00    -6400.00
00285           -1180.00    -6400.00
00286           -1180.00    -6480.00
00287           -1180.00    -6400.00
00288           -1180.00    -6400.00
00289           -1180.00    -6320.00
00290           -1160.00    -6320.00
00291           -1180.00    -6240.00
00292           -1160.00    -6240.00
00293           -1160.00    -6160.00
00294           -1160.00    -6160.00
00295           -1160.00    -6160.00
00296           -1160.00    -6160.00
00297           -1160.00    -6160.00
00298           -1140.00    -6080.00
00299           -1140.00    -6080.00
00300           -1140.00    -6080.00
00301           -1120.00    -6080.00
00302           -1140.00    -5920.00
00303           -1140.00    -5920.00
00304           -1100.00    -5920.00
00305           -1100.00    -5840.00
00306           -1100.00    -5840.00
00307           -1080.00    -5840.00
00308           -1100.00    -5840.00
00309           -1080.00    -5760.00
00310           -1080.00    -5760.00
00311           -1060.00    -5680.00
00312           -1080.00    -5760.00
00313           -1060.00    -5680.00
00314           -1060.00    -5600.00
00315           -1060.00    -5600.00
00316           -1060.00    -5520.00
00317           -1060.00    -5440.00
00318           -1020.00    -5440.00
00319           -1020.00    -5440.00
00320           -1020.00    -5440.00
00321           -1020.00    -5360.00
00322           -1000.00    -5360.00
00323           -1020.00    -5280.00
00324           -1000.00    -5280.00
00325           -1000.00    -5280.00
00326           -1000.00    -5200.00
00327            -980.00    -5200.00
00328            -980.00    -5120.00
00329            -980.00    -5120.00
00330            -940.00    -5120.00
00331            -940.00    -5040.00
00332            -980.00    -5040.00
00333            -940.00    -4960.00
00334            -940.00    -4960.00
00335            -940.00    -4960.00
00336            -920.00    -4880.00
00337            -920.00    -4800.00
00338            -920.00    -4800.00
00339            -920.00    -4800.00
00340            -900.00    -4800.00
00341            -900.00    -4720.00
00342            -900.00    -4640.00
00343            -900.00    -4560.00
00344            -860.00    -4560.00
00345            -860.00    -4560.00
00346            -860.00    -4560.00
00347            -860.00    -4400.00
00348            -860.00    -4400.00
00349            -840.00    -4400.00
00350            -840.00    -4320.00
00351            -840.00    -4320.00
00352            -820.00    -4240.00
00353            -820.00    -4240.00
00354            -820.00    -4240.00
00355            -820.00    -4160.00
00356            -820.00    -4160.00
00357            -820.00    -4080.00
00358            -780.00    -4080.00
00359            -800.00    -4000.00
00360            -780.00    -3920.00
00361            -760.00    -3920.00
00362            -760.00    -3840.00
00363            -760.00    -3840.00
00364            -760.00    -3840.00
00365            -740.00    -3760.00
00366            -740.00    -3680.00
00367            -740.00    -3680.00
00368            -740.00    -3680.00
00369            -720.00    -3600.00
00370            -740.00    -3600.00
00371            -700.00    -3520.00
00372            -680.00    -3520.00
00373            -680.00    -3440.00
00374            -680.00    -3360.00
00375            -680.00    -3360.00
00376            -680.00    -3360.00
00377            -660.00    -3280.00
00378            -660.00    -3200.00
00379            -660.00    -3200.00
00380            -620.00    -3200.00
00381            -620.00    -3120.00
00382            -620.00    -3040.00
00383            -620.00    -3040.00
00384            -600.00    -2960.00
00385            -600.00    -2960.00
00386            -600.00    -2880.00
00387            -580.00    -2800.00
00388            -580.00    -2720.00
00389            -580.00    -2720.00
00390            -540.00    -2720.00
00391            -540.00    -2720.00
00392            -540.00    -2640.00
00393            -520.00    -2560.00
00394            -520.00    -2560.00
00395            -500.00    -2560.00
00396            -500.00    -2480.00
00397            -500.00    -2400.00
00398            -500.00    -2400.00
00399            -460.00    -2320.00
00400            -460.00    -2240.00
00401            -460.00    -2320.00
00402            -440.00    -2240.00
00403            -440.00    -2160.00
00404            -440.00    -2080.00
00405            -440.00    -2000.00
00406            -420.00    -2000.00
00407            -420.00    -2000.00
00408            -420.00    -1840.00
00409            -420.00    -1920.00
00410            -380.00    -1840.00
00411            -380.00    -1760.00
00412            -380.00    -1760.00
00413            -380.00    -1680.00
00414            -360.00    -1680.00
00415            -340.00    -1600.00
00416            -340.00    -1600.00
00417            -340.00    -1440.00
00418            -340.00    -1440.00
00419            -300.00    -1440.00
00420            -300.00    -1440.00
00421            -300.00    -1360.00
00422            -300.00    -1280.00
00423            -300.00    -1280.00
00424            -280.00    -1120.00
00425            -300.00    -1200.00
00426            -280.00    -1120.00
00427            -280.00    -1040.00
00428            -260.00    -1040.00
00429            -220.00     -960.00
00430            -240.00     -960.00
00431            -220.00     -880.00
00432            -220.00     -880.00
00433            -220.00     -800.00
00434            -200.00     -800.00
00435            -200.00     -720.00
00436            -200.00     -640.00
00437            -200.00     -640.00
00438            -180.00     -480.00
00439            -180.00     -480.00
00440            -180.00     -400.00
00441            -160.00     -400.00
00442            -120.00     -320.00
00443            -120.00     -320.00
00444            -140.00     -240.00
00445            -120.00     -160.00
00446            -100.00     -160.00
00447            -100.00     -160.00
00448            -100.00      -80.00
00449             -60.00      -80.00
00450             -60.00        0.00
00451             -60.00       80.00
00452             -60.00      160.00
00453             -40.00      160.00
00454             -40.00      240.00
00455             -20.00      160.00
00456             -20.00      320.00
00457             -20.00      320.00
00458              20.00      320.00
00459              20.00      400.00
00460              20.00      480.00
00461              40.00      560.00
00462              40.00      720.00
00463              40.00      640.00
00464             -20.00      560.00
00465              40.00      720.00
00466             100.00      880.00
00467             100.00      880.00
00468              40.00      720.00
00469             100.00      960.00
00470             140.00     1040.00
00471             100.00      880.00
00472             120.00     1040.00
00473             180.00     1200.00
00474             160.00     1120.00
00475             100.00     1120.00
00476             180.00     1280.00
00477             180.00     1280.00
00478             180.00     1280.00
00479             200.00     1440.00
00480             200.00     1440.00
00481             180.00     1440.00
00482             200.00     1520.00
00483             220.00     1520.00
00484             200.00     1520.00
00485             220.00     1760.00
00486             240.00     1600.00
00487             200.00     1760.00
00488             260.00     1760.00
00489             260.00     1840.00
00490             260.00     1840.00
00491             260.00     1920.00
00492             280.00     1920.00
00493             280.00     2000.00
00494             300.00     2080.00
00495             300.00     2080.00
00496             300.00     2160.00
00497             340.00     2160.00
00498             340.00     2240.00
00499             340.00     2240.00
00500             340.00     2400.00
00501             360.00     2400.00
00502             360.00     2480.00
00503             360.00     2400.00
00504             360.00     2480.00
00505             380.00     2560.00
00506             400.00     2560.00
00507             420.00     2640.00
00508             420.00     2720.00
00509             420.00     2800.00
00510             420.00     2800.00
00511             440.00     2800.00
00512             440.00     2880.00
00513             440.00     2880.00
00514             460.00     2960.00
00515             500.00     3040.00
00516             500.00     3040.00
00517             500.00     3120.00
00518             500.00     3120.00
00519             520.00     3200.00
00520             500.00     3280.00
00521             540.00     3280.00
00522             520.00     3360.00
00523             540.00     3360.00
00524             540.00     3440.00
00525             580.00     3440.00
00526             580.00     3520.00
00527             580.00     3520.00
00528             600.00     3520.00
00529             580.00     3680.00
00530             580.00     3680.00
00531             600.00     3680.00
00532             620.00     3760.00
00533             620.00     3760.00
00534             620.00     3840.00
00535             640.00     3760.00
00536             620.00     3920.00
00537             660.00     3920.00
00538             660.00     4000.00
00539             680.00     4000.00
00540             680.00     4080.00
00541             680.00     4080.00
00542             680.00     4160.00
00543             680.00     4160.00
00544             700.00     4240.00
00545             700.00     4240.00
00546             700.00     4320.00
00547             740.00     4400.00
00548             720.00     4320.00
00549             740.00     4480.00
00550             740.00     4400.00
00551             740.00     4480.00
00552             760.00     4480.00
00553             760.00     4480.00
00554             760.00     4560.00
00555             760.00     4640.00
00556             780.00     4640.00
00557             780.00     4720.00
00558             800.00     4720.00
00559             820.00     4800.00
00560             800.00     4800.00
00561             820.00     4880.00
00562             820.00     4960.00
00563             840.00     4960.00
00564             820.00     4960.00
00565             840.00     4960.00
00566             840.00     5040.00
00567             840.00     5040.00
00568             860.00     5120.00
00569             860.00     5200.00
00570             860.00     5120.00
00571             900.00     5200.00
00572             900.00     5280.00
00573             900.00     5280.00
00574             900.00     5280.00
00575             900.00     5360.00
00576             920.00     5360.00
00577             920.00     5440.00
00578             920.00     5440.00
00579             920.00     5440.00
00580             940.00     5600.00
00581             940.00     5600.00
00582             940.00     5600.00
00583             980.00     5680.00
00584             980.00     5600.00
00585             980.00     5680.00
00586             980.00     5680.00
00587            1000.00     5760.00
00588            1000.00     5840.00
00589            1000.00     5760.00
00590            1000.00     5840.00
00591            1000.00     5920.00
00592            1000.00     5920.00
00593            1020.00     5920.00
00594            1020.00     5920.00
00595            1060.00     6000.00
00596            1040.00     6080.00
00597            1020.00     6080.00
00598            1060.00     6080.00
00599            1060.00     6080.00
00600            1060.00     6160.00
00601            1060.00     6160.00
00602            1060.00     6240.00
00603            1080.00     6240.00
00604            1080.00     6320.00
00605            1080.00     6320.00
00606            1080.00     6320.00
00607            1100.00     6400.00
00608            1100.00     6400.00
00609            1100.00     6400.00
00610            1100.00     6400.00
00611            1100.00     6480.00
00612            1140.00     6480.00
00613            1140.00     6560.00
00614            1140.00     6560.00
00615            1140.00     6560.00
00616            1140.00     6560.00
00617            1140.00     6560.00
00618            1140.00     6560.00
00619            1140.00     6640.00
00620            1140.00     6640.00
00621            1160.00     6640.00
00622            1160.00     6720.00
00623            1160.00     6720.00
00624            1160.00     6720.00
00625            1180.00     6720.00
00626            1180.00     6720.00
00627            1180.00     6800.00
00628            1180.00     6880.00
00629            1180.00     6880.00
00630            1200.00     6880.00
00631            1180.00     6880.00
00632            1200.00     6960.00
00633            1220.00     6960.00
00634            1220.00     6960.00
00635            1220.00     6960.00
00636            1220.00     7040.00
00637            1220.00     7040.00
00638            1220.00     7040.00
00639            1220.00     7040.00
00640            1220.00     7040.00
00641            1240.00     7040.00
00642            1240.00     7040.00
00643            1240.00     7120.00
00644            1260.00     7120.00
00645            1260.00     7200.00
00646            1260.00     7200.00
00647            1260.00     7280.00
00648            1260.00     7200.00
00649            1260.00     7280.00
00650            1260.00     7280.00
00651            1260.00     7280.00
00652            1260.00     7280.00
00653            1300.00     7280.00
00654            1300.00     7280.00
00655            1280.00     7360.00
00656            1300.00     7280.00
00657            1300.00     7360.00
00658            1300.00     7360.00
00659            1300.00     7360.00
00660            1320.00     7360.00
00661            1300.00     7440.00
00662            1320.00     7360.00
00663            1320.00     7440.00
00664            1320.00     7440.00
00665            1320.00     7520.00
00666            1320.00     7440.00
00667            1320.00     7520.00
00668            1320.00     7520.00
00669            1320.00     7520.00
00670            1320.00     7600.00
00671            1320.00     7520.00
00672            1320.00     7520.00
00673            1320.00     7520.00
00674            1340.00     7520.00
00675            1320.00     7520.00
00676            1340.00     7520.00
00677            1340.00     7520.00
00678            1340.00     7600.00
00679            1340.00     7600.00
00680            1340.00     7600.00
00681            1340.00     7600.00
00682            1340.00     7600.00
00683            1340.00     7600.00
00684            1340.00     7600.00
00685            1320.00     7600.00
00686            1340.00     7600.00
00687            1320.00     7600.00
00688            1340.00     7600.00
00689            1340.00     7600.00
00690            1360.00     7680.00
00691            1340.00     7600.00
00692            1340.00     7600.00
00693            1340.00     7600.00
00694            1360.00     7680.00
00695            1340.00     7680.00
00696            1340.00     7680.00
00697            1340.00     7600.00
00698            1340.00     7680.00
00699            1360.00     7600.00
00700            1340.00     7600.00
00701            1380.00     7600.00
00702            1340.00     7600.00
00703            1380.00     7600.00
00704            1360.00     7680.00
00705            1340.00     7680.00
00706            1380.00     7600.00
00707            1360.00     7680.00
00708            1340.00     7600.00
00709            1380.00     7600.00
00710            1380.00     7680.00
00711            1380.00     7680.00
00712            1360.00     7600.00
00713            1380.00     7680.00
00714            1380.00     7680.00
00715            1360.00     7680.00
00716            1380.00     7680.00
00717            1380.00     7600.00
00718            1380.00     7600.00
00719            1340.00     7680.00
00720            1380.00     7600.00
00721            1380.00     7600.00
00722            1380.00     7600.00
00723            1380.00     7600.00
00724            1340.00     7600.00
00725            1340.00     7600.00
00726            1380.00     7600.00
00727            1340.00     7600.00
00728            1380.00     7520.00
00729            1380.00     7600.00
00730            1340.00     7520.00
00731            1340.00     7520.00
00732            1360.00     7520.00
00733            1360.00     7520.00
00734            1340.00     7520.00
00735            1360.00     7520.00
00736            1340.00     7520.00
00737            1340.00     7520.00
00738            1340.00     7520.00
00739            1340.00     7520.00
00740            1340.00     7520.00
00741            1340.00     7520.00
00742            1340.00     7440.00
00743            1340.00     7440.00
00744            1320.00     7440.00
00745            1320.00     7440.00
00746            1320.00     7360.00
00747            1320.00     7440.00
00748            1320.00     7360.00
00749            1320.00     7360.00
00750            1320.00     7360.00
00751            1320.00     7360.00
00752            1320.00     7360.00
00753            1320.00     7280.00
00754            1300.00     7280.00
00755            1300.00     7200.00
00756            1300.00     7200.00
00757            1300.00     7200.00
00758            1300.00     7280.00
00759            1300.00     7200.00
00760            1300.00     7200.00
00761            1300.00     7200.00
00762            1260.00     7200.00
00763            1300.00     7120.00
00764            1300.00     7120.00
00765            1280.00     7040.00
00766            1260.00     7040.00
00767            1260.00     7040.00
00768            1260.00     7040.00
00769            1260.00     7040.00
00770            1260.00     7040.00
00771            1260.00     6960.00
00772            1260.00     7040.00
00773            1260.00     6960.00
00774            1240.00     6960.00
00775            1240.00     6880.00
00776            1260.00     6880.00
00777            1240.00     6880.00
00778            1240.00     6880.00
00779            1240.00     6800.00
00780            1240.00     6880.00
00781            1240.00     6800.00
00782            1220.00     6720.00
00783            1220.00     6720.00
00784            1220.00     6720.00
00785            1220.00     6720.00
00786            1220.00     6720.00
00787            1220.00     6720.00
00788            1220.00     6640.00
00789            1220.00     6640.00
00790            1220.00     6560.00
00791            1220.00     6560.00
00792            1200.00     6560.00
00793            1180.00     6560.00
00794            1180.00     6480.00
00795            1180.00     6480.00
00796            1220.00     6480.00
00797            1160.00     6400.00
00798            1180.00     6400.00
00799            1160.00     6400.00
00800            1160.00     6320.00
00801            1160.00     6320.00
00802            1160.00     6240.00
00803            1160.00     6320.00
00804            1160.00     6240.00
00805            1140.00     6240.00
00806            1140.00     6240.00
00807            1140.00     6080.00
00808            1120.00     6080.00
00809            1140.00     6080.00
00810            1120.00     6080.00
00811            1100.00     6000.00
00812            1100.00     6000.00
00813            1080.00     6000.00
00814            1080.00     5920.00
00815            1080.00     5920.00
00816            1080.00     5920.00
00817            1080.00     5920.00
00818            1080.00     5760.00
00819            1060.00     5760.00
00820            1060.00     5760.00
00821            1060.00     5760.00
00822            1060.00     5760.00
00823            1060.00     5680.00
00824            1040.00     5600.00
00825            1040.00     5600.00
00826            1020.00     5600.00
00827            1020.00     5520.00
00828            1000.00     5520.00
00829            1000.00     5440.00
00830            1000.00     5440.00
00831            1000.00     5440.00
00832            1000.00     5360.00
00833             980.00     5360.00
00834             980.00     5280.00
00835             980.00     5280.00
00836             980.00     5200.00
00837             980.00     5280.00
00838             940.00     5200.00
00839             960.00     5120.00
00840             940.00     5120.00
00841             940.00     5120.00
00842             940.00     5040.00
00843             920.00     5040.00
00844             940.00     4960.00
00845             920.00     4960.00
00846             920.00     4880.00
00847             920.00     4880.00
00848             900.00     4800.00
00849             900.00     4800.00
00850             860.00     4720.00
00851             900.00     4720.00
00852             860.00     4720.00
00853             860.00     4640.00
00854             860.00     4640.00
00855             860.00     4640.00
00856             840.00     4480.00
00857             840.00     4480.00
00858             840.00     4400.00
00859             840.00     4400.00
00860             820.00     4320.00
00861             820.00     4320.00
00862             820.00     4320.00
00863             820.00     4320.00
00864             800.00     4240.00
00865             780.00     4160.00
00866             780.00     4160.00
00867             760.00     4080.00
00868             760.00     4000.00
00869             760.00     4000.00
00870             760.00     4000.00
00871             760.00     3840.00
00872             740.00     3920.00
00873             740.00     3840.00
00874             740.00     3760.00
00875             720.00     3680.00
00876             700.00     3760.00
00877             700.00     3760.00
00878             700.00     3600.00
00879             680.00     3600.00
00880             680.00     3520.00
00881             660.00     3520.00
00882             680.00     3440.00
00883             660.00     3360.00
00884             660.00     3360.00
00885             640.00     3360.00
00886             640.00     3360.00
00887             620.00     3360.00
00888             600.00     3200.00
00889             620.00     3200.00
00890             600.00     3120.00
00891             600.00     3120.00
00892             600.00     3040.00
00893             580.00     3040.00
00894             580.00     2960.00
00895             580.00     2880.00
00896             540.00     2880.00
00897             540.00     2880.00
00898             540.00     2800.00
00899             540.00     2720.00
00900             520.00     2720.00
00901             520.00     2720.00
00902             520.00     2560.00
00903             500.00     2560.00
00904             520.00     2480.00
00905             500.00     2480.00
00906             460.00     2480.00
00907             480.00     2400.00
00908             460.00     2400.00
00909             440.00     2320.00
00910             440.00     2240.00
00911             440.00     2240.00
00912             440.00     2240.00
00913             440.00     2160.00
00914             420.00     2080.00
00915             420.00     2000.00
00916             420.00     2000.00
00917             400.00     1920.00
00918             380.00     1920.00
00919             420.00     1920.00
00920             380.00     1840.00
00921             380.00     1840.00
00922             360.00     1760.00
00923             360.00     1680.00
00924             360.00     1600.00
00925             340.00     1600.00
00926             340.00     1520.00
00927             340.00     1440.00
00928             300.00     1440.00
00929             300.00     1440.00
00930             300.00     1360.00
00931             280.00     1280.00
00932             280.00     1200.00
00933             280.00     1280.00
00934             260.00     1200.00
00935             260.00     1120.00
00936             260.00     1120.00
00937             260.00     1120.00
00938             240.00     1040.00
00939             220.00      960.00
00940             220.00      880.00
00941             200.00      880.00
00942             200.00      800.00
00943             200.00      800.00
00944             180.00      720.00
00945             180.00      720.00
00946             160.00      640.00
00947             140.00      560.00
00948             140.00      480.00
00949             140.00      480.00
00950             120.00      480.00
00951             120.00      320.00
00952             100.00      320.00
00953             100.00      320.00
00954             100.00      240.00
00955             100.00      160.00
00956              60.00      160.00
00957              60.00      160.00
00958              60.00        0.00
00959              40.00        0.00
00960              40.00      -80.00
00961              40.00      -80.00
00962              40.00     -160.00
00963              20.00     -160.00
00964              20.00     -160.00
00965              20.00     -320.00
00966              20.00     -320.00
00967             -20.00     -320.00
00968             -20.00     -400.00
00969             -40.00     -400.00
00970             -20.00     -400.00
00971             -40.00     -560.00
00972            -100.00     -720.00
00973            -120.00     -800.00
00974            -100.00     -640.00
00975             -40.00     -560.00
00976             -60.00     -800.00
00977            -120.00     -960.00
00978            -120.00     -800.00
00979             -60.00     -880.00
00980            -140.00    -1040.00
00981            -140.00    -1040.00
00982            -100.00     -960.00
00983            -140.00    -1120.00
00984            -180.00    -1120.00
00985            -140.00    -1120.00
00986            -180.00    -1360.00
00987            -180.00    -1280.00
00988            -180.00    -1280.00
00989            -200.00    -1360.00
00990            -200.00    -1440.00
00991            -200.00    -1440.00
00992            -220.00    -1520.00
00993            -220.00    -1600.00
00994            -220.00    -1600.00
00995            -260.00    -1680.00
00996            -280.00    -1680.00
00997            -260.00    -1760.00
00998            -260.00    -1760.00
00999            -280.00    -1840.00
01000            -280.00    -1840.00
01001            -300.00    -2000.00
01002            -280.00    -1920.00
01003            -300.00    -2000.00
01004            -320.00    -2080.00
01005            -340.00    -2080.00
01006            -340.00    -2240.00
01007            -360.00    -2160.00
01008            -360.00    -2240.00
01009            -360.00    -2320.00
01010            -380.00    -2320.00
01011            -380.00    -2400.00
01012            -420.00    -2400.00
01013            -380.00    -2560.00
01014            -420.00    -2560.00
01015            -420.00    -2560.00
01016            -440.00    -2640.00
01017            -440.00    -2640.00
01018            -440.00    -2720.00
01019            -460.00    -2720.00
01020            -460.00    -2880.00
01021            -460.00    -2880.00
01022            -460.00    -2880.00
01023            -460.00    -2960.00
01024            -500.00    -2960.00
01025            -520.00    -2960.00
01026            -500.00    -3040.00
01027            -520.00    -3120.00
01028            -540.00    -3200.00
01029            -520.00    -3200.00
01030            -540.00    -3280.00
01031            -540.00    -3360.00
01032            -580.00    -3360.00
01033            -560.00    -3360.00
01034            -580.00    -3360.00
01035            -580.00    -3440.00
01036            -580.00    -3440.00
01037            -600.00    -3520.00
01038            -600.00    -3520.00
01039            -620.00    -3600.00
01040            -620.00    -3600.00
01041            -620.00    -3680.00
01042            -620.00    -3680.00
01043            -620.00    -3840.00
01044            -640.00    -3840.00
01045            -640.00    -3840.00
01046            -660.00    -3840.00
01047            -660.00    -3920.00
01048            -680.00    -3920.00
01049            -680.00    -4000.00
01050            -680.00    -4000.00
01051            -700.00    -4080.00
01052            -700.00    -4160.00
01053            -700.00    -4160.00
01054            -720.00    -4240.00
01055            -700.00    -4240.00
01056            -700.00    -4320.00
01057            -740.00    -4320.00
01058            -740.00    -4400.00
01059            -760.00    -4320.00
01060            -760.00    -4400.00
01061            -760.00    -4480.00
01062            -780.00    -4480.00
01063            -780.00    -4560.00
01064            -780.00    -4640.00
01065            -800.00    -4640.00
01066            -780.00    -4720.00
01067            -820.00    -4640.00
01068            -820.00    -4720.00
01069            -820.00    -4800.00
01070            -840.00    -4800.00
01071            -840.00    -4880.00
01072            -840.00    -4880.00
01073            -860.00    -4960.00
01074            -860.00    -4960.00
01075            -860.00    -5040.00
01076            -860.00    -5040.00
01077            -880.00    -5120.00
01078            -900.00    -5120.00
01079            -900.00    -5200.00
01080            -920.00    -5200.00
01081            -900.00    -5200.00
01082            -920.00    -5280.00
01083            -920.00    -5280.00
01084            -940.00    -5280.00
01085            -940.00    -5360.00
01086            -940.00    -5440.00
01087            -940.00    -5440.00
01088            -940.00    -5440.00
01089            -940.00    -5440.00
01090            -960.00    -5520.00
01091            -940.00    -5520.00
01092            -980.00    -5520.00
01093           -1000.00    -5600.00
01094            -980.00    -5600.00
01095           -1000.00    -5600.00
01096           -1000.00    -5760.00
01097           -1000.00    -5760.00
01098           -1000.00    -5760.00
01099           -1000.00    -5760.00
01100           -1020.00    -5840.00
01101           -1020.00    -5840.00
01102           -1020.00    -5920.00
01103           -1020.00    -5920.00
01104           -1020.00    -6000.00
01105           -1040.00    -5920.00
01106           -1060.00    -6000.00
01107           -1040.00    -6080.00
01108           -1060.00    -6080.00
01109           -1060.00    -6080.00
01110           -1080.00    -6160.00
01111           -1080.00    -6160.00
01112           -1080.00    -6160.00
01113           -1080.00    -6160.00
01114           -1080.00    -6240.00
01115           -1080.00    -6240.00
01116           -1100.00    -6240.00
01117           -1100.00    -6320.00
01118           -1100.00    -6240.00
01119           -1100.00    -6400.00
01120           -1120.00    -6400.00
01121           -1100.00    -6400.00
01122           -1140.00    -6400.00
01123           -1140.00    -6480.00
01124           -1140.00    -6480.00
01125           -1140.00    -6480.00
01126           -1160.00    -6480.00
01127           -1160.00    -6560.00
01128           -1140.00    -6560.00
01129           -1160.00    -6560.00
01130           -1160.00    -6720.00
01131           -1160.00    -6640.00
01132           -1160.00    -6640.00
01133           -1180.00    -6720.00
01134           -1180.00    -6720.00
01135           -1180.00    -6720.00
01136           -1200.00    -6720.00
01137           -1180.00    -6800.00
01138           -1220.00    -6800.00
01139           -1200.00    -6800.00
01140           -1220.00    -6880.00
01141           -1200.00    -6880.00
01142           -1220.00    -6880.00
01143           -1240.00    -6880.00
01144           -1220.00    -6880.00
01145           -1240.00    -6960.00
01146           -1240.00    -6960.00
01147           -1240.00    -6880.00
01148           -1260.00    -7040.00
01149           -1240.00    -6960.00
01150           -1260.00    -7040.00
01151           -1240.00    -7040.00
01152           -1260.00    -6960.00
01153           -1260.00    -7040.00
01154           -1260.00    -7120.00
01155           -1260.00    -7120.00
01156           -1260.00    -7120.00
01157           -1260.00    -7120.00
01158           -1260.00    -7200.00
01159           -1280.00    -7200.00
01160           -1260.00    -7200.00
01161           -1300.00    -7200.00
01162           -1300.00    -7200.00
01163           -1300.00    -7200.00
01164           -1300.00    -7200.00
01165           -1300.00    -7200.00
01166           -1300.00    -7280.00
01167           -1300.00    -7280.00
01168           -1300.00    -7360.00
01169           -1300.00    -7280.00
01170           -1320.00    -7360.00
01171           -1320.00    -7360.00
01172           -1320.00    -7360.00
01173           -1320.00    -7440.00
01174           -1320.00    -7440.00
01175           -1320.00    -7360.00
01176           -1320.00    -7360.00
01177           -1320.00    -7440.00
01178           -1320.00    -7360.00
01179           -1320.00    -7440.00
01180           -1340.00    -7440.00
01181           -1320.00    -7440.00
01182           -1320.00    -7440.00
01183           -1320.00    -7440.00
01184           -1340.00    -7520.00
01185           -1320.00    -7440.00
01186           -1340.00    -7520.00
01187           -1320.00    -7520.00
01188           -1340.00    -7520.00
01189           -1340.00    -7520.00
01190           -1340.00    -7520.00
01191           -1340.00    -7520.00
01192           -1340.00    -7520.00
01193           -1340.00    -7520.00
01194           -1340.00    -7520.00
01195           -1340.00    -7520.00
01196           -1340.00    -7520.00
01197           -1340.00    -7600.00
01198           -1360.00    -7600.00
01199           -1340.00    -7600.00
01200           -1340.00    -7520.00
01201           -1380.00    -7520.00
01202           -1340.00    -7520.00
01203           -1340.00    -7520.00
01204           -1380.00    -7520.00
01205           -1380.00    -7600.00
01206           -1340.00    -7520.00
01207           -1380.00    -7520.00
01208           -1340.00    -7600.00
01209           -1380.00    -7520.00
01210           -1380.00    -7600.00
01211           -1380.00    -7520.00
01212           -1380.00    -7600.00
01213           -1340.00    -7520.00
01214           -1380.00    -7600.00
01215           -1380.00    -7520.00
01216           -1380.00    -7520.00
01217           -1380.00    -7520.00
01218           -1380.00    -7680.00
01219           -1380.00    -7520.00
01220           -1380.00    -7600.00
01221           -1380.00    -7600.00
01222           -1380.00    -7520.00
01223           -1340.00    -7520.00
01224           -1380.00    -7520.00
01225           -1380.00    -7600.00
01226           -1380.00    -7520.00
01227           -1380.00    -7520.00
01228           -1380.00    -7520.00
01229           -1380.00    -7520.00
01230           -1380.00    -7520.00
01231           -1380.00    -7520.00
01232           -1380.00    -7520.00
01233           -1380.00    -7520.00
01234           -1360.00    -7520.00
01235           -1340.00    -7520.00
01236           -1360.00    -7520.00
01237           -1340.00    -7440.00
01238           -1380.00    -7520.00
01239           -1340.00    -7440.00
01240           -1340.00    -7520.00
01241           -1340.00    -7440.00
01242           -1360.00    -7440.00
01243           -1340.00    -7440.00
01244           -1340.00    -7440.00
01245           -1340.00    -7360.00
01246           -1340.00    -7360.00
01247           -1340.00    -7360.00
01248           -1340.00    -7440.00
01249           -1340.00    -7360.00
01250           -1340.00    -7360.00
01251           -1340.00    -7360.00
01252           -1340.00    -7280.00
01253           -1340.00    -7280.00
01254           -1340.00    -7360.00
01255           -1340.00    -7360.00
01256           -1340.00    -7360.00
01257           -1320.00    -7200.00
01258           -1320.00    -7200.00
01259           -1300.00    -7280.00
01260           -1340.00    -7200.00
01261           -1320.00    -7200.00
01262           -1320.00    -7200.00
01263           -1320.00    -7120.00
01264           -1320.00    -7200.00
01265           -1320.00    -7200.00
01266           -1320.00    -7120.00
01267           -1320.00    -7200.00
01268           -1320.00    -7120.00
01269           -1320.00    -7040.00
01270           -1300.00    -7040.00
01271           -1300.00    -7040.00
01272           -1280.00    -6960.00
01273           -1300.00    -7040.00
01274           -1300.00    -6960.00
01275           -1280.00    -6960.00
01276           -1300.00    -6960.00
01277           -1300.00    -6960.00
01278           -1300.00    -6880.00
01279           -1260.00    -6880.00
01280           -1260.00    -6880.00
01281           -1260.00    -6880.00
01282           -1260.00    -6880.00
01283           -1260.00    -6880.00
01284           -1260.00    -6800.00
01285           -1240.00    -6800.00
01286           -1240.00    -6800.00
01287           -1240.00    -6720.00
01288           -1240.00    -6720.00
01289           -1240.00    -6720.00
01290           -1240.00    -6720.00
01291           -1240.00    -6720.00
01292           -1240.00    -6640.00
01293           -1220.00    -6560.00
01294           -1220.00    -6560.00
01295           -1240.00    -6560.00
01296           -1180.00    -6480.00
01297           -1240.00    -6560.00
01298           -1220.00    -6560.00
01299           -1180.00    -6480.00
01300           -1180.00    -6480.00
01301           -1200.00    -6400.00
01302           -1180.00    -6400.00
01303           -1180.00    -6400.00
01304           -1180.00    -6320.00
01305           -1180.00    -6400.00
01306           -1180.00    -6320.00
01307           -1160.00    -6240.00
01308           -1160.00    -6240.00
01309           -1160.00    -6240.00
01310           -1140.00    -6160.00
01311           -1160.00    -6160.00
01312           -1140.00    -6160.00
01313           -1140.00    -6080.00
01314           -1120.00    -6080.00
01315           -1140.00    -6080.00
01316           -1100.00    -6000.00
01317           -1100.00    -6080.00
01318           -1100.00    -6000.00
01319           -1100.00    -5920.00
01320           -1100.00    -5920.00
01321           -1080.00    -5920.00
01322           -1100.00    -5840.00
01323           -1080.00    -5840.00
01324           -1080.00    -5760.00
01325           -1080.00    -5760.00
01326           -1080.00    -5760.00
01327           -1080.00    -5760.00
01328           -1060.00    -5680.00
01329           -1060.00    -5600.00
01330           -1060.00    -5520.00
01331           -1020.00    -5600.00
01332           -1020.00    -5600.00
01333           -1020.00    -5520.00
01334           -1020.00    -5520.00
01335           -1020.00    -5520.00
01336           -1020.00    -5440.00
01337           -1020.00    -5440.00
01338           -1020.00    -5360.00
01339           -1000.00    -5280.00
01340           -1000.00    -5280.00
01341           -1020.00    -5280.00
01342           -1000.00    -5200.00
01343           -1000.00    -5200.00
01344           -1000.00    -5120.00
01345            -980.00    -5120.00
01346            -960.00    -5120.00
01347            -940.00    -5120.00
01348            -940.00    -5040.00
01349            -960.00    -4960.00
01350            -940.00    -4960.00
01351            -940.00    -4880.00
01352            -940.00    -4880.00
01353            -920.00    -4880.00
01354            -920.00    -4800.00
01355            -920.00    -4800.00
01356            -920.00    -4720.00
01357            -900.00    -4640.00
01358            -900.00    -4640.00
01359            -900.00    -4560.00
01360            -860.00    -4560.00
01361            -860.00    -4560.00
01362            -860.00    -4480.00
01363            -860.00    -4400.00
01364            -860.00    -4400.00
01365            -840.00    -4400.00
01366            -840.00    -4320.00
01367            -840.00    -4320.00
01368            -840.00    -4240.00
01369            -820.00    -4240.00
01370            -820.00    -4160.00
01371            -820.00    -4160.00
01372            -780.00    -4080.00
01373            -780.00    -4080.00
01374            -760.00    -4000.00
01375            -760.00    -4000.00
01376            -760.00    -3920.00
01377            -760.00    -3920.00
01378            -760.00    -3840.00
01379            -740.00    -3840.00
01380            -740.00    -3840.00
01381            -740.00    -3760.00
01382            -740.00    -3680.00
01383            -700.00    -3680.00
01384            -700.00    -3680.00
01385            -700.00    -3600.00
01386            -700.00    -3520.00
01387            -700.00    -3520.00
01388            -680.00    -3440.00
01389            -660.00    -3360.00
01390            -680.00    -3360.00
01391            -660.00    -3360.00
01392            -660.00    -3360.00
01393            -640.00    -3280.00
01394            -620.00    -3200.00
01395            -620.00    -3200.00
01396            -620.00    -3200.00
01397            -620.00    -3200.00
01398            -600.00    -3040.00
01399            -620.00    -3040.00
01400            -600.00    -2960.00
01401            -600.00    -2960.00
01402            -580.00    -2880.00
01403            -600.00    -2880.00
01404            -580.00    -2720.00
01405            -580.00    -2720.00
01406            -560.00    -2720.00
01407            -540.00    -2640.00
01408            -540.00    -2640.00
01409            -540.00    -2560.00
01410            -540.00    -2560.00
01411            -520.00    -2480.00
01412            -520.00    -2400.00
01413            -520.00    -2400.00
01414            -500.00    -2400.00
01415            -480.00    -2320.00
01416            -500.00    -2320.00
01417            -460.00    -2240.00
01418            -460.00    -2240.00
01419            -460.00    -2080.00
01420            -440.00    -2080.00
01421            -440.00    -2080.00
01422            -440.00    -2000.00
01423            -420.00    -2000.00
01424            -420.00    -1920.00
01425            -400.00    -1840.00
01426            -380.00    -1760.00
01427            -380.00    -1760.00
01428            -380.00    -1760.00
01429            -380.00    -1680.00
01430            -380.00    -1680.00
01431            -360.00    -1600.00
01432            -360.00    -1520.00
01433            -340.00    -1440.00
01434            -360.00    -1440.00
01435            -340.00    -1440.00
01436            -300.00    -1360.00
01437            -300.00    -1280.00
01438            -300.00    -1360.00
01439            -280.00    -1200.00
01440            -280.00    -1200.00
01441            -280.00    -1120.00
01442            -260.00    -1120.00
01443            -260.00    -1120.00
01444            -260.00     -960.00
01445            -240.00     -960.00
01446            -220.00     -960.00
01447            -220.00     -800.00
01448            -220.00     -800.00
01449            -200.00     -800.00
01450            -200.00     -720.00
01451            -200.00     -720.00
01452            -180.00     -640.00
01453            -180.00     -640.00
01454            -180.00     -560.00
01455            -160.00     -400.00
01456            -140.00     -480.00
01457            -140.00     -400.00
01458            -120.00     -320.00
01459            -120.00     -320.00
01460            -100.00     -160.00
01461            -120.00     -160.00
01462            -100.00     -160.00
01463             -80.00      -80.00
01464             -80.00      -80.00
01465             -80.00      -80.00
01466             -60.00        0.00
01467             -60.00        0.00
01468             -60.00       80.00
01469             -40.00      160.00
01470             -40.00      160.00
01471             -40.00      240.00
01472             -20.00      320.00
01473             -20.00      320.00
01474             -20.00      400.00
01475               0.00      480.00
01476              20.00      400.00
01477              40.00      560.00
01478              60.00      720.00
01479              40.00      560.00
01480               0.00      560.00
01481              40.00      800.00
01482             100.00      880.00
01483             100.00      880.00
01484              40.00      720.00
01485             100.00      960.00
01486             140.00     1120.00
01487              60.00      880.00
01488             100.00      960.00
01489             160.00     1200.00
01490             120.00     1120.00
01491             100.00     1120.00
01492             160.00     1280.00
01493             180.00     1280.00
01494             140.00     1280.00
01495             200.00     1440.00
01496             200.00     1440.00
01497             180.00     1360.00
01498             200.00     1520.00
01499             220.00     1520.00
01500             200.00     1600.00
01501             260.00     1680.00
01502             220.00     1760.00
01503             220.00     1680.00
01504             260.00     1760.00
01505             260.00     1840.00
01506             260.00     1840.00
01507             300.00     1920.00
01508             280.00     1920.00
01509             280.00     1920.00
01510             320.00     2160.00
01511             300.00     2080.00
01512             300.00     2160.00
01513             340.00     2240.00
01514             340.00     2240.00
01515             360.00     2240.00
01516             360.00     2400.00
01517             360.00     2400.00
01518             380.00     2400.00
01519             380.00     2480.00
01520             420.00     2560.00
01521             380.00     2560.00
01522             420.00     2640.00
01523             420.00     2640.00
01524             440.00     2720.00
01525             420.00     2720.00
01526             440.00     2800.00
01527             440.00     2880.00
01528             440.00     2880.00
01529             460.00     2880.00
01530             460.00     3040.00
01531             460.00     3040.00
01532             480.00     3120.00
01533             500.00     3120.00
01534             500.00     3120.00
01535             500.00     3280.00
01536             520.00     3280.00
01537             520.00     3280.00
01538             520.00     3360.00
01539             540.00     3360.00
01540             520.00     3360.00
01541             560.00     3440.00
01542             540.00     3520.00
01543             580.00     3520.00
01544             580.00     3600.00
01545             580.00     3520.00
01546             580.00     3680.00
01547             580.00     3680.00
01548             600.00     3760.00
01549             600.00     3760.00
01550             600.00     3840.00
01551             620.00     3840.00
01552             620.00     3840.00
01553             660.00     3840.00
01554             660.00     4000.00
01555             660.00     4000.00
01556             680.00     4000.00
01557             680.00     4160.00
01558             680.00     4080.00
01559             680.00     4160.00
01560             680.00     4240.00
01561             700.00     4320.00
01562             700.00     4320.00
01563             720.00     4320.00
01564             740.00     4320.00
01565             740.00     4400.00
01566             740.00     4480.00
01567             740.00     4480.00
01568             760.00     4480.00
01569             760.00     4560.00
01570             780.00     4640.00
01571             780.00     4720.00
01572             780.00     4720.00
01573             780.00     4720.00
01574             820.00     4800.00
01575             820.00     4800.00
01576             820.00     4880.00
01577             820.00     4880.00
01578             820.00     4880.00
01579             840.00     4960.00
01580             840.00     5040.00
01581             860.00     5040.00
01582             860.00     5120.00
01583             860.00     5120.00
01584             860.00     5120.00
01585             860.00     5120.00
01586             880.00     5280.00
01587             900.00     5200.00
01588             900.00     5280.00
01589             900.00     5280.00
01590             920.00     5360.00
01591             920.00     5360.00
01592             920.00     5440.00
01593             920.00     5440.00
01594             940.00     5440.00
01595             920.00     5520.00
01596             940.00     5600.00
01597             940.00     5520.00
01598             940.00     5600.00
01599             960.00     5680.00
01600             980.00     5680.00
01601             980.00     5680.00
01602             980.00     5760.00
01603             980.00     5840.00
01604             980.00     5840.00
01605            1000.00     5840.00
01606            1000.00     5840.00
01607            1000.00     5920.00
01608            1000.00     5920.00
01609            1000.00     5920.00
01610            1020.00     6000.00
01611            1020.00     6000.00
01612            1020.00     6080.00
01613            1020.00     6080.00
01614            1020.00     6080.00
01615            1060.00     6080.00
01616            1060.00     6160.00
01617            1040.00     6240.00
01618            1060.00     6240.00
01619            1060.00     6320.00
01620            1060.00     6240.00
01621            1080.00     6320.00
01622            1080.00     6320.00
01623            1080.00     6400.00
01624            1100.00     6320.00
01625            1100.00     6400.00
01626            1100.00     6400.00
01627            1100.00     6400.00
01628            1120.00     6480.00
01629            1100.00     6560.00
01630            1140.00     6560.00
01631            1140.00     6560.00
01632            1140.00     6640.00
01633            1140.00     6640.00
01634            1160.00     6640.00
01635            1160.00     6640.00
01636            1160.00     6640.00
01637            1160.00     6720.00
01638            1160.00     6720.00
01639            1180.00     6720.00
01640            1180.00     6720.00
01641            1160.00     6800.00
01642            1180.00     6800.00
01643            1200.00     6880.00
01644            1200.00     6880.00
01645            1220.00     6880.00
01646            1200.00     6880.00
01647            1220.00     6960.00
01648            1220.00     6960.00
01649            1220.00     6960.00
01650            1220.00     7040.00
01651            1220.00     6960.00
01652            1220.00     6960.00
01653            1240.00     7040.00
01654            1220.00     7040.00
01655            1240.00     7040.00
01656            1240.00     7040.00
01657            1240.00     7120.00
01658            1260.00     7120.00
01659            1240.00     7040.00
01660            1240.00     7120.00
01661            1260.00     7200.00
01662            1240.00     7200.00
01663            1260.00     7200.00
01664            1240.00     7200.00
01665            1260.00     7200.00
01666            1260.00     7280.00
01667            1280.00     7280.00
01668            1260.00     7280.00
01669            1260.00     7280.00
01670            1260.00     7280.00
01671            1300.00     7360.00
01672            1300.00     7280.00
01673            1300.00     7360.00
01674            1300.00     7360.00
01675            1300.00     7360.00
01676            1300.00     7360.00
01677            1300.00     7360.00
01678            1300.00     7440.00
01679            1300.00     7360.00
01680            1300.00     7440.00
01681            1300.00     7440.00
01682            1320.00     7520.00
01683            1320.00     7520.00
01684            1320.00     7520.00
01685            1320.00     7520.00
01686            1320.00     7520.00
01687            1320.00     7520.00
01688            1320.00     7520.00
01689            1340.00     7520.00
01690            1320.00     7520.00
01691            1320.00     7600.00
01692            1320.00     7520.00
01693            1340.00     7600.00
01694            1320.00     7520.00
01695            1340.00     7520.00
01696            1340.00     7520.00
01697            1340.00     7600.00
01698            1320.00     7600.00
01699            1340.00     7600.00
01700            1340.00     7600.00
01701            1360.00     7600.00
01702            1340.00     7600.00
01703            1380.00     7600.00
01704            1340.00     7600.00
01705            1380.00     7600.00
01706            1360.00     7600.00
01707            1380.00     7600.00
01708            1360.00     7600.00
01709            1380.00     7680.00
01710            1380.00     7600.00
01711            1360.00     7600.00
01712            1380.00     7600.00
01713            1360.00     7600.00
01714            1380.00     7680.00
01715            1380.00     7600.00
01716            1380.00     7680.00
01717            1360.00     7600.00
01718            1380.00     7680.00
01719            1360.00     7600.00
01720            1380.00     7680.00
01721            1380.00     7600.00
01722            1380.00     7680.00
01723            1360.00     7600.00
01724            1380.00     7680.00
01725            1360.00     7600.00
01726            1380.00     7600.00
01727            1340.00     7600.00
01728            1380.00     7680.00
01729            1340.00     7600.00
01730            1340.00     7600.00
01731            1380.00     7600.00
01732            1340.00     7600.00
01733            1380.00     7680.00
01734            1360.00     7680.00
01735            1360.00     7600.00
01736            1340.00     7600.00
01737            1360.00     7600.00
01738            1340.00     7600.00
01739            1340.00     7600.00
01740            1340.00     7520.00
01741            1380.00     7600.00
01742            1380.00     7600.00
01743            1340.00     7520.00
01744            1340.00     7600.00
01745            1340.00     7520.00
01746            1340.00     7600.00
01747            1340.00     7600.00
01748            1340.00     7520.00
01749            1320.00     7520.00
01750            1340.00     7520.00
01751            1340.00     7520.00
01752            1340.00     7520.00
01753            1320.00     7520.00
01754            1340.00     7520.00
01755            1340.00     7520.00
01756            1340.00     7520.00
01757            1320.00     7440.00
01758            1340.00     7440.00
01759            1340.00     7360.00
01760            1320.00     7440.00
01761            1340.00     7360.00
01762            1340.00     7360.00
01763            1320.00     7360.00
01764            1320.00     7360.00
01765            1320.00     7360.00
01766            1320.00     7280.00
01767            1320.00     7360.00
01768            1300.00     7360.00
01769            1320.00     7280.00
01770            1320.00     7280.00
01771            1320.00     7280.00
01772            1320.00     7200.00
01773            1300.00     7280.00
01774            1320.00     7200.00
01775            1300.00     7200.00
01776            1300.00     7200.00
01777            1300.00     7200.00
01778            1300.00     7120.00
01779            1300.00     7200.00
01780            1300.00     7120.00
01781            1300.00     7040.00
01782            1300.00     7120.00
01783            1300.00     7040.00
01784            1300.00     7040.00
01785            1280.00     7040.00
01786            1260.00     6960.00
01787            1260.00     7040.00
01788            1260.00     6960.00
01789            1260.00     6880.00
01790            1240.00     6880.00
01791            1240.00     6880.00
01792            1240.00     6880.00
01793            1240.00     6880.00
01794            1240.00     6880.00
01795            1220.00     6880.00
01796            1240.00     6800.00
01797            1240.00     6800.00
01798            1220.00     6720.00
01799            1220.00     6720.00
01800            1220.00     6720.00
01801            1220.00     6720.00
01802            1220.00     6640.00
01803            1220.00     6720.00
01804            1220.00     6640.00
01805            1180.00     6560.00
01806            1200.00     6560.00
01807            1180.00     6560.00
01808            1180.00     6560.00
01809            1180.00     6480.00
01810            1160.00     6480.00
01811            1160.00     6400.00
01812            1180.00     6400.00
01813            1160.00     6400.00
01814            1160.00     6400.00
01815            1160.00     6320.00
01816            1160.00     6320.00
01817            1160.00     6320.00
01818            1160.00     6240.00
01819            1160.00     6240.00
01820            1140.00     6240.00
01821            1140.00     6240.00
01822            1120.00     6240.00
01823            1140.00     6160.00
01824            1100.00     6080.00
01825            1120.00     6080.00
01826            1100.00     6000.00
01827            1100.00     6000.00
01828            1100.00     6000.00
01829            1100.00     6000.00
01830            1100.00     5920.00
01831            1100.00     5920.00
01832            1080.00     5920.00
01833            1080.00     5920.00
01834            1060.00     5840.00
01835            1080.00     5760.00
01836            1060.00     5840.00
01837            1060.00     5760.00
01838            1060.00     5680.00
01839            1060.00     5680.00
01840            1040.00     5600.00
01841            1060.00     5600.00
01842            1040.00     5600.00
01843            1020.00     5520.00
01844            1000.00     5440.00
01845            1020.00     5440.00
01846            1000.00     5440.00
01847            1000.00     5360.00
01848            1000.00     5360.00
01849            1000.00     5280.00
01850            1000.00     5280.00
01851            1000.00     5280.00
01852             980.00     5200.00
01853             980.00     5280.00
01854             980.00     5120.00
01855             960.00     5120.00
01856             980.00     5040.00
01857             920.00     5040.00
01858             920.00     5040.00
01859             920.00     5040.00
01860             900.00     4960.00
01861             920.00     4960.00
01862             900.00     4880.00
01863             920.00     4880.00
01864             900.00     4800.00
01865             900.00     4800.00
01866             880.00     4800.00
01867             880.00     4720.00
01868             880.00     4640.00
01869             860.00     4560.00
01870             860.00     4560.00
01871             840.00     4480.00
01872             840.00     4480.00
01873             840.00     4480.00
01874             840.00     4400.00
01875             820.00     4400.00
01876             820.00     4320.00
01877             820.00     4320.00
01878             780.00     4320.00
01879             780.00     4240.00
01880             780.00     4160.00
01881             780.00     4160.00
01882             800.00     4080.00
01883             760.00     4080.00
01884             780.00     4080.00
01885             780.00     4000.00
01886             760.00     4000.00
01887             740.00     3840.00
01888             740.00     3920.00
01889             740.00     3840.00
01890             720.00     3840.00
01891             700.00     3760.00
01892             700.00     3680.00
01893             700.00     3680.00
01894             700.00     3680.00
01895             680.00     3680.00
01896             680.00     3520.00
01897             680.00     3520.00
01898             680.00     3520.00
01899             660.00     3440.00
01900             660.00     3360.00
01901             660.00     3360.00
01902             640.00     3360.00
01903             640.00     3280.00
01904             620.00     3200.00
01905             600.00     3200.00
01906             620.00     3200.00
01907             600.00     3040.00
01908             600.00     3040.00
01909             580.00     3040.00
01910             580.00     3040.00
01911             580.00     2880.00
01912             580.00     2880.00
01913             580.00     2880.00
01914             560.00     2800.00
01915             540.00     2800.00
01916             540.00     2720.00
01917             540.00     2720.00
01918             520.00     2560.00
01919             520.00     2560.00
01920             500.00     2560.00
01921             500.00     2480.00
01922             480.00     2480.00
01923             460.00     2400.00
01924             440.00     2400.00
01925             440.00     2320.00
01926             440.00     2240.00
01927             440.00     2240.00
01928             440.00     2160.00
01929             420.00     2160.00
01930             420.00     2080.00
01931             420.00     2080.00
01932             380.00     1920.00
01933             400.00     1920.00
01934             380.00     1840.00
01935             360.00     1840.00
01936             360.00     1760.00
01937             360.00     1760.00
01938             360.00     1760.00
01939             360.00     1600.00
01940             340.00     1600.00
01941             340.00     1600.00
01942             320.00     1520.00
01943             320.00     1520.00
01944             300.00     1440.00
01945             300.00     1440.00
01946             280.00     1360.00
01947             260.00     1360.00
01948             280.00     1280.00
01949             260.00     1200.00
01950             260.00     1200.00
01951             260.00     1120.00
01952             260.00     1120.00
01953             220.00     1040.00
01954             220.00      960.00
01955             220.00      880.00
01956             200.00      960.00
01957             200.00      880.00
01958             200.00      800.00
01959             200.00      800.00
01960             180.00      800.00
01961             180.00      640.00
01962             180.00      640.00
01963             140.00      560.00
01964             140.00      560.00
01965             140.00      480.00
01966             140.00      480.00
01967             120.00      320.00
01968             120.00      320.00
01969             100.00      320.00
01970             100.00      240.00
01971             100.00      160.00
01972              60.00      160.00
01973              60.00       80.00
01974              60.00        0.00
01975              40.00        0.00
01976              40.00        0.00
01977              40.00      -80.00
01978              40.00     -160.00
01979              20.00     -160.00
01980              20.00     -160.00
01981              20.00     -320.00
01982               0.00     -320.00
01983             -20.00     -320.00
01984             -20.00     -400.00
01985             -20.00     -400.00
01986             -20.00     -400.00
01987             -40.00     -640.00
01988             -60.00     -640.00
01989            -120.00     -800.00
01990            -120.00     -640.00
01991             -40.00     -640.00
01992             -60.00     -800.00
01993            -160.00     -960.00
01994            -100.00     -800.00
01995             -80.00     -960.00
01996            -140.00    -1040.00
01997            -140.00     -960.00
01998            -120.00     -960.00
01999            -180.00    -1120.00
02000            -200.00    -1120.00
02001            -140.00    -1120.00
02002            -200.00    -1280.00
02003            -200.00    -1280.00
02004            -180.00    -1360.00
02005            -200.00    -1360.00
02006            -220.00    -1440.00
02007            -220.00    -1440.00
02008            -220.00    -1520.00
02009            -260.00    -1600.00
02010            -220.00    -1600.00
02011            -260.00    -1680.00
02012            -280.00    -1680.00
02013            -260.00    -1760.00
02014            -280.00    -1760.00
02015            -300.00    -1840.00
02016            -280.00    -1840.00
02017            -300.00    -2000.00
02018            -300.00    -1920.00
02019            -300.00    -2000.00
02020            -340.00    -2080.00
02021            -340.00    -2160.00
02022            -340.00    -2160.00
02023            -360.00    -2240.00
02024            -360.00    -2240.00
02025            -360.00    -2320.00
02026            -380.00    -2400.00
02027            -360.00    -2400.00
02028            -400.00    -2400.00
02029            -380.00    -2480.00
02030            -380.00    -2480.00
02031            -420.00    -2560.00
02032            -420.00    -2640.00
02033            -440.00    -2640.00
02034            -440.00    -2720.00
02035            -440.00    -2720.00
02036            -440.00    -2800.00
02037            -460.00    -2800.00
02038            -460.00    -2880.00
02039            -460.00    -2880.00
02040            -500.00    -2960.00
02041            -500.00    -2960.00
02042            -500.00    -3040.00
02043            -520.00    -3120.00
02044            -520.00    -3120.00
02045            -520.00    -3200.00
02046            -540.00    -3200.00
02047            -540.00    -3280.00
02048            -540.00    -3360.00
02049            -560.00    -3360.00
02050            -580.00    -3360.00
02051            -580.00    -3520.00
02052            -600.00    -3520.00
02053            -600.00    -3520.00
02054            -600.00    -3600.00
02055            -600.00    -3680.00
02056            -620.00    -3680.00
02057            -620.00    -3680.00
02058            -620.00    -3760.00
02059            -620.00    -3760.00
02060            -660.00    -3760.00
02061            -660.00    -3840.00
02062            -660.00    -3920.00
02063            -680.00    -3920.00
02064            -680.00    -3920.00
02065            -680.00    -4000.00
02066            -700.00    -4080.00
02067            -700.00    -4080.00
02068            -700.00    -4160.00
02069            -700.00    -4160.00
02070            -740.00    -4240.00
02071            -700.00    -4240.00
02072            -740.00    -4320.00
02073            -740.00    -4320.00
02074            -760.00    -4320.00
02075            -760.00    -4480.00
02076            -760.00    -4480.00
02077            -760.00    -4480.00
02078            -780.00    -4560.00
02079            -760.00    -4560.00
02080            -780.00    -4560.00
02081            -780.00    -4640.00
02082            -800.00    -4720.00
02083            -820.00    -4800.00
02084            -820.00    -4720.00
02085            -820.00    -4800.00
02086            -840.00    -4800.00
02087            -840.00    -4880.00
02088            -840.00    -4880.00
02089            -860.00    -4960.00
02090            -860.00    -4960.00
02091            -860.00    -4960.00
02092            -860.00    -5120.00
02093            -860.00    -5120.00
02094            -860.00    -5120.00
02095            -900.00    -5120.00
02096            -900.00    -5200.00
02097            -880.00    -5200.00
02098            -900.00    -5280.00
02099            -920.00    -5280.00
02100            -920.00    -5280.00
02101            -920.00    -5440.00
02102            -940.00    -5360.00
02103            -920.00    -5440.00
02104            -920.00    -5440.00
02105            -980.00    -5440.00
02106            -960.00    -5520.00
02107            -940.00    -5520.00
02108            -980.00    -5520.00
02109            -980.00    -5600.00
02110            -960.00    -5600.00
02111           -1000.00    -5680.00
02112           -1000.00    -5760.00
02113           -1000.00    -5760.00
02114           -1020.00    -5760.00
02115           -1020.00    -5840.00
02116           -1020.00    -5840.00
02117           -1020.00    -5840.00
02118           -1040.00    -5920.00
02119           -1040.00    -5920.00
02120           -1020.00    -5920.00
02121           -1060.00    -5920.00
02122           -1060.00    -6080.00
02123           -1060.00    -6000.00
02124           -1080.00    -6080.00
02125           -1060.00    -6080.00
02126           -1080.00    -6160.00
02127           -1080.00    -6160.00
02128           -1080.00    -6160.00
02129           -1080.00    -6240.00
02130           -1100.00    -6240.00
02131           -1080.00    -6240.00
02132           -1100.00    -6240.00
02133           -1100.00    -6320.00
02134           -1120.00    -6400.00
02135           -1120.00    -6400.00
02136           -1140.00    -6400.00
02137           -1140.00    -6400.00
02138           -1140.00    -6480.00
02139           -1140.00    -6480.00
02140           -1140.00    -6480.00
02141           -1160.00    -6560.00
02142           -1160.00    -6560.00
02143           -1160.00    -6560.00
02144           -1160.00    -6560.00
02145           -1180.00    -6640.00
02146           -1160.00    -6640.00
02147           -1180.00    -6720.00
02148           -1180.00    -6640.00
02149           -1180.00    -6720.00
02150           -1180.00    -6720.00
02151           -1200.00    -6720.00
02152           -1180.00    -6720.00
02153           -1220.00    -6800.00
02154           -1180.00    -6800.00
02155           -1220.00    -6880.00
02156           -1200.00    -6800.00
02157           -1220.00    -6880.00
02158           -1220.00    -6880.00
02159           -1240.00    -6880.00
02160           -1240.00    -6880.00
02161           -1240.00    -6880.00
02162           -1240.00    -6960.00
02163           -1240.00    -7040.00
02164           -1240.00    -7040.00
02165           -1240.00    -6960.00
02166           -1260.00    -6960.00
02167           -1260.00    -7040.00
02168           -1240.00    -7040.00
02169           -1240.00    -7120.00
02170           -1260.00    -7120.00
02171           -1260.00    -7120.00
02172           -1260.00    -7120.00
02173           -1260.00    -7120.00
02174           -1260.00    -7200.00
02175           -1280.00    -7120.00
02176           -1260.00    -7200.00
02177           -1280.00    -7200.00
02178           -1280.00    -7200.00
02179           -1300.00    -7200.00
02180           -1300.00    -7200.00
02181           -1320.00    -7200.00
02182           -1300.00    -7200.00
02183           -1320.00    -7360.00
02184           -1320.00    -7280.00
02185           -1320.00    -7360.00
02186           -1320.00    -7280.00
02187           -1340.00    -7360.00
02188           -1320.00    -7360.00
02189           -1340.00    -7360.00
02190           -1320.00    -7440.00
02191           -1340.00    -7360.00
02192           -1320.00    -7440.00
02193           -1340.00    -7440.00
02194           -1320.00    -7440.00
02195           -1340.00    -7440.00
02196           -1340.00    -7440.00
02197           -1320.00    -7440.00
02198           -1340.00    -7440.00
02199           -1340.00    -7440.00
02200           -1340.00    -7440.00
02201           -1340.00    -7520.00
02202           -1340.00    -7520.00
02203           -1340.00    -7440.00
02204           -1340.00    -7520.00
02205           -1340.00    -7520.00
02206           -1340.00    -7520.00
02207           -1340.00    -7600.00
02208           -1340.00    -7520.00
02209           -1340.00    -7520.00
02210           -1340.00    -7520.00
02211           -1340.00    -7520.00
02212           -1360.00    -7520.00
02213           -1340.00    -7520.00
02214           -1360.00    -7600.00
02215           -1340.00    -7520.00
02216           -1380.00    -7520.00
02217           -1360.00    -7520.00
02218           -1340.00    -7520.00
02219           -1360.00    -7520.00
02220           -1340.00    -7600.00
02221           -1360.00    -7600.00
02222           -1340.00    -7600.00
02223           -1340.00    -7600.00
02224           -1360.00    -7520.00
02225           -1360.00    -7520.00
02226           -1380.00    -7520.00
02227           -1380.00    -7600.00
02228           -1340.00    -7520.00
02229           -1340.00    -7600.00
02230           -1380.00    -7600.00
02231           -1360.00    -7680.00
02232           -1380.00    -7520.00
02233           -1360.00    -7600.00
02234           -1380.00    -7520.00
02235           -1340.00    -7600.00
02236           -1380.00    -7520.00
02237           -1360.00    -7520.00
02238           -1340.00    -7520.00
02239           -1340.00    -7600.00
02240           -1380.00    -7520.00
02241           -1360.00    -7600.00
02242           -1360.00    -7520.00
02243           -1340.00    -7520.00
02244           -1360.00    -7520.00
02245           -1380.00    -7520.00
02246           -1380.00    -7520.00
02247           -1380.00    -7600.00
02248           -1340.00    -7520.00
02249           -1380.00    -7520.00
02250           -1360.00    -7520.00
02251           -1380.00    -7520.00
02252           -1340.00    -7440.00
02253           -1360.00    -7520.00
02254           -1360.00    -7520.00
02255           -1380.00    -7440.00
02256           -1380.00    -7440.00
02257           -1360.00    -7440.00
02258           -1340.00    -7440.00
02259           -1360.00    -7360.00
02260           -1340.00    -7440.00
02261           -1340.00    -7440.00
02262           -1340.00    -7440.00
02263           -1340.00    -7360.00
02264           -1360.00    -7360.00
02265           -1340.00    -7440.00
02266           -1340.00    -7360.00
02267           -1340.00    -7360.00
02268           -1340.00    -7360.00
02269           -1340.00    -7360.00
02270           -1340.00    -7360.00
02271           -1340.00    -7280.00
02272           -1340.00    -7360.00
02273           -1340.00    -7280.00
02274           -1340.00    -7200.00
02275           -1320.00    -7200.00
02276           -1320.00    -7200.00
02277           -1320.00    -7200.00
02278           -1320.00    -7200.00
02279           -1320.00    -7200.00
02280           -1320.00    -7120.00
02281           -1320.00    -7120.00
02282           -1320.00    -7200.00
02283           -1320.00    -7120.00
02284           -1320.00    -7120.00
02285           -1300.00    -7120.00
02286           -1300.00    -7040.00
02287           -1260.00    -7040.00
02288           -1280.00    -6960.00
02289           -1300.00    -7040.00
02290           -1300.00    -6960.00
02291           -1300.00    -6960.00
02292           -1260.00    -6960.00
02293           -1260.00    -6960.00
02294           -1260.00    -6880.00
02295           -1260.00    -6880.00
02296           -1260.00    -6880.00
02297           -1260.00    -6800.00
02298           -1240.00    -6880.00
02299           -1260.00    -6880.00
02300           -1240.00    -6800.00
02301           -1240.00    -6800.00
02302           -1240.00    -6720.00
02303           -1240.00    -6800.00
02304           -1240.00    -6720.00
02305           -1240.00    -6720.00
02306           -1220.00    -6720.00
02307           -1220.00    -6720.00
02308           -1240.00    -6640.00
02309           -1240.00    -6560.00
02310           -1240.00    -6560.00
02311           -1220.00    -6560.00
02312           -1240.00    -6560.00
02313           -1240.00    -6560.00
02314           -1220.00    -6560.00
02315           -1220.00    -6480.00
02316           -1220.00    -6480.00
02317           -1180.00    -6480.00
02318           -1200.00    -6400.00
02319           -1220.00    -6400.00
02320           -1180.00    -6320.00
02321           -1180.00    -6320.00
02322           -1180.00    -6240.00
02323           -1180.00    -6240.00
02324           -1180.00    -6240.00
02325           -1160.00    -6240.00
02326           -1160.00    -6160.00
02327           -1160.00    -6160.00
02328           -1140.00    -6160.00
02329           -1160.00    -6080.00
02330           -1140.00    -6080.00
02331           -1140.00    -6080.00
02332           -1120.00    -6000.00
02333           -1140.00    -6000.00
02334           -1100.00    -6000.00
02335           -1100.00    -5920.00
02336           -1120.00    -5920.00
02337           -1100.00    -5840.00
02338           -1100.00    -5920.00
02339           -1100.00    -5840.00
02340           -1080.00    -5760.00
02341           -1080.00    -5760.00
02342           -1080.00    -5760.00
02343           -1080.00    -5680.00
02344           -1080.00    -5600.00
02345           -1080.00    -5600.00
02346           -1060.00    -5600.00
02347           -1060.00    -5520.00
02348           -1040.00    -5600.00
02349           -1020.00    -5520.00
02350           -1020.00    -5440.00
02351           -1020.00    -5440.00
02352           -1020.00    -5440.00
02353           -1020.00    -5440.00
02354           -1020.00    -5360.00
02355           -1000.00    -5280.00
02356           -1000.00    -5280.00
02357           -1000.00    -5280.00
02358           -1000.00    -5280.00
02359            -980.00    -5120.00
02360            -980.00    -5200.00
02361            -980.00    -5120.00
02362            -960.00    -5120.00
02363            -980.00    -5040.00
02364            -940.00    -5040.00
02365            -940.00    -4960.00
02366            -940.00    -4960.00
02367            -940.00    -4880.00
02368            -920.00    -4800.00
02369            -920.00    -4880.00
02370            -920.00    -4800.00
02371            -920.00    -4720.00
02372            -900.00    -4720.00
02373            -900.00    -4640.00
02374            -900.00    -4640.00
02375            -900.00    -4560.00
02376            -860.00    -4560.00
02377            -860.00    -4560.00
02378            -860.00    -4400.00
02379            -860.00    -4480.00
02380            -860.00    -4400.00
02381            -860.00    -4400.00
02382            -840.00    -4320.00
02383            -840.00    -4320.00
02384            -840.00    -4240.00
02385            -840.00    -4240.00
02386            -820.00    -4160.00
02387            -820.00    -4160.00
02388            -820.00    -4080.00
02389            -780.00    -4000.00
02390            -780.00    -4000.00
02391            -780.00    -4000.00
02392            -780.00    -4000.00
02393            -760.00    -4000.00
02394            -760.00    -3920.00
02395            -760.00    -3840.00
02396            -740.00    -3840.00
02397            -740.00    -3680.00
02398            -740.00    -3680.00
02399            -740.00    -3680.00
02400            -740.00    -3680.00
02401            -720.00    -3600.00
02402            -700.00    -3520.00
02403            -700.00    -3520.00
02404            -700.00    -3440.00
02405            -680.00    -3520.00
02406            -680.00    -3360.00
02407            -680.00    -3360.00
02408            -660.00    -3360.00
02409            -640.00    -3280.00
02410            -660.00    -3200.00
02411            -620.00    -3200.00
02412            -620.00    -3200.00
02413            -620.00    -3200.00
02414            -620.00    -3040.00
02415            -600.00    -3040.00
02416            -600.00    -3040.00
02417            -580.00    -2960.00
02418            -600.00    -2880.00
02419            -560.00    -2880.00
02420            -580.00    -2800.00
02421            -540.00    -2720.00
02422            -540.00    -2720.00
02423            -540.00    -2640.00
02424            -520.00    -2640.00
02425            -520.00    -2640.00
02426            -520.00    -2560.00
02427            -520.00    -2480.00
02428            -500.00    -2480.00
02429            -500.00    -2320.00
02430            -480.00    -2400.00
02431            -480.00    -2320.00
02432            -460.00    -2240.00
02433            -440.00    -2240.00
02434            -460.00    -2240.00
02435            -460.00    -2160.00
02436            -440.00    -2080.00
02437            -440.00    -2000.00
02438            -420.00    -2000.00
02439            -420.00    -2000.00
02440            -420.00    -1840.00
02441            -420.00    -1840.00
02442            -420.00    -1760.00
02443            -380.00    -1760.00
02444            -380.00    -1760.00
02445            -380.00    -1680.00
02446            -360.00    -1680.00
02447            -360.00    -1600.00
02448            -360.00    -1600.00
02449            -340.00    -1520.00
02450            -340.00    -1440.00
02451            -340.00    -1440.00
02452            -300.00    -1440.00
02453            -340.00    -1360.00
02454            -300.00    -1280.00
02455            -300.00    -1280.00
02456            -300.00    -1120.00
02457            -280.00    -1200.00
02458            -280.00    -1040.00
02459            -280.00    -1040.00
02460            -280.00    -1040.00
02461            -240.00     -960.00
02462            -240.00     -960.00
02463            -240.00     -800.00
02464            -220.00     -800.00
02465            -220.00     -800.00
02466            -200.00     -720.00
02467            -200.00     -640.00
02468            -200.00     -640.00
02469            -180.00     -640.00
02470            -180.00     -560.00
02471            -180.00     -480.00
02472            -140.00     -480.00
02473            -140.00     -400.00
02474            -140.00     -320.00
02475            -140.00     -320.00
02476            -120.00     -240.00
02477            -120.00     -240.00
02478            -120.00     -160.00
02479            -100.00     -160.00
02480            -100.00      -80.00
02481             -80.00        0.00
02482             -60.00        0.00
02483             -60.00       80.00
02484             -40.00      160.00
02485             -60.00      160.00
02486             -40.00      160.00
02487             -20.00      240.00
02488             -20.00      240.00
02489             -20.00      320.00
02490              20.00      320.00
02491               0.00      480.00
02492              20.00      480.00
02493              40.00      560.00
02494              40.00      720.00
02495              40.00      640.00
02496               0.00      560.00
02497              40.00      720.00
02498             120.00      880.00
02499             100.00      800.00
02500              40.00      800.00
02501             100.00      960.00
02502             140.00     1040.00
02503              60.00      880.00
02504             100.00     1120.00
02505             180.00     1280.00
02506             120.00     1120.00
02507             100.00     1120.00
02508             140.00     1280.00
02509             140.00     1280.00
02510             140.00     1280.00
02511             180.00     1440.00
02512             180.00     1440.00
02513             180.00     1440.00
02514             200.00     1600.00
02515             200.00     1520.00
02516             200.00     1600.00
02517             220.00     1680.00
02518             220.00     1680.00
02519             200.00     1680.00
02520             260.00     1840.00
02521             260.00     1840.00
02522             260.00     1840.00
02523             280.00     1920.00
02524             280.00     1920.00
02525             280.00     2000.00
02526             300.00     2160.00
02527             300.00     2080.00
02528             300.00     2160.00
02529             340.00     2240.00
02530             300.00     2240.00
02531             340.00     2240.00
02532             340.00     2400.00
02533             360.00     2400.00
02534             360.00     2400.00
02535             360.00     2480.00
02536             360.00     2560.00
02537             380.00     2560.00
02538             420.00     2560.00
02539             420.00     2720.00
02540             420.00     2720.00
02541             420.00     2720.00
02542             440.00     2800.00
02543             440.00     2800.00
02544             440.00     2880.00
02545             460.00     3040.00
02546             460.00     3040.00
02547             500.00     3040.00
02548             500.00     3040.00
02549             480.00     3120.00
02550             500.00     3200.00
02551             500.00     3200.00
02552             520.00     3280.00
02553             520.00     3280.00
02554             540.00     3360.00
02555             540.00     3360.00
02556             540.00     3440.00
02557             580.00     3440.00
02558             580.00     3440.00
02559             580.00     3520.00
02560             580.00     3600.00
02561             600.00     3600.00
02562             600.00     3680.00
02563             600.00     3680.00
02564             620.00     3760.00
02565             620.00     3840.00
02566             620.00     3760.00
02567             640.00     3840.00
02568             660.00     3840.00
02569             660.00     4000.00
02570             660.00     4000.00
02571             660.00     4000.00
02572             680.00     4080.00
02573             680.00     4080.00
02574             680.00     4160.00
02575             680.00     4160.00
02576             680.00     4240.00
02577             700.00     4320.00
02578             700.00     4320.00
02579             700.00     4400.00
02580             720.00     4320.00
02581             720.00     4400.00
02582             740.00     4480.00
02583             760.00     4480.00
02584             740.00     4560.00
02585             760.00     4640.00
02586             760.00     4640.00
02587             760.00     4640.00
02588             760.00     4720.00
02589             780.00     4720.00
02590             780.00     4800.00
02591             820.00     4800.00
02592             820.00     4800.00
02593             820.00     4880.00
02594             820.00     4960.00
02595             820.00     4960.00
02596             820.00     4960.00
02597             840.00     5040.00
02598             840.00     5040.00
02599             860.00     5040.00
02600             860.00     5120.00
02601             860.00     5200.00
02602             880.00     5200.00
02603             900.00     5280.00
02604             900.00     5280.00
02605             900.00     5280.00
02606             900.00     5360.00
02607             900.00     5360.00
02608             920.00     5440.00
02609             920.00     5440.00
02610             920.00     5440.00
02611             940.00     5440.00
02612             940.00     5600.00
02613             940.00     5600.00
02614             940.00     5600.00
02615             960.00     5680.00
02616             980.00     5680.00
02617             980.00     5760.00
02618             980.00     5760.00
02619             980.00     5840.00
02620            1000.00     5840.00
02621            1000.00     5920.00
02622            1000.00     5920.00
02623            1000.00     5920.00
02624            1020.00     5920.00
02625            1020.00     5920.00
02626            1000.00     6000.00
02627            1020.00     6000.00
02628            1040.00     6000.00
02629            1060.00     6080.00
02630            1060.00     6080.00
02631            1060.00     6080.00
02632            1060.00     6160.00
02633            1060.00     6240.00
02634            1080.00     6240.00
02635            1080.00     6240.00
02636            1080.00     6320.00
02637            1080.00     6320.00
02638            1080.00     6320.00
02639            1080.00     6320.00
02640            1100.00     6400.00
02641            1080.00     6400.00
02642            1100.00     6400.00
02643            1100.00     6400.00
02644            1100.00     6560.00
02645            1120.00     6560.00
02646            1100.00     6560.00
02647            1100.00     6560.00
02648            1140.00     6560.00
02649            1140.00     6640.00
02650            1140.00     6640.00
02651            1140.00     6640.00
02652            1140.00     6720.00
02653            1160.00     6720.00
02654            1160.00     6720.00
02655            1160.00     6720.00
02656            1160.00     6800.00
02657            1160.00     6800.00
02658            1160.00     6880.00
02659            1160.00     6800.00
02660            1180.00     6880.00
02661            1180.00     6880.00
02662            1220.00     6880.00
02663            1220.00     6880.00
02664            1200.00     6960.00
02665            1200.00     6960.00
02666            1220.00     6960.00
02667            1200.00     6960.00
02668            1220.00     7040.00
02669            1220.00     7040.00
02670            1220.00     7040.00
02671            1220.00     7040.00
02672            1220.00     7040.00
02673            1240.00     7120.00
02674            1240.00     7040.00
02675            1240.00     7200.00
02676            1240.00     7120.00
02677            1240.00     7200.00
02678            1240.00     7200.00
02679            1260.00     7200.00
02680            1260.00     7200.00
02681            1260.00     7280.00
02682            1260.00     7280.00
02683            1300.00     7280.00
02684            1280.00     7280.00
02685            1300.00     7280.00
02686            1300.00     7280.00
02687            1300.00     7360.00
02688            1300.00     7360.00
02689            1280.00     7360.00
02690            1320.00     7360.00
02691            1300.00     7360.00
02692            1300.00     7360.00
02693            1320.00     7360.00
02694            1300.00     7440.00
02695            1320.00     7520.00
02696            1300.00     7520.00
02697            1320.00     7520.00
02698            1320.00     7520.00
02699            1320.00     7520.00
02700            1320.00     7520.00
02701            1320.00     7520.00
02702            1320.00     7520.00
02703            1320.00     7520.00
02704            1320.00     7520.00
02705            1320.00     7520.00
02706            1320.00     7600.00
02707            1320.00     7520.00
02708            1320.00     7520.00
02709            1320.00     7600.00
02710            1320.00     7600.00
02711            1320.00     7520.00
02712            1320.00     7520.00
02713            1320.00     7600.00
02714            1320.00     7600.00
02715            1340.00     7600.00
02716            1320.00     7520.00
02717            1340.00     7600.00
02718            1340.00     7600.00
02719            1340.00     7680.00
02720            1340.00     7680.00
02721            1340.00     7680.00
02722            1340.00     7680.00
02723            1340.00     7600.00
02724            1340.00     7600.00
02725            1340.00     7680.00
02726            1340.00     7680.00
02727            1340.00     7680.00
02728            1340.00     7600.00
02729            1360.00     7680.00
02730            1360.00     7680.00
02731            1380.00     7680.00
02732            1380.00     7680.00
02733            1380.00     7680.00
02734            1360.00     7680.00
02735            1340.00     7680.00
02736            1380.00     7680.00
02737            1380.00     7680.00
02738            1360.00     7680.00
02739            1380.00     7680.00
02740            1380.00     7680.00
02741            1380.00     7600.00
02742            1380.00     7680.00
02743            1380.00     7680.00
02744            1380.00     7680.00
02745            1380.00     7600.00
02746            1380.00     7680.00
02747            1360.00     7680.00
02748            1340.00     7680.00
02749            1360.00     7600.00
02750            1380.00     7680.00
02751            1380.00     7600.00
02752            1380.00     7600.00
02753            1380.00     7600.00
02754            1380.00     7680.00
02755            1380.00     7600.00
02756            1360.00     7600.00
02757            1340.00     7600.00
02758            1380.00     7600.00
02759            1380.00     7520.00
02760            1360.00     7600.00
02761            1340.00     7600.00
02762            1340.00     7600.00
02763            1360.00     7520.00
02764            1380.00     7520.00
02765            1340.00     7600.00
02766            1340.00     7520.00
02767            1360.00     7520.00
02768            1340.00     7520.00
02769            1340.00     7520.00
02770            1340.00     7440.00
02771            1320.00     7520.00
02772            1340.00     7520.00
02773            1320.00     7440.00
02774            1320.00     7440.00
02775            1320.00     7360.00
02776            1320.00     7440.00
02777            1340.00     7360.00
02778            1320.00     7360.00
02779            1340.00     7360.00
02780            1320.00     7360.00
02781            1320.00     7360.00
02782            1320.00     7360.00
02783            1320.00     7360.00
02784            1320.00     7280.00
02785            1320.00     7280.00
02786            1320.00     7360.00
02787            1300.00     7280.00
02788            1320.00     7280.00
02789            1300.00     7200.00
02790            1300.00     7200.00
02791            1320.00     7200.00
02792            1280.00     7280.00
02793            1300.00     7200.00
02794            1280.00     7120.00
02795            1300.00     7200.00
02796            1300.00     7040.00
02797            1280.00     7120.00
02798            1300.00     7040.00
02799            1300.00     7040.00
02800            1300.00     7040.00
02801            1300.00     7040.00
02802            1300.00     7040.00
02803            1260.00     7040.00
02804            1260.00     6960.00
02805            1260.00     6960.00
02806            1260.00     6960.00
02807            1260.00     6880.00
02808            1260.00     6880.00
02809            1260.00     6960.00
02810            1240.00     6880.00
02811            1240.00     6880.00
02812            1240.00     6880.00
02813            1220.00     6800.00
02814            1240.00     6720.00
02815            1220.00     6720.00
02816            1220.00     6720.00
02817            1220.00     6720.00
02818            1220.00     6720.00
02819            1220.00     6640.00
02820            1220.00     6640.00
02821            1220.00     6640.00
02822            1220.00     6560.00
02823            1200.00     6560.00
02824            1200.00     6560.00
02825            1180.00     6560.00
02826            1180.00     6480.00
02827            1180.00     6560.00
02828            1180.00     6400.00
02829            1160.00     6400.00
02830            1160.00     6400.00
02831            1160.00     6320.00
02832            1160.00     6320.00
02833            1160.00     6320.00
02834            1140.00     6320.00
02835            1140.00     6240.00
02836            1140.00     6240.00
02837            1100.00     6240.00
02838            1140.00     6160.00
02839            1100.00     6240.00
02840            1100.00     6080.00
02841            1100.00     6080.00
02842            1100.00     6080.00
02843            1100.00     6000.00
02844            1080.00     6000.00
02845            1080.00     6000.00
02846            1080.00     5920.00
02847            1060.00     5920.00
02848            1060.00     5840.00
02849            1080.00     5920.00
02850            1060.00     5840.00
02851            1060.00     5760.00
02852            1060.00     5760.00
02853            1060.00     5680.00
02854            1060.00     5680.00
02855            1040.00     5680.00
02856            1020.00     5680.00
02857            1020.00     5600.00
02858            1020.00     5600.00
02859            1020.00     5600.00
02860            1000.00     5520.00
02861            1000.00     5440.00
02862            1000.00     5440.00
02863            1000.00     5440.00
02864            1000.00     5360.00
02865             980.00     5360.00
02866             980.00     5280.00
02867             980.00     5280.00
02868             980.00     5280.00
02869             960.00     5120.00
02870             960.00     5120.00
02871             940.00     5200.00
02872             940.00     5120.00
02873             940.00     5120.00
02874             940.00     5040.00
02875             940.00     4960.00
02876             920.00     4960.00
02877             900.00     4960.00
02878             900.00     4960.00
02879             920.00     4880.00
02880             900.00     4800.00
02881             900.00     4800.00
02882             900.00     4720.00
02883             900.00     4720.00
02884             880.00     4720.00
02885             840.00     4640.00
02886             860.00     4560.00
02887             840.00     4560.00
02888             840.00     4480.00
02889             840.00     4480.00
02890             840.00     4480.00
02891             840.00     4400.00
02892             820.00     4400.00
02893             820.00     4400.00
02894             820.00     4320.00
02895             800.00     4320.00
02896             820.00     4160.00
02897             780.00     4160.00
02898             780.00     4160.00
02899             760.00     4080.00
02900             760.00     4000.00
02901             740.00     4000.00
02902             740.00     4000.00
02903             740.00     3920.00
02904             740.00     3840.00
02905             740.00     3760.00
02906             700.00     3840.00
02907             700.00     3760.00
02908             720.00     3760.00
02909             700.00     3680.00
02910             680.00     3680.00
02911             680.00     3600.00
02912             680.00     3600.00
02913             680.00     3520.00
02914             660.00     3520.00
02915             660.00     3440.00
02916             660.00     3440.00
02917             640.00     3360.00
02918             620.00     3360.00
02919             620.00     3280.00
02920             600.00     3200.00
02921             620.00     3280.00
02922             580.00     3120.00
02923             600.00     3120.00
02924             580.00     3040.00
02925             580.00     3040.00
02926             580.00     3040.00
02927             560.00     2960.00
02928             580.00     2880.00
02929             560.00     2880.00
02930             540.00     2800.00
02931             540.00     2800.00
02932             540.00     2720.00
02933             520.00     2720.00
02934             520.00     2560.00
02935             520.00     2560.00
02936             520.00     2480.00
02937             520.00     2480.00
02938             500.00     2400.00
02939             500.00     2480.00
02940             460.00     2400.00
02941             460.00     2320.00
02942             440.00     2240.00
02943             440.00     2240.00
02944             440.00     2240.00
02945             440.00     2160.00
02946             420.00     2160.00
02947             420.00     2080.00
02948             420.00     1920.00
02949             400.00     1920.00
02950             380.00     1920.00
02951             360.00     1840.00
02952             380.00     1840.00
02953             360.00     1760.00
02954             360.00     1760.00
02955             360.00     1680.00
02956             360.00     1600.00
02957             340.00     1600.00
02958             340.00     1520.00
02959             320.00     1440.00
02960             300.00     1440.00
02961             300.00     1440.00
02962             300.00     1360.00
02963             280.00     1280.00
02964             280.00     1280.00
02965             260.00     1200.00
02966             260.00     1200.00
02967             240.00     1120.00
02968             260.00     1120.00
02969             220.00     1040.00
02970             220.00      960.00
02971             220.00      960.00
02972             200.00      880.00
02973             200.00      880.00
02974             180.00      800.00
02975             180.00      720.00
02976             180.00      720.00
02977             160.00      640.00
02978             180.00      640.00
02979             140.00      560.00
02980             140.00      560.00
02981             140.00      480.00
02982             120.00      400.00
02983             120.00      320.00
02984             100.00      320.00
02985             100.00      320.00
02986             100.00      240.00
02987             100.00      240.00
02988              60.00      160.00
02989              60.00       80.00
02990              60.00       80.00
02991              40.00        0.00
02992              40.00        0.00
02993              40.00      -80.00
02994              40.00      -80.00
02995              20.00     -160.00
02996               0.00     -240.00
02997             -20.00     -320.00
02998               0.00     -320.00
02999             -40.00     -320.00
03000             -20.00     -400.00
03001             -20.00     -400.00
03002             -20.00     -480.00
03003             -20.00     -560.00
03004             -60.00     -640.00
03005            -120.00     -720.00
03006            -100.00     -640.00
03007             -40.00     -640.00
03008             -80.00     -800.00
03009            -140.00     -960.00
03010            -100.00     -800.00
03011            -100.00     -880.00
03012            -160.00    -1040.00
03013            -140.00    -1040.00
03014            -120.00     -960.00
03015            -180.00    -1120.00
03016            -180.00    -1120.00
03017            -120.00    -1120.00
03018            -200.00    -1280.00
03019            -200.00    -1360.00
03020            -180.00    -1280.00
03021            -220.00    -1440.00
03022            -220.00    -1440.00
03023            -200.00    -1440.00
03024            -220.00    -1520.00
03025            -260.00    -1600.00
03026            -240.00    -1600.00
03027            -260.00    -1680.00
03028            -260.00    -1680.00
03029            -280.00    -1760.00
03030            -280.00    -1760.00
03031            -280.00    -1840.00
03032            -280.00    -1920.00
03033            -300.00    -1920.00
03034            -320.00    -2000.00
03035            -300.00    -2000.00
03036            -340.00    -2080.00
03037            -340.00    -2080.00
03038            -360.00    -2240.00
03039            -360.00    -2240.00
03040            -360.00    -2320.00
03041            -380.00    -2320.00
03042            -380.00    -2400.00
03043            -380.00    -2400.00
03044            -420.00    -2400.00
03045            -420.00    -2480.00
03046            -420.00    -2560.00
03047            -420.00    -2560.00
03048            -440.00    -2640.00
03049            -440.00    -2640.00
03050            -440.00    -2720.00
03051            -460.00    -2720.00
03052            -460.00    -2800.00
03053            -460.00    -2880.00
03054            -480.00    -2880.00
03055            -500.00    -2960.00
03056            -500.00    -2960.00
03057            -500.00    -2960.00
03058            -500.00    -3040.00
03059            -540.00    -3120.00
03060            -520.00    -3200.00
03061            -520.00    -3200.00
03062            -540.00    -3280.00
03063            -540.00    -3280.00
03064            -580.00    -3280.00
03065            -540.00    -3440.00
03066            -580.00    -3360.00
03067            -580.00    -3360.00
03068            -600.00    -3520.00
03069            -600.00    -3520.00
03070            -600.00    -3600.00
03071            -600.00    -3680.00
03072            -600.00    -3680.00
03073            -620.00    -3680.00
03074            -620.00    -3680.00
03075            -620.00    -3840.00
03076            -640.00    -3840.00
03077            -660.00    -3920.00
03078            -660.00    -3920.00
03079            -660.00    -3920.00
03080            -680.00    -3920.00
03081            -680.00    -4000.00
03082            -700.00    -4000.00
03083            -680.00    -4160.00
03084            -700.00    -4240.00
03085            -700.00    -4160.00
03086            -700.00    -4160.00
03087            -720.00    -4240.00
03088            -740.00    -4320.00
03089            -740.00    -4320.00
03090            -740.00    -4400.00
03091            -760.00    -4400.00
03092            -760.00    -4480.00
03093            -760.00    -4480.00
03094            -780.00    -4560.00
03095            -820.00    -4560.00
03096            -800.00    -4560.00
03097            -820.00    -4640.00
03098            -820.00    -4640.00
03099            -820.00    -4720.00
03100            -820.00    -4720.00
03101            -840.00    -4800.00
03102            -840.00    -4800.00
03103            -840.00    -4880.00
03104            -860.00    -4960.00
03105            -860.00    -4960.00
03106            -860.00    -4960.00
03107            -880.00    -4960.00
03108            -860.00    -5120.00
03109            -900.00    -5120.00
03110            -880.00    -5120.00
03111            -900.00    -5120.00
03112            -900.00    -5200.00
03113            -920.00    -5200.00
03114            -920.00    -5280.00
03115            -920.00    -5280.00
03116            -920.00    -5280.00
03117            -920.00    -5360.00
03118            -920.00    -5440.00
03119            -940.00    -5440.00
03120            -940.00    -5440.00
03121            -940.00    -5520.00
03122            -960.00    -5520.00
03123            -940.00    -5600.00
03124            -980.00    -5520.00
03125            -960.00    -5600.00
03126            -980.00    -5600.00
03127           -1000.00    -5600.00
03128           -1000.00    -5680.00
03129           -1000.00    -5760.00
03130           -1000.00    -5760.00
03131           -1020.00    -5840.00
03132           -1000.00    -5840.00
03133           -1020.00    -5840.00
03134           -1020.00    -5840.00
03135           -1020.00    -5920.00
03136           -1020.00    -6000.00
03137           -1040.00    -5920.00
03138           -1040.00    -6000.00
03139           -1060.00    -6080.00
03140           -1060.00    -6080.00
03141           -1060.00    -6080.00
03142           -1080.00    -6160.00
03143           -1060.00    -6160.00
03144           -1080.00    -6160.00
03145           -1080.00    -6240.00
03146           -1100.00    -6240.00
03147           -1100.00    -6240.00
03148           -1100.00    -6320.00
03149           -1100.00    -6240.00
03150           -1100.00    -6400.00
03151           -1100.00    -6400.00
03152           -1100.00    -6400.00
03153           -1120.00    -6480.00
03154           -1140.00    -6480.00
03155           -1140.00    -6480.00
03156           -1140.00    -6480.00
03157           -1140.00    -6560.00
03158           -1140.00    -6480.00
03159           -1160.00    -6560.00
03160           -1160.00    -6560.00
03161           -1160.00    -6560.00
03162           -1180.00    -6640.00
03163           -1180.00    -6640.00
03164           -1180.00    -6720.00
03165           -1180.00    -6720.00
03166           -1180.00    -6720.00
03167           -1200.00    -6800.00
03168           -1180.00    -6800.00
03169           -1200.00    -6800.00
03170           -1220.00    -6800.00
03171           -1220.00    -6800.00
03172           -1220.00    -6880.00
03173           -1220.00    -6880.00
03174           -1240.00    -6880.00
03175           -1240.00    -6880.00
03176           -1240.00    -6880.00
03177           -1240.00    -6880.00
03178           -1240.00    -6960.00
03179           -1240.00    -6960.00
03180           -1260.00    -7040.00
03181           -1260.00    -6960.00
03182           -1260.00    -7040.00
03183           -1260.00    -6960.00
03184           -1260.00    -7120.00
03185           -1260.00    -7120.00
03186           -1260.00    -7120.00
03187           -1260.00    -7120.00
03188           -1280.00    -7120.00
03189           -1300.00    -7040.00
03190           -1300.00    -7280.00
03191           -1260.00    -7200.00
03192           -1300.00    -7120.00
03193           -1300.00    -7200.00
03194           -1280.00    -7200.00
03195           -1300.00    -7200.00
03196           -1300.00    -7200.00
03197           -1300.00    -7280.00
03198           -1300.00    -7360.00
03199           -1320.00    -7280.00
03200           -1300.00    -7280.00
03201           -1300.00    -7360.00
03202           -1300.00    -7360.00
03203           -1320.00    -7360.00
03204           -1320.00    -7360.00
03205           -1320.00    -7440.00
03206           -1340.00    -7360.00
03207           -1320.00    -7440.00
03208           -1320.00    -7360.00
03209           -1320.00    -7440.00
03210           -1340.00    -7440.00
03211           -1340.00    -7440.00
03212           -1340.00    -7440.00
03213           -1320.00    -7440.00
03214           -1340.00    -7440.00
03215           -1340.00    -7520.00
03216           -1340.00    -7520.00
03217           -1340.00    -7520.00
03218           -1340.00    -7520.00
03219           -1340.00    -7520.00
03220           -1340.00    -7520.00
03221           -1340.00    -7520.00
03222           -1340.00    -7520.00
03223           -1340.00    -7520.00
03224           -1360.00    -7520.00
03225           -1340.00    -7520.00
03226           -1360.00    -7520.00
03227           -1340.00    -7520.00
03228           -1380.00    -7520.00
03229           -1340.00    -7600.00
03230           -1340.00    -7600.00
03231           -1380.00    -7520.00
03232           -1340.00    -7520.00
03233           -1360.00    -7520.00
03234           -1380.00    -7520.00
03235           -1380.00    -7520.00
03236           -1380.00    -7520.00
03237           -1360.00    -7520.00
03238           -1380.00    -7520.00
03239           -1360.00    -7600.00
03240           -1380.00    -7600.00
03241           -1360.00    -7600.00
03242           -1380.00    -7520.00
03243           -1380.00    -7520.00
03244           -1380.00    -7520.00
03245           -1380.00    -7520.00
03246           -1380.00    -7600.00
03247           -1380.00    -7680.00
03248           -1380.00    -7520.00
03249           -1380.00    -7600.00
03250           -1380.00    -7600.00
03251           -1380.00    -7520.00
03252           -1380.00    -7520.00
03253           -1360.00    -7520.00
03254           -1380.00    -7520.00
03255           -1340.00    -7520.00
03256           -1380.00    -7520.00
03257           -1380.00    -7520.00
03258           -1380.00    -7520.00
03259           -1360.00    -7520.00
03260           -1360.00    -7600.00
03261           -1380.00    -7520.00
03262           -1380.00    -7520.00
03263           -1340.00    -7520.00
03264           -1380.00    -7520.00
03265           -1340.00    -7520.00
03266           -1340.00    -7520.00
03267           -1360.00    -7520.00
03268           -1380.00    -7520.00
03269           -1340.00    -7440.00
03270           -1360.00    -7520.00
03271           -1340.00    -7520.00
03272           -1360.00    -7440.00
03273           -1340.00    -7440.00
03274           -1340.00    -7440.00
03275           -1340.00    -7440.00
03276           -1340.00    -7360.00
03277           -1340.00    -7440.00
03278           -1340.00    -7360.00
03279           -1340.00    -7360.00
03280           -1340.00    -7360.00
03281           -1340.00    -7360.00
03282           -1340.00    -7360.00
03283           -1340.00    -7360.00
03284           -1340.00    -7360.00
03285           -1320.00    -7360.00
03286           -1340.00    -7280.00
03287           -1340.00    -7280.00
03288           -1320.00    -7280.00
03289           -1340.00    -7200.00
03290           -1340.00    -7200.00
03291           -1340.00    -7200.00
03292           -1320.00    -7200.00
03293           -1320.00    -7200.00
03294           -1320.00    -7200.00
03295           -1320.00    -7200.00
03296           -1340.00    -7200.00
03297           -1300.00    -7200.00
03298           -1320.00    -7120.00
03299           -1320.00    -7120.00
03300           -1320.00    -6960.00
03301           -1320.00    -7120.00
03302           -1320.00    -7040.00
03303           -1300.00    -7040.00
03304           -1300.00    -7040.00
03305           -1300.00    -6960.00
03306           -1300.00    -7040.00
03307           -1300.00    -6960.00
03308           -1280.00    -6960.00
03309           -1280.00    -6960.00
03310           -1260.00    -6880.00
03311           -1280.00    -6880.00
03312           -1260.00    -6880.00
03313           -1260.00    -6880.00
03314           -1260.00    -6880.00
03315           -1260.00    -6800.00
03316           -1260.00    -6800.00
03317           -1260.00    -6800.00
03318           -1260.00    -6800.00
03319           -1240.00    -6800.00
03320           -1240.00    -6720.00
03321           -1260.00    -6720.00
03322           -1240.00    -6720.00
03323           -1240.00    -6640.00
03324           -1240.00    -6640.00
03325           -1220.00    -6560.00
03326           -1240.00    -6560.00
03327           -1220.00    -6560.00
03328           -1220.00    -6480.00
03329           -1220.00    -6560.00
03330           -1180.00    -6480.00
03331           -1180.00    -6480.00
03332           -1180.00    -6400.00
03333           -1180.00    -6480.00
03334           -1180.00    -6480.00
03335           -1180.00    -6400.00
03336           -1180.00    -6320.00
03337           -1160.00    -6240.00
03338           -1180.00    -6240.00
03339           -1160.00    -6320.00
03340           -1160.00    -6240.00
03341           -1160.00    -6240.00
03342           -1140.00    -6160.00
03343           -1140.00    -6160.00
03344           -1140.00    -6160.00
03345           -1160.00    -6080.00
03346           -1140.00    -6080.00
03347           -1140.00    -6080.00
03348           -1100.00    -6000.00
03349           -1100.00    -6000.00
03350           -1100.00    -5920.00
03351           -1100.00    -5920.00
03352           -1100.00    -5920.00
03353           -1100.00    -5920.00
03354           -1100.00    -5840.00
03355           -1100.00    -5840.00
03356           -1100.00    -5760.00
03357           -1080.00    -5840.00
03358           -1080.00    -5680.00
03359           -1080.00    -5760.00
03360           -1080.00    -5680.00
03361           -1080.00    -5600.00
03362           -1080.00    -5600.00
03363           -1060.00    -5520.00
03364           -1060.00    -5520.00
03365           -1040.00    -5520.00
03366           -1040.00    -5520.00
03367           -1020.00    -5440.00
03368           -1020.00    -5360.00
03369           -1020.00    -5440.00
03370           -1020.00    -5280.00
03371           -1020.00    -5280.00
03372           -1020.00    -5280.00
03373           -1000.00    -5200.00
03374           -1000.00    -5200.00
03375            -980.00    -5200.00
03376           -1000.00    -5120.00
03377            -980.00    -5120.00
03378            -980.00    -5120.00
03379            -980.00    -4960.00
03380            -980.00    -5040.00
03381            -940.00    -4960.00
03382            -940.00    -4960.00
03383            -940.00    -4880.00
03384            -920.00    -4880.00
03385            -920.00    -4800.00
03386            -920.00    -4800.00
03387            -920.00    -4800.00
03388            -920.00    -4720.00
03389            -920.00    -4720.00
03390            -900.00    -4720.00
03391            -900.00    -4640.00
03392            -880.00    -4560.00
03393            -880.00    -4560.00
03394            -860.00    -4480.00
03395            -860.00    -4400.00
03396            -860.00    -4400.00
03397            -840.00    -4320.00
03398            -840.00    -4320.00
03399            -840.00    -4320.00
03400            -840.00    -4320.00
03401            -820.00    -4240.00
03402            -820.00    -4160.00
03403            -780.00    -4160.00
03404            -780.00    -4080.00
03405            -780.00    -4080.00
03406            -780.00    -4000.00
03407            -780.00    -4000.00
03408            -760.00    -4000.00
03409            -760.00    -3920.00
03410            -760.00    -3840.00
03411            -760.00    -3840.00
03412            -740.00    -3840.00
03413            -740.00    -3680.00
03414            -740.00    -3680.00
03415            -700.00    -3680.00
03416            -700.00    -3600.00
03417            -700.00    -3600.00
03418            -700.00    -3520.00
03419            -700.00    -3520.00
03420            -680.00    -3520.00
03421            -700.00    -3360.00
03422            -680.00    -3360.00
03423            -680.00    -3360.00
03424            -660.00    -3280.00
03425            -660.00    -3280.00
03426            -660.00    -3200.00
03427            -660.00    -3200.00
03428            -620.00    -3200.00
03429            -620.00    -3120.00
03430            -620.00    -3040.00
03431            -600.00    -2960.00
03432            -600.00    -2960.00
03433            -600.00    -2960.00
03434            -600.00    -2880.00
03435            -580.00    -2880.00
03436            -580.00    -2800.00
03437            -580.00    -2720.00
03438            -540.00    -2720.00
03439            -540.00    -2640.00
03440            -540.00    -2640.00
03441            -540.00    -2560.00
03442            -520.00    -2560.00
03443            -520.00    -2560.00
03444            -520.00    -2400.00
03445            -520.00    -2400.00
03446            -500.00    -2400.00
03447            -480.00    -2320.00
03448            -460.00    -2320.00
03449            -440.00    -2240.00
03450            -460.00    -2080.00
03451            -440.00    -2080.00
03452            -440.00    -2080.00
03453            -420.00    -2000.00
03454            -420.00    -2000.00
03455            -420.00    -2000.00
03456            -420.00    -1920.00
03457            -400.00    -1840.00
03458            -420.00    -1760.00
03459            -380.00    -1760.00
03460            -380.00    -1760.00
03461            -380.00    -1680.00
03462            -360.00    -1600.00
03463            -360.00    -1600.00
03464            -340.00    -1520.00
03465            -340.00    -1440.00
03466            -340.00    -1440.00
03467            -320.00    -1440.00
03468            -300.00    -1440.00
03469            -300.00    -1280.00
03470            -300.00    -1280.00
03471            -300.00    -1280.00
03472            -280.00    -1200.00
03473            -280.00    -1120.00
03474            -260.00    -1040.00
03475            -260.00    -1040.00
03476            -240.00    -1040.00
03477            -220.00     -960.00
03478            -220.00     -960.00
03479            -220.00     -800.00
03480            -220.00     -800.00
03481            -200.00     -800.00
03482            -200.00     -720.00
03483            -200.00     -720.00
03484            -200.00     -640.00
03485            -200.00     -640.00
03486            -180.00     -560.00
03487            -180.00     -400.00
03488            -160.00     -480.00
03489            -140.00     -400.00
03490            -120.00     -320.00
03491            -120.00     -320.00
03492            -120.00     -240.00
03493            -120.00     -160.00
03494            -100.00     -160.00
03495            -120.00     -160.00
03496             -60.00      -80.00
03497             -80.00        0.00
03498             -60.00        0.00
03499             -60.00       80.00
03500             -60.00       80.00
03501             -40.00      160.00
03502             -40.00      160.00
03503             -20.00      240.00
03504             -20.00      240.00
03505             -40.00      320.00
03506               0.00      320.00
03507              20.00      400.00
03508              20.00      480.00
03509              40.00      560.00
03510              60.00      720.00
03511              40.00      640.00
03512             -20.00      560.00
03513              40.00      800.00
03514             120.00      960.00
03515             100.00      800.00
03516              40.00      800.00
03517             120.00      960.00
03518             140.00     1120.00
03519              60.00      880.00
03520             100.00     1120.00
03521             180.00     1200.00
03522             120.00     1120.00
03523             120.00     1120.00
03524             180.00     1280.00
03525             160.00     1280.00
03526             160.00     1280.00
03527             200.00     1440.00
03528             200.00     1440.00
03529             180.00     1440.00
03530             220.00     1600.00
03531             220.00     1520.00
03532             200.00     1600.00
03533             260.00     1680.00
03534             260.00     1680.00
03535             220.00     1760.00
03536             280.00     1840.00
03537             260.00     1840.00
03538             260.00     1840.00
03539             280.00     1920.00
03540             280.00     1920.00
03541             300.00     2000.00
03542             300.00     2080.00
03543             300.00     2160.00
03544             300.00     2240.00
03545             340.00     2240.00
03546             340.00     2240.00
03547             360.00     2320.00
03548             360.00     2400.00
03549             360.00     2400.00
03550             360.00     2480.00
03551             380.00     2480.00
03552             400.00     2560.00
03553             380.00     2560.00
03554             380.00     2640.00
03555             380.00     2640.00
03556             420.00     2720.00
03557             420.00     2800.00
03558             440.00     2800.00
03559             440.00     2880.00
03560             440.00     2880.00
03561             460.00     2960.00
03562             440.00     3040.00
03563             480.00     3040.00
03564             460.00     3120.00
03565             500.00     3120.00
03566             500.00     3200.00
03567             520.00     3280.00
03568             500.00     3280.00
03569             520.00     3280.00
03570             520.00     3360.00
03571             520.00     3360.00
03572             540.00     3440.00
03573             520.00     3520.00
03574             540.00     3440.00
03575             580.00     3520.00
03576             580.00     3600.00
03577             580.00     3680.00
03578             580.00     3680.00
03579             580.00     3680.00
03580             600.00     3760.00
03581             600.00     3760.00
03582             620.00     3840.00
03583             620.00     3840.00
03584             660.00     3920.00
03585             660.00     4000.00
03586             660.00     4000.00
03587             660.00     4000.00
03588             680.00     4080.00
03589             680.00     4160.00
03590             680.00     4160.00
03591             680.00     4240.00
03592             700.00     4160.00
03593             700.00     4320.00
03594             720.00     4320.00
03595             700.00     4320.00
03596             740.00     4400.00
03597             740.00     4400.00
03598             740.00     4480.00
03599             740.00     4480.00
03600             760.00     4560.00
03601             760.00     4640.00
03602             760.00     4720.00
03603             780.00     4640.00
03604             800.00     4800.00
03605             780.00     4800.00
03606             820.00     4800.00
03607             820.00     4800.00
03608             820.00     4800.00
03609             820.00     4960.00
03610             840.00     4960.00
03611             840.00     4960.00
03612             840.00     4960.00
03613             860.00     5040.00
03614             840.00     5120.00
03615             840.00     5120.00
03616             860.00     5120.00
03617             860.00     5200.00
03618             900.00     5200.00
03619             860.00     5200.00
03620             900.00     5360.00
03621             900.00     5280.00
03622             900.00     5360.00
03623             900.00     5360.00
03624             900.00     5360.00
03625             900.00     5440.00
03626             920.00     5520.00
03627             940.00     5440.00
03628             920.00     5600.00
03629             940.00     5600.00
03630             940.00     5600.00
03631             980.00     5680.00
03632             980.00     5680.00
03633             980.00     5680.00
03634             980.00     5840.00
03635             980.00     5840.00
03636             980.00     5840.00
03637            1000.00     5840.00
03638            1000.00     5920.00
03639            1000.00     5920.00
03640            1000.00     5920.00
03641            1000.00     6000.00
03642            1020.00     6000.00
03643            1020.00     6000.00
03644            1040.00     6080.00
03645            1040.00     6080.00
03646            1060.00     6080.00
03647            1060.00     6080.00
03648            1060.00     6240.00
03649            1060.00     6240.00
03650            1080.00     6240.00
03651            1060.00     6240.00
03652            1080.00     6240.00
03653            1080.00     6320.00
03654            1080.00     6320.00
03655            1100.00     6400.00
03656            1100.00     6400.00
03657            1100.00     6400.00
03658            1100.00     6400.00
03659            1120.00     6480.00
03660            1140.00     6480.00
03661            1140.00     6560.00
03662            1140.00     6480.00
03663            1140.00     6560.00
03664            1160.00     6560.00
03665            1140.00     6640.00
03666            1160.00     6560.00
03667            1160.00     6640.00
03668            1160.00     6720.00
03669            1160.00     6640.00
03670            1160.00     6720.00
03671            1180.00     6720.00
03672            1180.00     6720.00
03673            1180.00     6800.00
03674            1180.00     6800.00
03675            1220.00     6880.00
03676            1200.00     6800.00
03677            1180.00     6880.00
03678            1220.00     6880.00
03679            1220.00     6960.00
03680            1220.00     6960.00
03681            1220.00     6960.00
03682            1220.00     6960.00
03683            1220.00     6960.00
03684            1220.00     6960.00
03685            1220.00     7040.00
03686            1220.00     7040.00
03687            1220.00     7040.00
03688            1240.00     7040.00
03689            1240.00     7040.00
03690            1240.00     7120.00
03691            1240.00     7120.00
03692            1240.00     7200.00
03693            1240.00     7200.00
03694            1260.00     7200.00
03695            1260.00     7200.00
03696            1260.00     7200.00
03697            1260.00     7360.00
03698            1280.00     7200.00
03699            1260.00     7280.00
03700            1260.00     7280.00
03701            1280.00     7280.00
03702            1280.00     7280.00
03703            1300.00     7360.00
03704            1280.00     7360.00
03705            1300.00     7440.00
03706            1300.00     7360.00
03707            1300.00     7360.00
03708            1300.00     7360.00
03709            1300.00     7440.00
03710            1300.00     7440.00
03711            1320.00     7520.00
03712            1300.00     7440.00
03713            1320.00     7360.00
03714            1320.00     7520.00
03715            1320.00     7520.00
03716            1320.00     7520.00
03717            1320.00     7520.00
03718            1320.00     7520.00
03719            1340.00     7520.00
03720            1320.00     7520.00
03721            1320.00     7520.00
03722            1320.00     7520.00
03723            1340.00     7600.00
03724            1340.00     7600.00
03725            1320.00     7600.00
03726            1340.00     7600.00
03727            1340.00     7600.00
03728            1340.00     7600.00
03729            1340.00     7600.00
03730            1340.00     7600.00
03731            1340.00     7680.00
03732            1340.00     7600.00
03733            1340.00     7600.00
03734            1340.00     7600.00
03735            1340.00     7600.00
03736            1380.00     7680.00
03737            1340.00     7680.00
03738            1380.00     7680.00
03739            1360.00     7680.00
03740            1380.00     7680.00
03741            1380.00     7600.00
03742            1360.00     7680.00
03743            1340.00     7680.00
03744            1380.00     7680.00
03745            1380.00     7680.00
03746            1380.00     7680.00
03747            1340.00     7680.00
03748            1360.00     7680.00
03749            1360.00     7680.00
03750            1340.00     7680.00
03751            1380.00     7600.00
03752            1340.00     7680.00
03753            1360.00     7680.00
03754            1380.00     7680.00
03755            1360.00     7680.00
03756            1380.00     7680.00
03757            1360.00     7680.00
03758            1340.00     7600.00
03759            1340.00     7680.00
03760            1340.00     7680.00
03761            1340.00     7680.00
03762            1360.00     7600.00
03763            1380.00     7680.00
03764            1340.00     7680.00
03765            1340.00     7600.00
03766            1360.00     7680.00
03767            1340.00     7680.00
03768            1340.00     7600.00
03769            1360.00     7600.00
03770            1360.00     7600.00
03771            1340.00     7600.00
03772            1360.00     7600.00
03773            1340.00     7680.00
03774            1380.00     7600.00
03775            1340.00     7600.00
03776            1380.00     7600.00
03777            1360.00     7600.00
03778            1340.00     7520.00
03779            1340.00     7520.00
03780            1340.00     7520.00
03781            1340.00     7520.00
03782            1340.00     7520.00
03783            1340.00     7520.00
03784            1360.00     7520.00
03785            1340.00     7520.00
03786            1340.00     7520.00
03787            1340.00     7520.00
03788            1340.00     7520.00
03789            1340.00     7440.00
03790            1340.00     7440.00
03791            1320.00     7360.00
03792            1340.00     7440.00
03793            1320.00     7440.00
03794            1320.00     7360.00
03795            1320.00     7360.00
03796            1320.00     7360.00
03797            1320.00     7360.00
03798            1320.00     7360.00
03799            1320.00     7360.00
03800            1320.00     7360.00
03801            1320.00     7360.00
03802            1320.00     7280.00
03803            1320.00     7280.00
03804            1320.00     7200.00
03805            1320.00     7280.00
03806            1320.00     7200.00
03807            1320.00     7200.00
03808            1300.00     7200.00
03809            1300.00     7200.00
03810            1300.00     7120.00
03811            1300.00     7040.00
03812            1300.00     7200.00
03813            1300.00     7040.00
03814            1280.00     7120.00
03815            1260.00     7040.00
03816            1300.00     7040.00
03817            1280.00     7040.00
03818            1260.00     6960.00
03819            1260.00     6960.00
03820            1260.00     6960.00
03821            1260.00     6960.00
03822            1260.00     6960.00
03823            1260.00     6880.00
03824            1240.00     6960.00
03825            1240.00     6880.00
03826            1240.00     6880.00
03827            1240.00     6880.00
03828            1240.00     6800.00
03829            1220.00     6880.00
03830            1220.00     6800.00
03831            1220.00     6720.00
03832            1220.00     6720.00
03833            1220.00     6720.00
03834            1220.00     6640.00
03835            1220.00     6640.00
03836            1220.00     6640.00
03837            1220.00     6560.00
03838            1200.00     6560.00
03839            1200.00     6560.00
03840            1180.00     6560.00
03841            1180.00     6560.00
03842            1180.00     6480.00
03843            1180.00     6560.00
03844            1180.00     6400.00
03845            1180.00     6480.00
03846            1160.00     6400.00
03847            1160.00     6320.00
03848            1160.00     6400.00
03849            1160.00     6320.00
03850            1160.00     6320.00
03851            1160.00     6320.00
03852            1140.00     6320.00
03853            1140.00     6240.00
03854            1160.00     6160.00
03855            1140.00     6160.00
03856            1120.00     6080.00
03857            1140.00     6080.00
03858            1120.00     6080.00
03859            1100.00     6080.00
03860            1100.00     6000.00
03861            1120.00     6000.00
03862            1100.00     5920.00
03863            1080.00     5920.00
03864            1080.00     5920.00
03865            1080.00     5920.00
03866            1080.00     5760.00
03867            1080.00     5840.00
03868            1060.00     5760.00
03869            1060.00     5680.00
03870            1060.00     5680.00
03871            1060.00     5680.00
03872            1060.00     5680.00
03873            1020.00     5680.00
03874            1060.00     5600.00
03875            1020.00     5600.00
03876            1000.00     5520.00
03877            1020.00     5440.00
03878            1000.00     5360.00
03879            1000.00     5440.00
03880             980.00     5360.00
03881            1000.00     5360.00
03882             980.00     5280.00
03883             980.00     5280.00
03884             980.00     5200.00
03885             940.00     5280.00
03886             960.00     5120.00
03887             940.00     5120.00
03888             940.00     5120.00
03889             920.00     5040.00
03890             920.00     5040.00
03891             940.00     4960.00
03892             920.00     4960.00
03893             920.00     4960.00
03894             900.00     4880.00
03895             900.00     4800.00
03896             900.00     4800.00
03897             860.00     4720.00
03898             880.00     4720.00
03899             860.00     4640.00
03900             860.00     4640.00
03901             860.00     4640.00
03902             860.00     4560.00
03903             840.00     4560.00
03904             840.00     4480.00
03905             840.00     4480.00
03906             840.00     4400.00
03907             820.00     4400.00
03908             840.00     4400.00
03909             820.00     4320.00
03910             800.00     4240.00
03911             800.00     4240.00
03912             820.00     4160.00
03913             780.00     4160.00
03914             760.00     4080.00
03915             760.00     4080.00
03916             780.00     4000.00
03917             760.00     4000.00
03918             760.00     4000.00
03919             740.00     3920.00
03920             760.00     3920.00
03921             740.00     3840.00
03922             740.00     3840.00
03923             740.00     3680.00
03924             700.00     3760.00
03925             720.00     3680.00
03926             700.00     3680.00
03927             700.00     3680.00
03928             680.00     3520.00
03929             680.00     3520.00
03930             680.00     3440.00
03931             660.00     3440.00
03932             660.00     3360.00
03933             660.00     3360.00
03934             640.00     3280.00
03935             620.00     3280.00
03936             620.00     3280.00
03937             600.00     3200.00
03938             600.00     3120.00
03939             600.00     3120.00
03940             580.00     3040.00
03941             600.00     3040.00
03942             580.00     2960.00
03943             580.00     2880.00
03944             580.00     2880.00
03945             560.00     2880.00
03946             540.00     2800.00
03947             540.00     2720.00
03948             520.00     2720.00
03949             520.00     2720.00
03950             500.00     2640.00
03951             500.00     2560.00
03952             500.00     2560.00
03953             500.00     2480.00
03954             480.00     2480.00
03955             460.00     2400.00
03956             460.00     2320.00
03957             440.00     2240.00
03958             460.00     2400.00
03959             420.00     2240.00
03960             440.00     2240.00
03961             420.00     2160.00
03962             420.00     2080.00
03963             420.00     2080.00
03964             420.00     2000.00
03965             380.00     1920.00
03966             380.00     1920.00
03967             380.00     1840.00
03968             360.00     1840.00
03969             360.00     1760.00
03970             340.00     1760.00
03971             360.00     1680.00
03972             340.00     1600.00
03973             340.00     1520.00
03974             340.00     1520.00
03975             300.00     1440.00
03976             300.00     1440.00
03977             300.00     1440.00
03978             280.00     1360.00
03979             280.00     1360.00
03980             280.00     1280.00
03981             260.00     1200.00
03982             260.00     1200.00
03983             260.00     1120.00
03984             260.00     1120.00
03985             240.00     1040.00
03986             260.00      960.00
03987             220.00      880.00
03988             220.00      880.00
03989             200.00      800.00
03990             200.00      800.00
03991             200.00      720.00
03992             180.00      800.00
03993             180.00      640.00
03994             180.00      640.00
03995             160.00      560.00
03996             140.00      560.00
03997             140.00      480.00
03998             120.00      480.00
03999             120.00      400.00
04000             120.00      320.00
04001             100.00      240.00
04002             100.00      240.00
04003             100.00      160.00
04004              60.00      160.00
04005              60.00      160.00
04006              60.00        0.00
04007              40.00        0.00
04008              40.00        0.00
04009              20.00      -80.00
04010              20.00      -80.00
04011              20.00      -80.00
04012              20.00     -160.00
04013              20.00     -240.00
04014             -20.00     -320.00
04015               0.00     -320.00
04016             -40.00     -400.00
04017             -20.00     -400.00
04018             -20.00     -480.00
04019             -40.00     -560.00
04020             -80.00     -720.00
04021            -120.00     -800.00
04022            -100.00     -640.00
04023             -40.00     -640.00
04024            -100.00     -880.00
04025            -140.00     -960.00
04026            -100.00     -800.00
04027            -100.00     -960.00
04028            -180.00    -1040.00
04029            -140.00     -960.00
04030            -120.00     -960.00
04031            -180.00    -1200.00
04032            -200.00    -1120.00
04033            -140.00    -1120.00
04034            -200.00    -1280.00
04035            -200.00    -1280.00
04036            -180.00    -1280.00
04037            -220.00    -1440.00
04038            -220.00    -1440.00
04039            -220.00    -1440.00
04040            -220.00    -1520.00
04041            -260.00    -1600.00
04042            -220.00    -1600.00
04043            -260.00    -1760.00
04044            -260.00    -1680.00
04045            -260.00    -1760.00
04046            -260.00    -1760.00
04047            -280.00    -1920.00
04048            -280.00    -1840.00
04049            -300.00    -1920.00
04050            -300.00    -2000.00
04051            -300.00    -2000.00
04052            -320.00    -2080.00
04053            -340.00    -2160.00
04054            -340.00    -2240.00
04055            -360.00    -2240.00
04056            -360.00    -2320.00
04057            -360.00    -2240.00
04058            -360.00    -2400.00
04059            -380.00    -2400.00
04060            -380.00    -2480.00
04061            -400.00    -2560.00
04062            -400.00    -2560.00
04063            -420.00    -2560.00
04064            -420.00    -2640.00
04065            -440.00    -2720.00
04066            -440.00    -2720.00
04067            -440.00    -2720.00
04068            -460.00    -2800.00
04069            -460.00    -2800.00
04070            -460.00    -2880.00
04071            -460.00    -2960.00
04072            -500.00    -2960.00
04073            -500.00    -2960.00
04074            -500.00    -3040.00
04075            -520.00    -3120.00
04076            -520.00    -3200.00
04077            -540.00    -3200.00
04078            -520.00    -3280.00
04079            -540.00    -3280.00
04080            -560.00    -3360.00
04081            -580.00    -3360.00
04082            -580.00    -3360.00
04083            -600.00    -3440.00
04084            -600.00    -3520.00
04085            -600.00    -3520.00
04086            -600.00    -3600.00
04087            -620.00    -3600.00
04088            -620.00    -3680.00
04089            -620.00    -3680.00
04090            -620.00    -3760.00
04091            -660.00    -3760.00
04092            -660.00    -3840.00
04093            -660.00    -3840.00
04094            -660.00    -3920.00
04095            -660.00    -3920.00
04096            -680.00    -4000.00
04097            -700.00    -4000.00
04098            -700.00    -4080.00
04099            -700.00    -4160.00
04100            -700.00    -4160.00
04101            -700.00    -4160.00
04102            -740.00    -4240.00
04103            -720.00    -4240.00
04104            -740.00    -4320.00
04105            -740.00    -4320.00
04106            -760.00    -4400.00
04107            -760.00    -4480.00
04108            -760.00    -4400.00
04109            -780.00    -4400.00
04110            -760.00    -4560.00
04111            -800.00    -4480.00
04112            -780.00    -4640.00
04113            -780.00    -4640.00
04114            -820.00    -4640.00
04115            -820.00    -4640.00
04116            -820.00    -4800.00
04117            -820.00    -4800.00
04118            -820.00    -4800.00
04119            -840.00    -4880.00
04120            -840.00    -4880.00
04121            -840.00    -4960.00
04122            -860.00    -4960.00
04123            -860.00    -5040.00
04124            -860.00    -5120.00
04125            -860.00    -5120.00
04126            -900.00    -5200.00
04127            -900.00    -5200.00
04128            -900.00    -5200.00
04129            -920.00    -5280.00
04130            -920.00    -5280.00
04131            -920.00    -5280.00
04132            -920.00    -5280.00
04133            -920.00    -5360.00
04134            -920.00    -5440.00
04135            -940.00    -5440.00
04136            -940.00    -5440.00
04137            -940.00    -5520.00
04138            -960.00    -5520.00
04139            -980.00    -5600.00
04140            -980.00    -5600.00
04141           -1000.00    -5680.00
04142            -980.00    -5600.00
04143           -1000.00    -5680.00
04144            -980.00    -5760.00
04145           -1000.00    -5760.00
04146           -1000.00    -5760.00
04147           -1020.00    -5840.00
04148           -1020.00    -5840.00
04149           -1020.00    -5920.00
04150           -1040.00    -5840.00
04151           -1040.00    -5920.00
04152           -1060.00    -5920.00
04153           -1040.00    -5920.00
04154           -1060.00    -6000.00
04155           -1060.00    -6080.00
04156           -1080.00    -6080.00
04157           -1080.00    -6080.00
04158           -1080.00    -6160.00
04159           -1080.00    -6160.00
04160           -1100.00    -6160.00
04161           -1080.00    -6160.00
04162           -1100.00    -6240.00
04163           -1100.00    -6240.00
04164           -1100.00    -6240.00
04165           -1100.00    -6400.00
04166           -1100.00    -6400.00
04167           -1100.00    -6400.00
04168           -1100.00    -6400.00
04169           -1120.00    -6480.00
04170           -1140.00    -6480.00
04171           -1140.00    -6560.00
04172           -1140.00    -6480.00
04173           -1140.00    -6560.00
04174           -1160.00    -6560.00
04175           -1160.00    -6560.00
04176           -1160.00    -6560.00
04177           -1160.00    -6640.00
04178           -1160.00    -6640.00
04179           -1160.00    -6720.00
04180           -1180.00    -6720.00
04181           -1180.00    -6720.00
04182           -1180.00    -6720.00
04183           -1180.00    -6720.00
04184           -1180.00    -6720.00
04185           -1200.00    -6800.00
04186           -1180.00    -6800.00
04187           -1220.00    -6800.00
04188           -1200.00    -6800.00
04189           -1220.00    -6880.00
04190           -1220.00    -6880.00
04191           -1240.00    -6880.00
04192           -1220.00    -6880.00
04193           -1240.00    -6960.00
04194           -1220.00    -6880.00
04195           -1240.00    -6960.00
04196           -1240.00    -6960.00
04197           -1240.00    -7040.00
04198           -1240.00    -7040.00
04199           -1240.00    -6960.00
04200           -1260.00    -7120.00
04201           -1260.00    -7120.00
04202           -1240.00    -7120.00
04203           -1260.00    -7120.00
04204           -1260.00    -7120.00
04205           -1300.00    -7120.00
04206           -1260.00    -7200.00
04207           -1300.00    -7200.00
04208           -1300.00    -7200.00
04209           -1280.00    -7200.00
04210           -1300.00    -7280.00
04211           -1300.00    -7200.00
04212           -1300.00    -7280.00
04213           -1300.00    -7280.00
04214           -1320.00    -7280.00
04215           -1320.00    -7360.00
04216           -1320.00    -7360.00
04217           -1320.00    -7360.00
04218           -1320.00    -7360.00
04219           -1320.00    -7360.00
04220           -1320.00    -7360.00
04221           -1320.00    -7360.00
04222           -1320.00    -7440.00
04223           -1340.00    -7360.00
04224           -1320.00    -7440.00
04225           -1340.00    -7440.00
04226           -1340.00    -7440.00
04227           -1340.00    -7440.00
04228           -1340.00    -7440.00
04229           -1340.00    -7440.00
04230           -1340.00    -7520.00
04231           -1340.00    -7440.00
04232           -1340.00    -7520.00
04233           -1340.00    -7520.00
04234           -1340.00    -7520.00
04235           -1340.00    -7520.00
04236           -1340.00    -7520.00
04237           -1340.00    -7520.00
04238           -1340.00    -7520.00
04239           -1340.00    -7520.00
04240           -1340.00    -7520.00
04241           -1340.00    -7520.00
04242           -1340.00    -7520.00
04243           -1340.00    -7600.00
04244           -1340.00    -7520.00
04245           -1340.00    -7520.00
04246           -1340.00    -7520.00
04247           -1340.00    -7600.00
04248           -1380.00    -7600.00
04249           -1340.00    -7680.00
04250           -1340.00    -7520.00
04251           -1380.00    -7520.00
04252           -1360.00    -7600.00
04253           -1380.00    -7600.00
04254           -1380.00    -7520.00
04255           -1340.00    -7600.00
04256           -1340.00    -7520.00
04257           -1380.00    -7520.00
04258           -1380.00    -7680.00
04259           -1340.00    -7600.00
04260           -1380.00    -7600.00
04261           -1340.00    -7520.00
04262           -1380.00    -7600.00
04263           -1340.00    -7600.00
04264           -1360.00    -7600.00
04265           -1380.00    -7520.00
04266           -1380.00    -7520.00
04267           -1380.00    -7520.00
04268           -1360.00    -7520.00
04269           -1380.00    -7600.00
04270           -1380.00    -7520.00
04271           -1380.00    -7520.00
04272           -1380.00    -7520.00
04273           -1380.00    -7520.00
04274           -1380.00    -7520.00
04275           -1380.00    -7520.00
04276           -1380.00    -7520.00
04277           -1360.00    -7600.00
04278           -1380.00    -7520.00
04279           -1360.00    -7520.00
04280           -1360.00    -7520.00
04281           -1360.00    -7520.00
04282           -1380.00    -7440.00
04283           -1380.00    -7520.00
04284           -1380.00    -7520.00
04285           -1360.00    -7520.00
04286           -1340.00    -7440.00
04287           -1380.00    -7440.00
04288           -1340.00    -7440.00
04289           -1380.00    -7440.00
04290           -1340.00    -7440.00
04291           -1360.00    -7440.00
04292           -1360.00    -7440.00
04293           -1340.00    -7440.00
04294           -1340.00    -7360.00
04295           -1340.00    -7360.00
04296           -1340.00    -7360.00
04297           -1340.00    -7360.00
04298           -1340.00    -7360.00
04299           -1340.00    -7360.00
04300           -1340.00    -7360.00
04301           -1340.00    -7360.00
04302           -1340.00    -7360.00
04303           -1340.00    -7360.00
04304           -1340.00    -7360.00
04305           -1340.00    -7200.00
04306           -1320.00    -7200.00
04307           -1320.00    -7200.00
04308           -1340.00    -7200.00
04309           -1320.00    -7200.00
04310           -1320.00    -7200.00
04311           -1320.00    -7200.00
04312           -1320.00    -7200.00
04313           -1320.00    -7200.00
04314           -1320.00    -7120.00
04315           -1320.00    -7120.00
04316           -1300.00    -6960.00
04317           -1300.00    -7120.00
04318           -1300.00    -7120.00
04319           -1300.00    -7040.00
04320           -1300.00    -6960.00
04321           -1300.00    -7040.00
04322           -1300.00    -7040.00
04323           -1300.00    -6960.00
04324           -1260.00    -6960.00
04325           -1260.00    -6960.00
04326           -1260.00    -6880.00
04327           -1260.00    -6880.00
04328           -1260.00    -6880.00
04329           -1260.00    -6880.00
04330           -1260.00    -6880.00
04331           -1260.00    -6800.00
04332           -1240.00    -6800.00
04333           -1240.00    -6880.00
04334           -1240.00    -6720.00
04335           -1240.00    -6720.00
04336           -1240.00    -6720.00
04337           -1240.00    -6720.00
04338           -1240.00    -6720.00
04339           -1240.00    -6720.00
04340           -1240.00    -6720.00
04341           -1240.00    -6720.00
04342           -1220.00    -6560.00
04343           -1220.00    -6560.00
04344           -1220.00    -6560.00
04345           -1240.00    -6560.00
04346           -1220.00    -6560.00
04347           -1220.00    -6480.00
04348           -1200.00    -6480.00
04349           -1180.00    -6480.00
04350           -1180.00    -6480.00
04351           -1180.00    -6400.00
04352           -1180.00    -6400.00
04353           -1180.00    -6240.00
04354           -1180.00    -6320.00
04355           -1180.00    -6240.00
04356           -1160.00    -6240.00
04357           -1160.00    -6240.00
04358           -1160.00    -6160.00
04359           -1160.00    -6160.00
04360           -1160.00    -6160.00
04361           -1140.00    -6080.00
04362           -1140.00    -6080.00
04363           -1140.00    -6080.00
04364           -1100.00    -6080.00
04365           -1120.00    -6080.00
04366           -1100.00    -6000.00
04367           -1100.00    -5920.00
04368           -1100.00    -5920.00
04369           -1080.00    -5920.00
04370           -1100.00    -5840.00
04371           -1080.00    -5840.00
04372           -1080.00    -5760.00
04373           -1080.00    -5760.00
04374           -1080.00    -5760.00
04375           -1060.00    -5680.00
04376           -1060.00    -5760.00
04377           -1060.00    -5600.00
04378           -1060.00    -5600.00
04379           -1060.00    -5600.00
04380           -1040.00    -5520.00
04381           -1020.00    -5520.00
04382           -1020.00    -5440.00
04383           -1020.00    -5440.00
04384           -1020.00    -5440.00
04385           -1020.00    -5440.00
04386           -1000.00    -5440.00
04387           -1000.00    -5280.00
04388           -1000.00    -5280.00
04389           -1000.00    -5280.00
04390            -980.00    -5200.00
04391            -980.00    -5120.00
04392            -980.00    -5200.00
04393            -980.00    -5120.00
04394            -940.00    -5120.00
04395            -980.00    -5040.00
04396            -940.00    -4960.00
04397            -960.00    -5040.00
04398            -940.00    -4960.00
04399            -940.00    -4960.00
04400            -940.00    -4880.00
04401            -920.00    -4800.00
04402            -920.00    -4800.00
04403            -920.00    -4800.00
04404            -900.00    -4800.00
04405            -900.00    -4640.00
04406            -900.00    -4640.00
04407            -900.00    -4640.00
04408            -900.00    -4560.00
04409            -860.00    -4560.00
04410            -860.00    -4480.00
04411            -860.00    -4400.00
04412            -860.00    -4400.00
04413            -840.00    -4320.00
04414            -840.00    -4400.00
04415            -860.00    -4240.00
04416            -840.00    -4240.00
04417            -840.00    -4240.00
04418            -820.00    -4240.00
04419            -820.00    -4160.00
04420            -820.00    -4160.00
04421            -820.00    -4080.00
04422            -780.00    -4000.00
04423            -780.00    -4000.00
04424            -760.00    -4000.00
04425            -760.00    -3920.00
04426            -760.00    -3920.00
04427            -740.00    -3840.00
04428            -740.00    -3840.00
04429            -740.00    -3760.00
04430            -700.00    -3680.00
04431            -720.00    -3680.00
04432            -700.00    -3680.00
04433            -720.00    -3600.00
04434            -700.00    -3600.00
04435            -700.00    -3520.00
04436            -700.00    -3520.00
04437            -680.00    -3440.00
04438            -680.00    -3360.00
04439            -660.00    -3360.00
04440            -660.00    -3360.00
04441            -640.00    -3280.00
04442            -660.00    -3280.00
04443            -620.00    -3200.00
04444            -620.00    -3200.00
04445            -620.00    -3120.00
04446            -600.00    -3040.00
04447            -620.00    -3040.00
04448            -600.00    -2960.00
04449            -580.00    -2880.00
04450            -580.00    -2880.00
04451            -580.00    -2880.00
04452            -580.00    -2720.00
04453            -540.00    -2720.00
04454            -580.00    -2720.00
04455            -540.00    -2640.00
04456            -540.00    -2640.00
04457            -520.00    -2560.00
04458            -520.00    -2560.00
04459            -520.00    -2480.00
04460            -500.00    -2400.00
04461            -500.00    -2400.00
04462            -500.00    -2320.00
04463            -480.00    -2320.00
04464            -500.00    -2240.00
04465            -460.00    -2240.00
04466            -460.00    -2240.00
04467            -440.00    -2080.00
04468            -440.00    -2080.00
04469            -440.00    -2000.00
04470            -440.00    -2000.00
04471            -440.00    -1840.00
04472            -420.00    -1840.00
04473            -420.00    -1840.00
04474            -400.00    -1760.00
04475            -380.00    -1760.00
04476            -380.00    -1680.00
04477            -380.00    -1680.00
04478            -380.00    -1600.00
04479            -380.00    -1600.00
04480            -360.00    -1600.00
04481            -340.00    -1440.00
04482            -340.00    -1440.00
04483            -340.00    -1360.00
04484            -320.00    -1360.00
04485            -320.00    -1280.00
04486            -300.00    -1280.00
04487            -300.00    -1280.00
04488            -300.00    -1200.00
04489            -280.00    -1120.00
04490            -280.00    -1120.00
04491            -260.00    -1040.00
04492            -260.00    -1040.00
04493            -220.00     -960.00
04494            -240.00     -960.00
04495            -220.00     -880.00
04496            -220.00     -800.00
04497            -200.00     -720.00
04498            -200.00     -720.00
04499            -200.00     -720.00
04500            -180.00     -640.00
04501            -180.00     -640.00
04502            -180.00     -560.00
04503            -160.00     -480.00
04504            -140.00     -400.00
04505            -140.00     -400.00
04506            -140.00     -400.00
04507            -120.00     -320.00
04508            -120.00     -240.00
04509            -120.00     -160.00
04510            -100.00     -160.00
04511            -100.00      -80.00
04512             -80.00      -80.00
04513             -60.00        0.00
04514             -60.00        0.00
04515             -60.00        0.00
04516             -60.00        0.00
04517             -40.00      160.00
04518             -40.00      160.00
04519             -20.00      240.00
04520             -40.00      320.00
04521              20.00      320.00
04522              20.00      400.00
04523              20.00      480.00
04524              20.00      480.00
04525              60.00      560.00
04526              60.00      720.00
04527              20.00      560.00
04528               0.00      560.00
04529              40.00      720.00
04530             120.00      960.00
04531              80.00      800.00
04532              20.00      800.00
04533             100.00      960.00
04534             140.00      960.00
04535              60.00      880.00
04536             120.00     1120.00
04537             180.00     1200.00
04538             120.00     1040.00
04539             120.00     1120.00
04540             180.00     1280.00
04541             160.00     1200.00
04542             140.00     1280.00
04543             200.00     1440.00
04544             180.00     1440.00
04545             180.00     1440.00
04546             200.00     1600.00
04547             200.00     1520.00
04548             200.00     1600.00
04549             260.00     1760.00
04550             220.00     1600.00
04551             220.00     1760.00
04552             260.00     1840.00
04553             260.00     1760.00
04554             280.00     1840.00
04555             280.00     1920.00
04556             280.00     2000.00
04557             280.00     2000.00
04558             300.00     2080.00
04559             300.00     2160.00
04560             340.00     2160.00
04561             340.00     2240.00
04562             340.00     2240.00
04563             340.00     2320.00
04564             360.00     2400.00
04565             360.00     2400.00
04566             360.00     2480.00
04567             380.00     2480.00
04568             380.00     2560.00
04569             420.00     2560.00
04570             420.00     2560.00
04571             420.00     2720.00
04572             420.00     2720.00
04573             440.00     2720.00
04574             440.00     2800.00
04575             440.00     2800.00
04576             460.00     2880.00
04577             460.00     2960.00
04578             460.00     3040.00
04579             500.00     3120.00
04580             500.00     3040.00
04581             520.00     3120.00
04582             520.00     3280.00
04583             520.00     3200.00
04584             520.00     3280.00
04585             540.00     3360.00
04586             520.00     3360.00
04587             540.00     3360.00
04588             540.00     3440.00
04589             580.00     3440.00
04590             580.00     3520.00
04591             580.00     3520.00
04592             580.00     3600.00
04593             580.00     3600.00
04594             600.00     3680.00
04595             600.00     3680.00
04596             600.00     3760.00
04597             620.00     3760.00
04598             620.00     3840.00
04599             620.00     3840.00
04600             620.00     3840.00
04601             640.00     4000.00
04602             660.00     4000.00
04603             660.00     4080.00
04604             680.00     4080.00
04605             660.00     4160.00
04606             680.00     4160.00
04607             680.00     4240.00
04608             680.00     4160.00
04609             680.00     4320.00
04610             720.00     4320.00
04611             700.00     4400.00
04612             740.00     4400.00
04613             740.00     4480.00
04614             760.00     4480.00
04615             740.00     4480.00
04616             760.00     4560.00
04617             760.00     4640.00
04618             760.00     4640.00
04619             780.00     4640.00
04620             780.00     4720.00
04621             780.00     4800.00
04622             780.00     4800.00
04623             820.00     4800.00
04624             820.00     4880.00
04625             840.00     4960.00
04626             840.00     4960.00
04627             840.00     4960.00
04628             840.00     5040.00
04629             840.00     5040.00
04630             840.00     5120.00
04631             860.00     5120.00
04632             860.00     5200.00
04633             900.00     5200.00
04634             880.00     5200.00
04635             900.00     5280.00
04636             900.00     5360.00
04637             900.00     5360.00
04638             900.00     5360.00
04639             900.00     5360.00
04640             940.00     5440.00
04641             920.00     5440.00
04642             940.00     5440.00
04643             920.00     5440.00
04644             960.00     5600.00
04645             940.00     5600.00
04646             980.00     5680.00
04647             960.00     5680.00
04648             980.00     5680.00
04649             980.00     5760.00
04650             980.00     5680.00
04651             980.00     5840.00
04652            1000.00     5920.00
04653            1000.00     5920.00
04654            1000.00     5920.00
04655            1000.00     5920.00
04656            1000.00     6000.00
04657            1000.00     6000.00
04658            1020.00     6000.00
04659            1020.00     6000.00
04660            1040.00     6000.00
04661            1040.00     6080.00
04662            1020.00     6160.00
04663            1060.00     6080.00
04664            1060.00     6240.00
04665            1060.00     6240.00
04666            1060.00     6240.00
04667            1060.00     6320.00
04668            1080.00     6240.00
04669            1080.00     6320.00
04670            1080.00     6400.00
04671            1080.00     6400.00
04672            1080.00     6320.00
04673            1100.00     6400.00
04674            1100.00     6400.00
04675            1100.00     6480.00
04676            1100.00     6480.00
04677            1140.00     6560.00
04678            1120.00     6560.00
04679            1140.00     6560.00
04680            1140.00     6640.00
04681            1140.00     6640.00
04682            1140.00     6640.00
04683            1140.00     6640.00
04684            1160.00     6720.00
04685            1160.00     6720.00
04686            1160.00     6720.00
04687            1180.00     6720.00
04688            1180.00     6800.00
04689            1180.00     6720.00
04690            1180.00     6800.00
04691            1180.00     6800.00
04692            1180.00     6880.00
04693            1200.00     6880.00
04694            1180.00     6960.00
04695            1200.00     6960.00
04696            1220.00     6960.00
04697            1220.00     6960.00
04698            1220.00     6960.00
04699            1220.00     7040.00
04700            1240.00     7040.00
04701            1240.00     7040.00
04702            1220.00     7040.00
04703            1220.00     7040.00
04704            1240.00     7040.00
04705            1240.00     7120.00
04706            1240.00     7200.00
04707            1260.00     7120.00
04708            1240.00     7120.00
04709            1260.00     7200.00
04710            1260.00     7200.00
04711            1260.00     7280.00
04712            1260.00     7280.00
04713            1260.00     7200.00
04714            1260.00     7280.00
04715            1300.00     7280.00
04716            1300.00     7280.00
04717            1280.00     7280.00
04718            1300.00     7360.00
04719            1300.00     7360.00
04720            1300.00     7360.00
04721            1300.00     7360.00
04722            1300.00     7360.00
04723            1320.00     7360.00
04724            1320.00     7360.00
04725            1300.00     7360.00
04726            1300.00     7440.00
04727            1300.00     7520.00
04728            1300.00     7440.00
04729            1320.00     7440.00
04730            1320.00     7520.00
04731            1320.00     7520.00
04732            1320.00     7520.00
04733            1320.00     7520.00
04734            1320.00     7600.00
04735            1320.00     7520.00
04736            1320.00     7600.00
04737            1320.00     7520.00
04738            1320.00     7520.00
04739            1320.00     7520.00
04740            1320.00     7520.00
04741            1320.00     7600.00
04742            1320.00     7520.00
04743            1340.00     7600.00
04744            1320.00     7520.00
04745            1320.00     7600.00
04746            1340.00     7680.00
04747            1340.00     7600.00
04748            1340.00     7600.00
04749            1340.00     7600.00
04750            1340.00     7680.00
04751            1340.00     7600.00
04752            1380.00     7680.00
04753            1340.00     7600.00
04754            1340.00     7680.00
04755            1340.00     7600.00
04756            1380.00     7680.00
04757            1380.00     7680.00
04758            1380.00     7680.00
04759            1340.00     7680.00
04760            1360.00     7680.00
04761            1340.00     7680.00
04762            1360.00     7680.00
04763            1380.00     7680.00
04764            1360.00     7680.00
04765            1380.00     7680.00
04766            1380.00     7680.00
04767            1340.00     7680.00
04768            1380.00     7680.00
04769            1380.00     7680.00
04770            1380.00     7680.00
04771            1380.00     7680.00
04772            1380.00     7680.00
04773            1380.00     7680.00
04774            1380.00     7680.00
04775            1380.00     7680.00
04776            1380.00     7680.00
04777            1380.00     7680.00
04778            1380.00     7680.00
04779            1380.00     7680.00
04780            1380.00     7680.00
04781            1340.00     7600.00
04782            1380.00     7680.00
04783            1380.00     7680.00
04784            1380.00     7600.00
04785            1380.00     7600.00
04786            1360.00     7600.00
04787            1360.00     7600.00
04788            1340.00     7600.00
04789            1360.00     7600.00
04790            1360.00     7680.00
04791            1360.00     7600.00
04792            1340.00     7600.00
04793            1340.00     7600.00
04794            1340.00     7520.00
04795            1340.00     7520.00
04796            1340.00     7520.00
04797            1340.00     7520.00
04798            1340.00     7520.00
04799            1360.00     7520.00
04800            1340.00     7520.00
04801            1340.00     7520.00
04802            1320.00     7520.00
04803            1340.00     7520.00
04804            1340.00     7520.00
04805            1340.00     7440.00
04806            1320.00     7440.00
04807            1320.00     7520.00
04808            1320.00     7360.00
04809            1320.00     7360.00
04810            1320.00     7360.00
04811            1320.00     7360.00
04812            1320.00     7360.00
04813            1320.00     7360.00
04814            1320.00     7360.00
04815            1300.00     7360.00
04816            1320.00     7360.00
04817            1320.00     7280.00
04818            1320.00     7360.00
04819            1320.00     7200.00
04820            1300.00     7280.00
04821            1320.00     7200.00
04822            1300.00     7200.00
04823            1300.00     7200.00
04824            1300.00     7200.00
04825            1300.00     7200.00
04826            1300.00     7200.00
04827            1300.00     7120.00
04828            1300.00     7200.00
04829            1300.00     7040.00
04830            1300.00     7040.00
04831            1300.00     7040.00
04832            1260.00     7040.00
04833            1280.00     7040.00
04834            1280.00     6960.00
04835            1260.00     6960.00
04836            1260.00     7040.00
04837            1260.00     6960.00
04838            1260.00     6880.00
04839            1240.00     6880.00
04840            1260.00     6880.00
04841            1240.00     6880.00
04842            1260.00     6880.00
04843            1240.00     6800.00
04844            1240.00     6880.00
04845            1220.00     6800.00
04846            1240.00     6720.00
04847            1220.00     6720.00
04848            1220.00     6720.00
04849            1240.00     6720.00
04850            1220.00     6720.00
04851            1220.00     6720.00
04852            1200.00     6640.00
04853            1200.00     6640.00
04854            1220.00     6560.00
04855            1200.00     6560.00
04856            1180.00     6560.00
04857            1180.00     6560.00
04858            1180.00     6480.00
04859            1160.00     6400.00
04860            1160.00     6400.00
04861            1180.00     6400.00
04862            1160.00     6400.00
04863            1160.00     6320.00
04864            1160.00     6320.00
04865            1160.00     6320.00
04866            1160.00     6240.00
04867            1140.00     6320.00
04868            1140.00     6320.00
04869            1140.00     6240.00
04870            1140.00     6240.00
04871            1120.00     6080.00
04872            1140.00     6160.00
04873            1100.00     6000.00
04874            1100.00     6080.00
04875            1080.00     6080.00
04876            1080.00     6000.00
04877            1100.00     5920.00
04878            1080.00     6000.00
04879            1080.00     5920.00
04880            1060.00     5920.00
04881            1060.00     5840.00
04882            1080.00     5760.00
04883            1060.00     5760.00
04884            1060.00     5840.00
04885            1060.00     5760.00
04886            1060.00     5680.00
04887            1060.00     5680.00
04888            1020.00     5680.00
04889            1040.00     5600.00
04890            1020.00     5600.00
04891            1020.00     5520.00
04892            1020.00     5440.00
04893            1020.00     5440.00
04894            1000.00     5440.00
04895            1000.00     5360.00
04896            1000.00     5360.00
04897            1000.00     5360.00
04898             980.00     5280.00
04899            1000.00     5280.00
04900             980.00     5280.00
04901             980.00     5120.00
04902             980.00     5200.00
04903             980.00     5120.00
04904             940.00     5120.00
04905             940.00     5040.00
04906             940.00     4960.00
04907             920.00     5040.00
04908             920.00     4960.00
04909             920.00     4960.00
04910             920.00     4960.00
04911             920.00     4800.00
04912             900.00     4880.00
04913             900.00     4720.00
04914             880.00     4720.00
04915             880.00     4720.00
04916             900.00     4640.00
04917             860.00     4640.00
04918             860.00     4640.00
04919             860.00     4560.00
04920             840.00     4480.00
04921             820.00     4480.00
04922             840.00     4400.00
04923             820.00     4320.00
04924             820.00     4320.00
04925             820.00     4320.00
04926             820.00     4320.00
04927             820.00     4240.00
04928             820.00     4160.00
04929             760.00     4160.00
04930             780.00     4080.00
04931             760.00     4080.00
04932             760.00     4080.00
04933             760.00     4000.00
04934             760.00     3840.00
04935             740.00     4000.00
04936             740.00     3920.00
04937             740.00     3840.00
04938             700.00     3840.00
04939             700.00     3760.00
04940             680.00     3680.00
04941             700.00     3680.00
04942             680.00     3680.00
04943             680.00     3600.00
04944             680.00     3600.00
04945             660.00     3520.00
04946             660.00     3440.00
04947             660.00     3440.00
04948             660.00     3360.00
04949             660.00     3360.00
04950             640.00     3360.00
04951             620.00     3280.00
04952             620.00     3200.00
04953             600.00     3200.00
04954             600.00     3280.00
04955             600.00     3120.00
04956             600.00     3040.00
04957             580.00     3040.00
04958             580.00     3040.00
04959             580.00     2880.00
04960             580.00     2880.00
04961             560.00     2880.00
04962             560.00     2800.00
04963             540.00     2720.00
04964             540.00     2720.00
04965             520.00     2640.00
04966             520.00     2640.00
04967             520.00     2560.00
04968             520.00     2560.00
04969             500.00     2480.00
04970             500.00     2480.00
04971             500.00     2400.00
04972             480.00     2320.00
04973             460.00     2240.00
04974             460.00     2240.00
04975             440.00     2240.00
04976             440.00     2240.00
04977             420.00     2160.00
04978             420.00     2000.00
04979             420.00     2000.00
04980             400.00     1920.00
04981             420.00     2000.00
04982             420.00     1920.00
04983             380.00     1840.00
04984             360.00     1840.00
04985             360.00     1760.00
04986             360.00     1760.00
04987             340.00     1600.00
04988             340.00     1600.00
04989             340.00     1600.00
04990             340.00     1520.00
04991             300.00     1440.00
04992             300.00     1440.00
04993             280.00     1360.00
04994             280.00     1360.00
04995             280.00     1280.00
04996             280.00     1280.00
04997             260.00     1280.00
04998             260.00     1200.00
04999             260.00     1120.00
05000             240.00     1120.00
