Unit:(mV)
                     CH1         CH2
Frequency              ?  98.375 kHz
00001             420.00    -2400.00
00002             420.00    -2400.00
00003             440.00    -2480.00
00004             440.00    -2560.00
00005             440.00    -2560.00
00006             460.00    -2560.00
00007             460.00    -2640.00
00008             460.00    -2640.00
00009             460.00    -2640.00
00010             500.00    -2720.00
00011             500.00    -2720.00
00012             500.00    -2720.00
00013             520.00    -2800.00
00014             520.00    -2880.00
00015             520.00    -2880.00
00016             540.00    -2880.00
00017             540.00    -2960.00
00018             540.00    -2960.00
00019             580.00    -3040.00
00020             580.00    -3040.00
00021             540.00    -3040.00
00022             580.00    -3120.00
00023             580.00    -3200.00
00024             600.00    -3200.00
00025             600.00    -3280.00
00026             600.00    -3280.00
00027             600.00    -3360.00
00028             620.00    -3360.00
00029             620.00    -3360.00
00030             660.00    -3360.00
00031             660.00    -3360.00
00032             660.00    -3360.00
00033             660.00    -3520.00
00034             660.00    -3520.00
00035             680.00    -3520.00
00036             680.00    -3600.00
00037             680.00    -3600.00
00038             700.00    -3600.00
00039             700.00    -3680.00
00040             700.00    -3680.00
00041             700.00    -3680.00
00042             740.00    -3760.00
00043             740.00    -3760.00
00044             760.00    -3840.00
00045             740.00    -3840.00
00046             760.00    -3840.00
00047             760.00    -3920.00
00048             780.00    -3920.00
00049             780.00    -4000.00
00050             820.00    -3920.00
00051             800.00    -4000.00
00052             820.00    -4000.00
00053             820.00    -4160.00
00054             820.00    -4160.00
00055             820.00    -4160.00
00056             840.00    -4160.00
00057             840.00    -4160.00
00058             840.00    -4240.00
00059             860.00    -4320.00
00060             860.00    -4320.00
00061             860.00    -4320.00
00062             900.00    -4320.00
00063             880.00    -4320.00
00064             900.00    -4400.00
00065             900.00    -4400.00
00066             900.00    -4480.00
00067             920.00    -4400.00
00068             920.00    -4560.00
00069             920.00    -4560.00
00070             920.00    -4560.00
00071             940.00    -4640.00
00072             940.00    -4640.00
00073             940.00    -4640.00
00074             940.00    -4640.00
00075             980.00    -4720.00
00076             960.00    -4720.00
00077             980.00    -4800.00
00078             960.00    -4800.00
00079             980.00    -4800.00
00080            1000.00    -4880.00
00081            1000.00    -4880.00
00082             980.00    -4880.00
00083            1000.00    -4880.00
00084            1000.00    -4960.00
00085            1000.00    -4960.00
00086            1000.00    -4960.00
00087            1020.00    -4960.00
00088            1020.00    -5040.00
00089            1040.00    -5040.00
00090            1020.00    -5040.00
00091            1060.00    -5120.00
00092            1060.00    -5120.00
00093            1060.00    -5120.00
00094            1080.00    -5120.00
00095            1080.00    -5200.00
00096            1060.00    -5200.00
00097            1080.00    -5200.00
00098            1080.00    -5200.00
00099            1080.00    -5200.00
00100            1100.00    -5280.00
00101            1100.00    -5280.00
00102            1100.00    -5280.00
00103            1100.00    -5360.00
00104            1140.00    -5360.00
00105            1140.00    -5360.00
00106            1140.00    -5440.00
00107            1140.00    -5440.00
00108            1140.00    -5440.00
00109            1160.00    -5440.00
00110            1140.00    -5520.00
00111            1160.00    -5440.00
00112            1160.00    -5520.00
00113            1160.00    -5520.00
00114            1160.00    -5520.00
00115            1180.00    -5600.00
00116            1180.00    -5520.00
00117            1160.00    -5600.00
00118            1180.00    -5600.00
00119            1180.00    -5680.00
00120            1180.00    -5600.00
00121            1180.00    -5680.00
00122            1200.00    -5680.00
00123            1220.00    -5760.00
00124            1220.00    -5760.00
00125            1220.00    -5680.00
00126            1220.00    -5760.00
00127            1220.00    -5760.00
00128            1220.00    -5760.00
00129            1220.00    -5760.00
00130            1220.00    -5840.00
00131            1240.00    -5760.00
00132            1240.00    -5840.00
00133            1240.00    -5840.00
00134            1240.00    -5840.00
00135            1240.00    -5920.00
00136            1260.00    -5920.00
00137            1260.00    -5840.00
00138            1260.00    -5920.00
00139            1240.00    -5920.00
00140            1260.00    -5920.00
00141            1260.00    -5920.00
00142            1280.00    -5920.00
00143            1280.00    -5920.00
00144            1300.00    -5920.00
00145            1300.00    -6000.00
00146            1300.00    -5920.00
00147            1300.00    -6000.00
00148            1300.00    -6080.00
00149            1300.00    -6080.00
00150            1300.00    -6080.00
00151            1300.00    -6000.00
00152            1300.00    -6080.00
00153            1320.00    -6080.00
00154            1300.00    -6080.00
00155            1300.00    -6080.00
00156            1320.00    -6160.00
00157            1320.00    -6080.00
00158            1320.00    -6080.00
00159            1320.00    -6160.00
00160            1320.00    -6080.00
00161            1320.00    -6080.00
00162            1320.00    -6160.00
00163            1320.00    -6160.00
00164            1320.00    -6080.00
00165            1320.00    -6160.00
00166            1320.00    -6160.00
00167            1320.00    -6160.00
00168            1340.00    -6160.00
00169            1340.00    -6160.00
00170            1340.00    -6160.00
00171            1340.00    -6160.00
00172            1320.00    -6160.00
00173            1360.00    -6160.00
00174            1340.00    -6240.00
00175            1340.00    -6160.00
00176            1340.00    -6160.00
00177            1380.00    -6240.00
00178            1360.00    -6160.00
00179            1360.00    -6240.00
00180            1360.00    -6160.00
00181            1380.00    -6240.00
00182            1380.00    -6160.00
00183            1360.00    -6240.00
00184            1380.00    -6240.00
00185            1360.00    -6160.00
00186            1380.00    -6240.00
00187            1380.00    -6160.00
00188            1380.00    -6160.00
00189            1380.00    -6240.00
00190            1380.00    -6240.00
00191            1380.00    -6240.00
00192            1380.00    -6240.00
00193            1380.00    -6160.00
00194            1400.00    -6240.00
00195            1380.00    -6160.00
00196            1380.00    -6160.00
00197            1380.00    -6160.00
00198            1380.00    -6240.00
00199            1380.00    -6240.00
00200            1380.00    -6240.00
00201            1400.00    -6240.00
00202            1380.00    -6160.00
00203            1380.00    -6160.00
00204            1380.00    -6160.00
00205            1380.00    -6160.00
00206            1380.00    -6160.00
00207            1400.00    -6160.00
00208            1380.00    -6160.00
00209            1400.00    -6160.00
00210            1380.00    -6160.00
00211            1380.00    -6160.00
00212            1380.00    -6160.00
00213            1380.00    -6160.00
00214            1380.00    -6160.00
00215            1380.00    -6160.00
00216            1380.00    -6160.00
00217            1360.00    -6160.00
00218            1380.00    -6080.00
00219            1380.00    -6080.00
00220            1380.00    -6080.00
00221            1360.00    -6080.00
00222            1380.00    -6160.00
00223            1380.00    -6080.00
00224            1380.00    -6080.00
00225            1360.00    -6080.00
00226            1340.00    -6160.00
00227            1380.00    -6080.00
00228            1340.00    -6080.00
00229            1340.00    -6080.00
00230            1380.00    -6000.00
00231            1340.00    -6080.00
00232            1380.00    -6080.00
00233            1340.00    -6000.00
00234            1340.00    -6000.00
00235            1340.00    -6080.00
00236            1360.00    -6000.00
00237            1340.00    -5920.00
00238            1340.00    -5920.00
00239            1340.00    -5920.00
00240            1340.00    -5920.00
00241            1340.00    -5920.00
00242            1340.00    -5840.00
00243            1320.00    -5920.00
00244            1340.00    -5920.00
00245            1320.00    -5840.00
00246            1340.00    -5840.00
00247            1320.00    -5760.00
00248            1320.00    -5920.00
00249            1300.00    -5840.00
00250            1320.00    -5840.00
00251            1320.00    -5840.00
00252            1320.00    -5760.00
00253            1320.00    -5760.00
00254            1320.00    -5760.00
00255            1320.00    -5760.00
00256            1300.00    -5680.00
00257            1320.00    -5600.00
00258            1300.00    -5760.00
00259            1300.00    -5600.00
00260            1300.00    -5680.00
00261            1300.00    -5600.00
00262            1300.00    -5600.00
00263            1300.00    -5600.00
00264            1300.00    -5520.00
00265            1300.00    -5520.00
00266            1280.00    -5520.00
00267            1300.00    -5520.00
00268            1280.00    -5520.00
00269            1300.00    -5440.00
00270            1260.00    -5440.00
00271            1260.00    -5440.00
00272            1260.00    -5440.00
00273            1260.00    -5440.00
00274            1240.00    -5440.00
00275            1260.00    -5360.00
00276            1240.00    -5280.00
00277            1240.00    -5280.00
00278            1240.00    -5280.00
00279            1240.00    -5280.00
00280            1220.00    -5280.00
00281            1220.00    -5280.00
00282            1220.00    -5200.00
00283            1220.00    -5200.00
00284            1220.00    -5200.00
00285            1200.00    -5120.00
00286            1200.00    -5120.00
00287            1180.00    -5200.00
00288            1180.00    -5120.00
00289            1220.00    -5120.00
00290            1180.00    -5120.00
00291            1180.00    -5040.00
00292            1160.00    -5040.00
00293            1160.00    -4960.00
00294            1160.00    -4960.00
00295            1160.00    -4960.00
00296            1160.00    -4960.00
00297            1160.00    -4960.00
00298            1140.00    -4880.00
00299            1160.00    -4880.00
00300            1140.00    -4880.00
00301            1140.00    -4800.00
00302            1120.00    -4800.00
00303            1140.00    -4800.00
00304            1100.00    -4720.00
00305            1100.00    -4720.00
00306            1120.00    -4640.00
00307            1100.00    -4640.00
00308            1100.00    -4640.00
00309            1080.00    -4560.00
00310            1080.00    -4560.00
00311            1100.00    -4560.00
00312            1080.00    -4560.00
00313            1080.00    -4400.00
00314            1060.00    -4400.00
00315            1060.00    -4400.00
00316            1060.00    -4400.00
00317            1060.00    -4320.00
00318            1060.00    -4320.00
00319            1060.00    -4320.00
00320            1060.00    -4320.00
00321            1040.00    -4240.00
00322            1040.00    -4240.00
00323            1020.00    -4240.00
00324            1020.00    -4160.00
00325            1000.00    -4160.00
00326            1000.00    -4160.00
00327            1000.00    -4080.00
00328            1000.00    -4080.00
00329            1000.00    -4080.00
00330             980.00    -4000.00
00331             980.00    -4000.00
00332             980.00    -4000.00
00333             980.00    -3920.00
00334             980.00    -3840.00
00335             980.00    -3840.00
00336             940.00    -3840.00
00337             940.00    -3840.00
00338             920.00    -3840.00
00339             920.00    -3680.00
00340             920.00    -3680.00
00341             920.00    -3680.00
00342             920.00    -3600.00
00343             900.00    -3680.00
00344             900.00    -3680.00
00345             900.00    -3520.00
00346             860.00    -3520.00
00347             880.00    -3520.00
00348             860.00    -3520.00
00349             860.00    -3520.00
00350             860.00    -3360.00
00351             840.00    -3360.00
00352             840.00    -3360.00
00353             840.00    -3360.00
00354             840.00    -3280.00
00355             820.00    -3280.00
00356             820.00    -3200.00
00357             820.00    -3200.00
00358             800.00    -3200.00
00359             780.00    -3040.00
00360             780.00    -3040.00
00361             780.00    -3040.00
00362             780.00    -3040.00
00363             760.00    -2960.00
00364             760.00    -2880.00
00365             740.00    -2880.00
00366             740.00    -2880.00
00367             700.00    -2880.00
00368             740.00    -2800.00
00369             740.00    -2800.00
00370             700.00    -2720.00
00371             700.00    -2720.00
00372             700.00    -2640.00
00373             680.00    -2640.00
00374             700.00    -2640.00
00375             680.00    -2560.00
00376             660.00    -2560.00
00377             680.00    -2560.00
00378             660.00    -2400.00
00379             660.00    -2480.00
00380             640.00    -2400.00
00381             620.00    -2400.00
00382             660.00    -2320.00
00383             620.00    -2320.00
00384             620.00    -2240.00
00385             600.00    -2240.00
00386             600.00    -2240.00
00387             580.00    -2080.00
00388             580.00    -2080.00
00389             580.00    -2080.00
00390             580.00    -2000.00
00391             540.00    -1920.00
00392             540.00    -2000.00
00393             540.00    -1840.00
00394             540.00    -1920.00
00395             540.00    -1840.00
00396             520.00    -1840.00
00397             520.00    -1760.00
00398             520.00    -1760.00
00399             500.00    -1760.00
00400             500.00    -1680.00
00401             480.00    -1680.00
00402             460.00    -1600.00
00403             460.00    -1520.00
00404             460.00    -1600.00
00405             460.00    -1440.00
00406             440.00    -1440.00
00407             440.00    -1440.00
00408             420.00    -1360.00
00409             420.00    -1360.00
00410             420.00    -1280.00
00411             420.00    -1280.00
00412             380.00    -1280.00
00413             380.00    -1200.00
00414             360.00    -1120.00
00415             360.00    -1120.00
00416             360.00    -1120.00
00417             360.00    -1040.00
00418             340.00    -1040.00
00419             340.00     -960.00
00420             340.00     -960.00
00421             340.00     -960.00
00422             300.00     -800.00
00423             300.00     -880.00
00424             280.00     -800.00
00425             280.00     -800.00
00426             280.00     -720.00
00427             260.00     -640.00
00428             260.00     -640.00
00429             260.00     -560.00
00430             220.00     -640.00
00431             260.00     -480.00
00432             220.00     -480.00
00433             220.00     -480.00
00434             220.00     -400.00
00435             200.00     -320.00
00436             200.00     -320.00
00437             200.00     -320.00
00438             180.00     -240.00
00439             180.00     -240.00
00440             180.00     -160.00
00441             140.00      -80.00
00442             140.00      -80.00
00443             160.00        0.00
00444             120.00        0.00
00445             120.00        0.00
00446             120.00        0.00
00447             100.00       80.00
00448             100.00      160.00
00449             100.00      160.00
00450             100.00      240.00
00451              60.00      240.00
00452              60.00      320.00
00453              60.00      320.00
00454              40.00      320.00
00455              40.00      400.00
00456              40.00      480.00
00457              40.00      560.00
00458              40.00      560.00
00459               0.00      560.00
00460             -20.00      480.00
00461              20.00      720.00
00462              20.00      880.00
00463             -40.00      640.00
00464             -60.00      640.00
00465             -20.00      960.00
00466             -40.00      880.00
00467             -60.00      800.00
00468             -60.00      960.00
00469             -40.00     1040.00
00470            -100.00      880.00
00471            -100.00      960.00
00472             -60.00     1120.00
00473            -120.00      960.00
00474            -120.00     1120.00
00475            -120.00     1280.00
00476            -140.00     1200.00
00477            -160.00     1200.00
00478            -140.00     1280.00
00479            -160.00     1280.00
00480            -200.00     1360.00
00481            -180.00     1440.00
00482            -200.00     1440.00
00483            -200.00     1440.00
00484            -200.00     1600.00
00485            -220.00     1520.00
00486            -220.00     1600.00
00487            -240.00     1680.00
00488            -240.00     1600.00
00489            -260.00     1760.00
00490            -240.00     1760.00
00491            -280.00     1760.00
00492            -260.00     1840.00
00493            -280.00     1840.00
00494            -300.00     1840.00
00495            -280.00     1920.00
00496            -300.00     1920.00
00497            -300.00     1920.00
00498            -340.00     2080.00
00499            -340.00     2080.00
00500            -360.00     2160.00
00501            -340.00     2160.00
00502            -380.00     2240.00
00503            -360.00     2240.00
00504            -380.00     2240.00
00505            -380.00     2320.00
00506            -400.00     2320.00
00507            -400.00     2400.00
00508            -380.00     2400.00
00509            -420.00     2400.00
00510            -440.00     2480.00
00511            -440.00     2480.00
00512            -440.00     2560.00
00513            -440.00     2560.00
00514            -460.00     2640.00
00515            -460.00     2720.00
00516            -460.00     2720.00
00517            -460.00     2720.00
00518            -480.00     2800.00
00519            -500.00     2800.00
00520            -520.00     2800.00
00521            -520.00     2880.00
00522            -520.00     2880.00
00523            -520.00     2960.00
00524            -520.00     2960.00
00525            -540.00     3040.00
00526            -540.00     3040.00
00527            -540.00     3120.00
00528            -580.00     3120.00
00529            -580.00     3120.00
00530            -580.00     3200.00
00531            -600.00     3280.00
00532            -600.00     3280.00
00533            -600.00     3360.00
00534            -620.00     3360.00
00535            -620.00     3360.00
00536            -620.00     3360.00
00537            -620.00     3440.00
00538            -640.00     3440.00
00539            -660.00     3520.00
00540            -660.00     3440.00
00541            -660.00     3520.00
00542            -680.00     3520.00
00543            -680.00     3680.00
00544            -700.00     3680.00
00545            -700.00     3680.00
00546            -700.00     3680.00
00547            -740.00     3760.00
00548            -720.00     3760.00
00549            -740.00     3760.00
00550            -740.00     3760.00
00551            -740.00     3840.00
00552            -760.00     3920.00
00553            -760.00     3920.00
00554            -760.00     4000.00
00555            -780.00     4000.00
00556            -780.00     4080.00
00557            -780.00     4000.00
00558            -800.00     4080.00
00559            -820.00     4160.00
00560            -820.00     4080.00
00561            -820.00     4160.00
00562            -840.00     4240.00
00563            -840.00     4240.00
00564            -840.00     4240.00
00565            -840.00     4320.00
00566            -860.00     4320.00
00567            -860.00     4320.00
00568            -860.00     4400.00
00569            -860.00     4400.00
00570            -860.00     4480.00
00571            -880.00     4480.00
00572            -860.00     4480.00
00573            -900.00     4480.00
00574            -900.00     4480.00
00575            -900.00     4560.00
00576            -920.00     4640.00
00577            -920.00     4640.00
00578            -920.00     4720.00
00579            -920.00     4640.00
00580            -940.00     4640.00
00581            -940.00     4720.00
00582            -940.00     4720.00
00583            -940.00     4800.00
00584            -940.00     4800.00
00585            -980.00     4800.00
00586            -960.00     4800.00
00587            -980.00     4880.00
00588            -980.00     4960.00
00589           -1000.00     4960.00
00590           -1000.00     4960.00
00591           -1000.00     4960.00
00592           -1000.00     5040.00
00593           -1000.00     4960.00
00594           -1020.00     5040.00
00595           -1020.00     5040.00
00596           -1020.00     5120.00
00597           -1020.00     5120.00
00598           -1040.00     5120.00
00599           -1060.00     5120.00
00600           -1040.00     5200.00
00601           -1060.00     5200.00
00602           -1060.00     5200.00
00603           -1060.00     5280.00
00604           -1080.00     5280.00
00605           -1100.00     5280.00
00606           -1080.00     5280.00
00607           -1100.00     5280.00
00608           -1100.00     5360.00
00609           -1100.00     5360.00
00610           -1100.00     5360.00
00611           -1100.00     5360.00
00612           -1120.00     5440.00
00613           -1140.00     5440.00
00614           -1140.00     5440.00
00615           -1140.00     5440.00
00616           -1140.00     5520.00
00617           -1140.00     5440.00
00618           -1140.00     5600.00
00619           -1160.00     5600.00
00620           -1160.00     5600.00
00621           -1160.00     5600.00
00622           -1180.00     5680.00
00623           -1160.00     5680.00
00624           -1180.00     5680.00
00625           -1180.00     5680.00
00626           -1180.00     5680.00
00627           -1180.00     5840.00
00628           -1200.00     5760.00
00629           -1180.00     5760.00
00630           -1220.00     5840.00
00631           -1220.00     5840.00
00632           -1220.00     5760.00
00633           -1200.00     5840.00
00634           -1220.00     5840.00
00635           -1220.00     5840.00
00636           -1220.00     5760.00
00637           -1240.00     5840.00
00638           -1240.00     5840.00
00639           -1240.00     5920.00
00640           -1240.00     5920.00
00641           -1240.00     5920.00
00642           -1240.00     5920.00
00643           -1240.00     6000.00
00644           -1260.00     6000.00
00645           -1260.00     6000.00
00646           -1260.00     6000.00
00647           -1260.00     6000.00
00648           -1260.00     6000.00
00649           -1260.00     6000.00
00650           -1280.00     6000.00
00651           -1260.00     6080.00
00652           -1260.00     6000.00
00653           -1260.00     6000.00
00654           -1260.00     6080.00
00655           -1300.00     6080.00
00656           -1300.00     6080.00
00657           -1300.00     6080.00
00658           -1300.00     6080.00
00659           -1300.00     6160.00
00660           -1300.00     6080.00
00661           -1300.00     6160.00
00662           -1300.00     6160.00
00663           -1300.00     6240.00
00664           -1300.00     6240.00
00665           -1320.00     6160.00
00666           -1320.00     6240.00
00667           -1320.00     6240.00
00668           -1320.00     6240.00
00669           -1320.00     6240.00
00670           -1320.00     6240.00
00671           -1320.00     6240.00
00672           -1320.00     6240.00
00673           -1340.00     6240.00
00674           -1340.00     6240.00
00675           -1340.00     6240.00
00676           -1360.00     6240.00
00677           -1340.00     6320.00
00678           -1340.00     6240.00
00679           -1340.00     6240.00
00680           -1340.00     6240.00
00681           -1340.00     6240.00
00682           -1360.00     6240.00
00683           -1360.00     6320.00
00684           -1340.00     6240.00
00685           -1360.00     6320.00
00686           -1380.00     6320.00
00687           -1340.00     6240.00
00688           -1380.00     6320.00
00689           -1380.00     6240.00
00690           -1380.00     6320.00
00691           -1380.00     6320.00
00692           -1380.00     6320.00
00693           -1380.00     6240.00
00694           -1380.00     6320.00
00695           -1380.00     6320.00
00696           -1380.00     6320.00
00697           -1380.00     6320.00
00698           -1380.00     6320.00
00699           -1380.00     6320.00
00700           -1380.00     6320.00
00701           -1360.00     6320.00
00702           -1340.00     6320.00
00703           -1380.00     6320.00
00704           -1380.00     6240.00
00705           -1380.00     6320.00
00706           -1380.00     6320.00
00707           -1380.00     6240.00
00708           -1380.00     6320.00
00709           -1380.00     6320.00
00710           -1380.00     6320.00
00711           -1380.00     6320.00
00712           -1340.00     6320.00
00713           -1380.00     6320.00
00714           -1340.00     6320.00
00715           -1380.00     6320.00
00716           -1380.00     6320.00
00717           -1340.00     6240.00
00718           -1380.00     6320.00
00719           -1340.00     6320.00
00720           -1380.00     6240.00
00721           -1380.00     6240.00
00722           -1340.00     6240.00
00723           -1360.00     6240.00
00724           -1380.00     6240.00
00725           -1380.00     6240.00
00726           -1380.00     6240.00
00727           -1380.00     6160.00
00728           -1360.00     6160.00
00729           -1380.00     6240.00
00730           -1360.00     6240.00
00731           -1360.00     6160.00
00732           -1380.00     6240.00
00733           -1360.00     6240.00
00734           -1380.00     6080.00
00735           -1380.00     6080.00
00736           -1340.00     6160.00
00737           -1380.00     6080.00
00738           -1380.00     6080.00
00739           -1360.00     6080.00
00740           -1360.00     6080.00
00741           -1360.00     6080.00
00742           -1340.00     6080.00
00743           -1340.00     6000.00
00744           -1380.00     6080.00
00745           -1340.00     6000.00
00746           -1340.00     6000.00
00747           -1340.00     5920.00
00748           -1340.00     6000.00
00749           -1340.00     6000.00
00750           -1340.00     6000.00
00751           -1340.00     6000.00
00752           -1340.00     6000.00
00753           -1340.00     5920.00
00754           -1340.00     5920.00
00755           -1320.00     5920.00
00756           -1320.00     5920.00
00757           -1340.00     5920.00
00758           -1340.00     5920.00
00759           -1320.00     5840.00
00760           -1320.00     5840.00
00761           -1320.00     5840.00
00762           -1320.00     5840.00
00763           -1320.00     5840.00
00764           -1320.00     5760.00
00765           -1300.00     5760.00
00766           -1320.00     5760.00
00767           -1300.00     5840.00
00768           -1300.00     5680.00
00769           -1300.00     5680.00
00770           -1280.00     5680.00
00771           -1300.00     5680.00
00772           -1260.00     5680.00
00773           -1300.00     5680.00
00774           -1260.00     5680.00
00775           -1280.00     5600.00
00776           -1260.00     5600.00
00777           -1260.00     5600.00
00778           -1260.00     5600.00
00779           -1260.00     5520.00
00780           -1260.00     5440.00
00781           -1260.00     5440.00
00782           -1240.00     5440.00
00783           -1240.00     5440.00
00784           -1240.00     5440.00
00785           -1240.00     5440.00
00786           -1220.00     5360.00
00787           -1240.00     5360.00
00788           -1220.00     5360.00
00789           -1220.00     5360.00
00790           -1220.00     5360.00
00791           -1220.00     5280.00
00792           -1220.00     5280.00
00793           -1180.00     5200.00
00794           -1180.00     5280.00
00795           -1180.00     5200.00
00796           -1180.00     5200.00
00797           -1180.00     5200.00
00798           -1180.00     5120.00
00799           -1180.00     5120.00
00800           -1180.00     5120.00
00801           -1180.00     5120.00
00802           -1160.00     5040.00
00803           -1180.00     5040.00
00804           -1180.00     5040.00
00805           -1160.00     4960.00
00806           -1160.00     4960.00
00807           -1160.00     4960.00
00808           -1140.00     4960.00
00809           -1140.00     4800.00
00810           -1140.00     4880.00
00811           -1140.00     4800.00
00812           -1140.00     4800.00
00813           -1140.00     4800.00
00814           -1120.00     4800.00
00815           -1100.00     4720.00
00816           -1100.00     4720.00
00817           -1100.00     4720.00
00818           -1100.00     4720.00
00819           -1080.00     4640.00
00820           -1080.00     4640.00
00821           -1080.00     4560.00
00822           -1080.00     4560.00
00823           -1080.00     4480.00
00824           -1060.00     4480.00
00825           -1060.00     4480.00
00826           -1060.00     4400.00
00827           -1040.00     4400.00
00828           -1040.00     4320.00
00829           -1020.00     4320.00
00830           -1040.00     4320.00
00831           -1020.00     4240.00
00832           -1020.00     4320.00
00833           -1020.00     4240.00
00834           -1000.00     4160.00
00835           -1020.00     4160.00
00836           -1000.00     4160.00
00837            -980.00     4160.00
00838            -980.00     4160.00
00839            -980.00     4080.00
00840            -980.00     4080.00
00841            -980.00     4000.00
00842            -940.00     4000.00
00843            -940.00     4000.00
00844            -940.00     3920.00
00845            -920.00     3840.00
00846            -920.00     3840.00
00847            -920.00     3840.00
00848            -920.00     3840.00
00849            -920.00     3680.00
00850            -920.00     3680.00
00851            -900.00     3680.00
00852            -920.00     3680.00
00853            -880.00     3680.00
00854            -880.00     3680.00
00855            -900.00     3600.00
00856            -860.00     3520.00
00857            -860.00     3520.00
00858            -860.00     3440.00
00859            -860.00     3440.00
00860            -860.00     3440.00
00861            -840.00     3440.00
00862            -840.00     3360.00
00863            -820.00     3280.00
00864            -820.00     3360.00
00865            -820.00     3280.00
00866            -820.00     3200.00
00867            -800.00     3200.00
00868            -780.00     3120.00
00869            -780.00     3200.00
00870            -780.00     3040.00
00871            -760.00     3040.00
00872            -760.00     3040.00
00873            -760.00     3040.00
00874            -760.00     2960.00
00875            -740.00     2960.00
00876            -740.00     2880.00
00877            -740.00     2880.00
00878            -740.00     2880.00
00879            -720.00     2800.00
00880            -700.00     2720.00
00881            -720.00     2720.00
00882            -700.00     2720.00
00883            -700.00     2640.00
00884            -700.00     2560.00
00885            -680.00     2560.00
00886            -680.00     2560.00
00887            -680.00     2560.00
00888            -660.00     2480.00
00889            -660.00     2400.00
00890            -640.00     2480.00
00891            -620.00     2400.00
00892            -620.00     2320.00
00893            -600.00     2320.00
00894            -620.00     2320.00
00895            -600.00     2240.00
00896            -580.00     2160.00
00897            -600.00     2160.00
00898            -580.00     2080.00
00899            -580.00     2080.00
00900            -540.00     2000.00
00901            -540.00     1920.00
00902            -540.00     1920.00
00903            -540.00     1920.00
00904            -520.00     1840.00
00905            -520.00     1840.00
00906            -520.00     1840.00
00907            -500.00     1840.00
00908            -480.00     1760.00
00909            -500.00     1760.00
00910            -460.00     1600.00
00911            -460.00     1600.00
00912            -460.00     1600.00
00913            -460.00     1520.00
00914            -460.00     1520.00
00915            -440.00     1440.00
00916            -420.00     1440.00
00917            -420.00     1360.00
00918            -420.00     1440.00
00919            -420.00     1360.00
00920            -380.00     1280.00
00921            -420.00     1280.00
00922            -380.00     1200.00
00923            -380.00     1200.00
00924            -360.00     1200.00
00925            -360.00     1120.00
00926            -360.00     1120.00
00927            -340.00     1120.00
00928            -340.00      960.00
00929            -320.00      960.00
00930            -300.00      880.00
00931            -340.00      880.00
00932            -300.00      880.00
00933            -300.00      800.00
00934            -280.00      800.00
00935            -280.00      800.00
00936            -280.00      720.00
00937            -260.00      640.00
00938            -280.00      640.00
00939            -260.00      560.00
00940            -220.00      560.00
00941            -260.00      480.00
00942            -220.00      480.00
00943            -220.00      480.00
00944            -220.00      320.00
00945            -200.00      320.00
00946            -200.00      320.00
00947            -200.00      240.00
00948            -200.00      240.00
00949            -160.00      160.00
00950            -160.00      160.00
00951            -140.00      160.00
00952            -140.00       80.00
00953            -140.00       80.00
00954            -120.00        0.00
00955            -100.00        0.00
00956            -120.00      -80.00
00957            -100.00     -160.00
00958            -100.00     -160.00
00959            -100.00     -160.00
00960             -60.00     -240.00
00961             -60.00     -240.00
00962             -60.00     -320.00
00963             -40.00     -320.00
00964             -40.00     -320.00
00965             -20.00     -320.00
00966             -20.00     -400.00
00967               0.00     -480.00
00968             -20.00     -560.00
00969             -20.00     -640.00
00970             -20.00     -640.00
00971              40.00     -480.00
00972              20.00     -720.00
00973              20.00     -800.00
00974              40.00     -640.00
00975              80.00     -720.00
00976              40.00     -960.00
00977              60.00     -880.00
00978             100.00     -800.00
00979              60.00    -1040.00
00980             100.00     -960.00
00981             120.00     -960.00
00982             120.00    -1120.00
00983             120.00    -1120.00
00984             140.00    -1040.00
00985             120.00    -1120.00
00986             160.00    -1280.00
00987             180.00    -1280.00
00988             180.00    -1280.00
00989             180.00    -1360.00
00990             200.00    -1360.00
00991             180.00    -1440.00
00992             200.00    -1440.00
00993             220.00    -1440.00
00994             220.00    -1600.00
00995             220.00    -1600.00
00996             220.00    -1600.00
00997             240.00    -1600.00
00998             240.00    -1680.00
00999             260.00    -1680.00
01000             260.00    -1760.00
01001             260.00    -1760.00
01002             280.00    -1840.00
01003             280.00    -1840.00
01004             300.00    -1920.00
01005             300.00    -1840.00
01006             300.00    -1920.00
01007             340.00    -2000.00
01008             340.00    -2080.00
01009             360.00    -2080.00
01010             340.00    -2160.00
01011             340.00    -2240.00
01012             360.00    -2240.00
01013             360.00    -2240.00
01014             380.00    -2240.00
01015             380.00    -2320.00
01016             380.00    -2400.00
01017             380.00    -2400.00
01018             420.00    -2400.00
01019             420.00    -2400.00
01020             420.00    -2480.00
01021             420.00    -2560.00
01022             440.00    -2560.00
01023             460.00    -2640.00
01024             460.00    -2640.00
01025             460.00    -2640.00
01026             500.00    -2720.00
01027             500.00    -2720.00
01028             500.00    -2800.00
01029             520.00    -2720.00
01030             520.00    -2880.00
01031             520.00    -2880.00
01032             540.00    -2880.00
01033             540.00    -2960.00
01034             540.00    -2960.00
01035             540.00    -2960.00
01036             580.00    -3040.00
01037             580.00    -3120.00
01038             580.00    -3040.00
01039             600.00    -3120.00
01040             580.00    -3200.00
01041             600.00    -3200.00
01042             600.00    -3280.00
01043             620.00    -3280.00
01044             640.00    -3360.00
01045             620.00    -3360.00
01046             660.00    -3360.00
01047             660.00    -3360.00
01048             680.00    -3520.00
01049             680.00    -3360.00
01050             680.00    -3520.00
01051             680.00    -3520.00
01052             680.00    -3600.00
01053             700.00    -3600.00
01054             700.00    -3600.00
01055             700.00    -3680.00
01056             720.00    -3680.00
01057             740.00    -3680.00
01058             740.00    -3760.00
01059             740.00    -3760.00
01060             760.00    -3840.00
01061             760.00    -3840.00
01062             760.00    -3920.00
01063             760.00    -3920.00
01064             760.00    -3920.00
01065             760.00    -3920.00
01066             780.00    -4000.00
01067             800.00    -4000.00
01068             780.00    -4080.00
01069             820.00    -4080.00
01070             820.00    -4160.00
01071             820.00    -4160.00
01072             820.00    -4160.00
01073             840.00    -4240.00
01074             840.00    -4240.00
01075             840.00    -4240.00
01076             840.00    -4320.00
01077             840.00    -4320.00
01078             860.00    -4320.00
01079             860.00    -4320.00
01080             880.00    -4400.00
01081             900.00    -4400.00
01082             900.00    -4480.00
01083             900.00    -4400.00
01084             900.00    -4480.00
01085             900.00    -4560.00
01086             900.00    -4560.00
01087             920.00    -4640.00
01088             920.00    -4560.00
01089             920.00    -4640.00
01090             920.00    -4640.00
01091             960.00    -4640.00
01092             960.00    -4720.00
01093             980.00    -4800.00
01094             960.00    -4800.00
01095            1000.00    -4800.00
01096             980.00    -4880.00
01097            1000.00    -4800.00
01098            1000.00    -4880.00
01099            1000.00    -4960.00
01100            1000.00    -4960.00
01101            1000.00    -4960.00
01102            1020.00    -4960.00
01103            1020.00    -4960.00
01104            1020.00    -4960.00
01105            1040.00    -4960.00
01106            1060.00    -5040.00
01107            1060.00    -5040.00
01108            1060.00    -5120.00
01109            1060.00    -5120.00
01110            1060.00    -5200.00
01111            1060.00    -5200.00
01112            1080.00    -5200.00
01113            1080.00    -5200.00
01114            1080.00    -5200.00
01115            1080.00    -5280.00
01116            1100.00    -5280.00
01117            1100.00    -5280.00
01118            1100.00    -5280.00
01119            1100.00    -5280.00
01120            1100.00    -5360.00
01121            1140.00    -5440.00
01122            1140.00    -5360.00
01123            1140.00    -5440.00
01124            1160.00    -5440.00
01125            1160.00    -5520.00
01126            1140.00    -5440.00
01127            1160.00    -5520.00
01128            1160.00    -5520.00
01129            1160.00    -5520.00
01130            1160.00    -5520.00
01131            1160.00    -5520.00
01132            1160.00    -5600.00
01133            1180.00    -5600.00
01134            1160.00    -5600.00
01135            1180.00    -5600.00
01136            1180.00    -5680.00
01137            1180.00    -5760.00
01138            1200.00    -5680.00
01139            1200.00    -5680.00
01140            1220.00    -5760.00
01141            1220.00    -5680.00
01142            1220.00    -5760.00
01143            1220.00    -5760.00
01144            1220.00    -5760.00
01145            1220.00    -5760.00
01146            1220.00    -5840.00
01147            1220.00    -5760.00
01148            1240.00    -5840.00
01149            1220.00    -5840.00
01150            1240.00    -5840.00
01151            1240.00    -5920.00
01152            1240.00    -5920.00
01153            1260.00    -5920.00
01154            1260.00    -5920.00
01155            1260.00    -5920.00
01156            1260.00    -5920.00
01157            1260.00    -5920.00
01158            1280.00    -5920.00
01159            1300.00    -6000.00
01160            1280.00    -5920.00
01161            1280.00    -5920.00
01162            1260.00    -6000.00
01163            1300.00    -6000.00
01164            1280.00    -6000.00
01165            1300.00    -6080.00
01166            1300.00    -6000.00
01167            1300.00    -6080.00
01168            1300.00    -6080.00
01169            1320.00    -6080.00
01170            1320.00    -6080.00
01171            1320.00    -6080.00
01172            1320.00    -6080.00
01173            1320.00    -6080.00
01174            1320.00    -6080.00
01175            1340.00    -6160.00
01176            1320.00    -6080.00
01177            1320.00    -6160.00
01178            1320.00    -6080.00
01179            1340.00    -6160.00
01180            1320.00    -6080.00
01181            1340.00    -6080.00
01182            1340.00    -6160.00
01183            1320.00    -6160.00
01184            1340.00    -6160.00
01185            1340.00    -6160.00
01186            1340.00    -6160.00
01187            1340.00    -6160.00
01188            1380.00    -6160.00
01189            1380.00    -6160.00
01190            1340.00    -6240.00
01191            1340.00    -6160.00
01192            1380.00    -6160.00
01193            1340.00    -6240.00
01194            1380.00    -6240.00
01195            1340.00    -6160.00
01196            1360.00    -6240.00
01197            1360.00    -6160.00
01198            1360.00    -6240.00
01199            1380.00    -6240.00
01200            1360.00    -6160.00
01201            1380.00    -6240.00
01202            1380.00    -6240.00
01203            1340.00    -6240.00
01204            1380.00    -6160.00
01205            1340.00    -6240.00
01206            1380.00    -6240.00
01207            1380.00    -6240.00
01208            1360.00    -6240.00
01209            1380.00    -6240.00
01210            1380.00    -6240.00
01211            1380.00    -6160.00
01212            1380.00    -6240.00
01213            1380.00    -6240.00
01214            1380.00    -6160.00
01215            1380.00    -6240.00
01216            1380.00    -6240.00
01217            1380.00    -6240.00
01218            1380.00    -6240.00
01219            1380.00    -6240.00
01220            1380.00    -6160.00
01221            1380.00    -6160.00
01222            1380.00    -6240.00
01223            1380.00    -6160.00
01224            1380.00    -6160.00
01225            1380.00    -6160.00
01226            1380.00    -6160.00
01227            1380.00    -6240.00
01228            1380.00    -6160.00
01229            1380.00    -6160.00
01230            1380.00    -6160.00
01231            1380.00    -6160.00
01232            1380.00    -6160.00
01233            1380.00    -6160.00
01234            1380.00    -6080.00
01235            1380.00    -6160.00
01236            1360.00    -6080.00
01237            1380.00    -6080.00
01238            1380.00    -6160.00
01239            1380.00    -6080.00
01240            1360.00    -6080.00
01241            1380.00    -6080.00
01242            1360.00    -6080.00
01243            1380.00    -6080.00
01244            1380.00    -6080.00
01245            1380.00    -6080.00
01246            1380.00    -6080.00
01247            1360.00    -6000.00
01248            1380.00    -6080.00
01249            1340.00    -6000.00
01250            1340.00    -6000.00
01251            1360.00    -6000.00
01252            1380.00    -6080.00
01253            1340.00    -5920.00
01254            1340.00    -5920.00
01255            1340.00    -5920.00
01256            1340.00    -5920.00
01257            1320.00    -5920.00
01258            1340.00    -5920.00
01259            1340.00    -5920.00
01260            1320.00    -5920.00
01261            1320.00    -5840.00
01262            1320.00    -5920.00
01263            1320.00    -5840.00
01264            1320.00    -5920.00
01265            1320.00    -5840.00
01266            1320.00    -5760.00
01267            1320.00    -5760.00
01268            1300.00    -5760.00
01269            1320.00    -5760.00
01270            1300.00    -5760.00
01271            1300.00    -5760.00
01272            1300.00    -5760.00
01273            1300.00    -5680.00
01274            1300.00    -5680.00
01275            1300.00    -5680.00
01276            1300.00    -5600.00
01277            1300.00    -5600.00
01278            1280.00    -5600.00
01279            1300.00    -5600.00
01280            1260.00    -5600.00
01281            1260.00    -5600.00
01282            1260.00    -5600.00
01283            1260.00    -5520.00
01284            1260.00    -5520.00
01285            1260.00    -5520.00
01286            1260.00    -5440.00
01287            1260.00    -5440.00
01288            1260.00    -5440.00
01289            1260.00    -5440.00
01290            1260.00    -5440.00
01291            1260.00    -5360.00
01292            1240.00    -5440.00
01293            1240.00    -5280.00
01294            1240.00    -5280.00
01295            1220.00    -5280.00
01296            1220.00    -5280.00
01297            1220.00    -5280.00
01298            1220.00    -5280.00
01299            1220.00    -5200.00
01300            1220.00    -5200.00
01301            1220.00    -5200.00
01302            1220.00    -5200.00
01303            1200.00    -5120.00
01304            1180.00    -5120.00
01305            1200.00    -5120.00
01306            1180.00    -5120.00
01307            1180.00    -5120.00
01308            1180.00    -5040.00
01309            1180.00    -4960.00
01310            1180.00    -4960.00
01311            1160.00    -4960.00
01312            1160.00    -4960.00
01313            1160.00    -4880.00
01314            1160.00    -4880.00
01315            1140.00    -4880.00
01316            1160.00    -4880.00
01317            1160.00    -4800.00
01318            1140.00    -4800.00
01319            1140.00    -4800.00
01320            1140.00    -4800.00
01321            1120.00    -4720.00
01322            1120.00    -4640.00
01323            1100.00    -4720.00
01324            1100.00    -4640.00
01325            1080.00    -4640.00
01326            1080.00    -4560.00
01327            1080.00    -4640.00
01328            1080.00    -4560.00
01329            1080.00    -4480.00
01330            1060.00    -4480.00
01331            1060.00    -4480.00
01332            1060.00    -4400.00
01333            1060.00    -4400.00
01334            1060.00    -4400.00
01335            1060.00    -4320.00
01336            1020.00    -4320.00
01337            1020.00    -4320.00
01338            1020.00    -4240.00
01339            1020.00    -4240.00
01340            1000.00    -4240.00
01341            1020.00    -4160.00
01342            1000.00    -4160.00
01343            1000.00    -4160.00
01344            1000.00    -4160.00
01345            1000.00    -4080.00
01346             980.00    -4000.00
01347             980.00    -4000.00
01348             980.00    -4000.00
01349             980.00    -4000.00
01350             940.00    -3920.00
01351             940.00    -3920.00
01352             960.00    -3840.00
01353             940.00    -3840.00
01354             920.00    -3840.00
01355             940.00    -3840.00
01356             920.00    -3760.00
01357             920.00    -3680.00
01358             900.00    -3680.00
01359             900.00    -3680.00
01360             900.00    -3680.00
01361             900.00    -3520.00
01362             900.00    -3600.00
01363             880.00    -3520.00
01364             880.00    -3520.00
01365             860.00    -3440.00
01366             860.00    -3520.00
01367             840.00    -3360.00
01368             860.00    -3360.00
01369             840.00    -3360.00
01370             840.00    -3360.00
01371             840.00    -3200.00
01372             820.00    -3280.00
01373             820.00    -3200.00
01374             820.00    -3200.00
01375             800.00    -3200.00
01376             780.00    -3120.00
01377             780.00    -3040.00
01378             780.00    -3040.00
01379             780.00    -3040.00
01380             780.00    -2960.00
01381             760.00    -2960.00
01382             740.00    -2880.00
01383             740.00    -2880.00
01384             760.00    -2880.00
01385             740.00    -2800.00
01386             740.00    -2800.00
01387             700.00    -2720.00
01388             700.00    -2640.00
01389             680.00    -2640.00
01390             680.00    -2640.00
01391             680.00    -2640.00
01392             680.00    -2560.00
01393             660.00    -2560.00
01394             660.00    -2480.00
01395             660.00    -2480.00
01396             640.00    -2400.00
01397             620.00    -2400.00
01398             620.00    -2320.00
01399             620.00    -2320.00
01400             620.00    -2240.00
01401             600.00    -2240.00
01402             600.00    -2240.00
01403             580.00    -2160.00
01404             580.00    -2080.00
01405             580.00    -2080.00
01406             580.00    -2000.00
01407             580.00    -2000.00
01408             540.00    -2000.00
01409             540.00    -1920.00
01410             520.00    -1840.00
01411             540.00    -1920.00
01412             520.00    -1840.00
01413             520.00    -1760.00
01414             500.00    -1760.00
01415             520.00    -1680.00
01416             500.00    -1680.00
01417             500.00    -1600.00
01418             460.00    -1680.00
01419             480.00    -1600.00
01420             460.00    -1600.00
01421             440.00    -1440.00
01422             440.00    -1440.00
01423             440.00    -1440.00
01424             420.00    -1440.00
01425             420.00    -1360.00
01426             420.00    -1360.00
01427             420.00    -1280.00
01428             420.00    -1280.00
01429             400.00    -1200.00
01430             380.00    -1200.00
01431             380.00    -1120.00
01432             360.00    -1120.00
01433             360.00    -1120.00
01434             360.00    -1040.00
01435             340.00    -1040.00
01436             360.00     -960.00
01437             340.00     -960.00
01438             340.00     -880.00
01439             300.00     -800.00
01440             300.00     -800.00
01441             300.00     -720.00
01442             280.00     -720.00
01443             280.00     -640.00
01444             260.00     -720.00
01445             260.00     -640.00
01446             260.00     -560.00
01447             260.00     -560.00
01448             240.00     -480.00
01449             220.00     -480.00
01450             220.00     -400.00
01451             200.00     -320.00
01452             200.00     -320.00
01453             200.00     -320.00
01454             180.00     -240.00
01455             180.00     -240.00
01456             140.00     -160.00
01457             140.00     -160.00
01458             140.00     -160.00
01459             140.00      -80.00
01460             140.00      -80.00
01461             120.00        0.00
01462             120.00        0.00
01463             100.00        0.00
01464             100.00      160.00
01465             100.00      160.00
01466              80.00      160.00
01467              60.00      240.00
01468              60.00      240.00
01469              60.00      320.00
01470              40.00      240.00
01471              40.00      320.00
01472              40.00      320.00
01473              40.00      480.00
01474              20.00      560.00
01475              20.00      560.00
01476             -40.00      480.00
01477             -20.00      560.00
01478              20.00      800.00
01479             -20.00      800.00
01480             -60.00      640.00
01481             -40.00      800.00
01482             -20.00      960.00
01483             -60.00      800.00
01484             -80.00      800.00
01485             -40.00     1040.00
01486             -60.00      960.00
01487            -100.00      880.00
01488            -100.00     1120.00
01489            -100.00     1120.00
01490            -120.00     1040.00
01491            -120.00     1200.00
01492            -120.00     1280.00
01493            -140.00     1120.00
01494            -120.00     1280.00
01495            -140.00     1280.00
01496            -160.00     1280.00
01497            -180.00     1440.00
01498            -180.00     1440.00
01499            -200.00     1440.00
01500            -200.00     1520.00
01501            -200.00     1520.00
01502            -220.00     1520.00
01503            -220.00     1600.00
01504            -220.00     1680.00
01505            -240.00     1600.00
01506            -240.00     1760.00
01507            -240.00     1760.00
01508            -280.00     1760.00
01509            -280.00     1840.00
01510            -280.00     1840.00
01511            -300.00     1920.00
01512            -280.00     1920.00
01513            -300.00     1920.00
01514            -320.00     2000.00
01515            -340.00     2080.00
01516            -300.00     2160.00
01517            -360.00     2160.00
01518            -360.00     2240.00
01519            -380.00     2240.00
01520            -360.00     2240.00
01521            -380.00     2240.00
01522            -380.00     2240.00
01523            -400.00     2400.00
01524            -420.00     2400.00
01525            -420.00     2400.00
01526            -420.00     2480.00
01527            -440.00     2480.00
01528            -440.00     2560.00
01529            -440.00     2560.00
01530            -460.00     2560.00
01531            -460.00     2640.00
01532            -460.00     2640.00
01533            -480.00     2720.00
01534            -500.00     2720.00
01535            -500.00     2800.00
01536            -500.00     2800.00
01537            -520.00     2800.00
01538            -520.00     2880.00
01539            -540.00     2880.00
01540            -540.00     2960.00
01541            -560.00     2960.00
01542            -580.00     3040.00
01543            -540.00     3040.00
01544            -580.00     3120.00
01545            -560.00     3200.00
01546            -580.00     3200.00
01547            -600.00     3200.00
01548            -600.00     3280.00
01549            -600.00     3200.00
01550            -600.00     3360.00
01551            -620.00     3360.00
01552            -620.00     3360.00
01553            -620.00     3360.00
01554            -620.00     3360.00
01555            -660.00     3440.00
01556            -660.00     3440.00
01557            -660.00     3520.00
01558            -680.00     3520.00
01559            -680.00     3520.00
01560            -680.00     3680.00
01561            -700.00     3680.00
01562            -700.00     3680.00
01563            -700.00     3680.00
01564            -700.00     3760.00
01565            -740.00     3760.00
01566            -740.00     3840.00
01567            -760.00     3760.00
01568            -740.00     3840.00
01569            -740.00     3840.00
01570            -760.00     4000.00
01571            -760.00     4000.00
01572            -760.00     4080.00
01573            -780.00     4000.00
01574            -780.00     4080.00
01575            -780.00     4080.00
01576            -820.00     4080.00
01577            -820.00     4160.00
01578            -820.00     4160.00
01579            -820.00     4160.00
01580            -840.00     4240.00
01581            -840.00     4320.00
01582            -860.00     4320.00
01583            -840.00     4320.00
01584            -860.00     4320.00
01585            -860.00     4400.00
01586            -860.00     4400.00
01587            -900.00     4400.00
01588            -880.00     4480.00
01589            -900.00     4480.00
01590            -900.00     4480.00
01591            -920.00     4560.00
01592            -920.00     4640.00
01593            -920.00     4640.00
01594            -920.00     4640.00
01595            -920.00     4640.00
01596            -940.00     4640.00
01597            -940.00     4720.00
01598            -940.00     4720.00
01599            -940.00     4720.00
01600            -940.00     4800.00
01601            -960.00     4800.00
01602            -980.00     4880.00
01603           -1000.00     4880.00
01604            -980.00     4800.00
01605           -1000.00     4960.00
01606           -1000.00     4960.00
01607           -1000.00     4960.00
01608           -1020.00     4960.00
01609           -1020.00     5040.00
01610           -1020.00     5040.00
01611           -1020.00     5040.00
01612           -1040.00     5120.00
01613           -1020.00     5120.00
01614           -1060.00     5120.00
01615           -1060.00     5120.00
01616           -1060.00     5200.00
01617           -1060.00     5200.00
01618           -1060.00     5280.00
01619           -1060.00     5280.00
01620           -1080.00     5280.00
01621           -1080.00     5280.00
01622           -1080.00     5280.00
01623           -1080.00     5280.00
01624           -1080.00     5360.00
01625           -1100.00     5360.00
01626           -1080.00     5360.00
01627           -1100.00     5440.00
01628           -1100.00     5360.00
01629           -1100.00     5440.00
01630           -1140.00     5440.00
01631           -1100.00     5440.00
01632           -1140.00     5440.00
01633           -1140.00     5440.00
01634           -1140.00     5600.00
01635           -1140.00     5600.00
01636           -1160.00     5520.00
01637           -1140.00     5600.00
01638           -1160.00     5600.00
01639           -1160.00     5680.00
01640           -1160.00     5680.00
01641           -1180.00     5680.00
01642           -1160.00     5680.00
01643           -1180.00     5680.00
01644           -1180.00     5680.00
01645           -1180.00     5760.00
01646           -1180.00     5840.00
01647           -1220.00     5840.00
01648           -1180.00     5760.00
01649           -1240.00     5840.00
01650           -1220.00     5760.00
01651           -1240.00     5840.00
01652           -1240.00     5840.00
01653           -1240.00     5840.00
01654           -1240.00     5920.00
01655           -1240.00     5920.00
01656           -1240.00     5920.00
01657           -1240.00     5920.00
01658           -1240.00     5920.00
01659           -1260.00     6000.00
01660           -1260.00     5920.00
01661           -1260.00     6000.00
01662           -1240.00     6000.00
01663           -1260.00     5920.00
01664           -1260.00     6000.00
01665           -1260.00     6000.00
01666           -1260.00     6000.00
01667           -1280.00     6000.00
01668           -1280.00     6000.00
01669           -1260.00     6000.00
01670           -1300.00     6000.00
01671           -1280.00     6080.00
01672           -1300.00     6080.00
01673           -1320.00     6080.00
01674           -1300.00     6080.00
01675           -1320.00     6080.00
01676           -1300.00     6080.00
01677           -1300.00     6160.00
01678           -1300.00     6080.00
01679           -1320.00     6240.00
01680           -1320.00     6160.00
01681           -1320.00     6160.00
01682           -1320.00     6240.00
01683           -1320.00     6160.00
01684           -1320.00     6240.00
01685           -1320.00     6240.00
01686           -1340.00     6240.00
01687           -1340.00     6240.00
01688           -1320.00     6240.00
01689           -1320.00     6240.00
01690           -1340.00     6240.00
01691           -1320.00     6240.00
01692           -1340.00     6240.00
01693           -1340.00     6320.00
01694           -1340.00     6240.00
01695           -1320.00     6240.00
01696           -1340.00     6240.00
01697           -1340.00     6320.00
01698           -1360.00     6240.00
01699           -1340.00     6320.00
01700           -1340.00     6320.00
01701           -1340.00     6320.00
01702           -1340.00     6320.00
01703           -1380.00     6320.00
01704           -1340.00     6320.00
01705           -1360.00     6320.00
01706           -1340.00     6320.00
01707           -1360.00     6320.00
01708           -1380.00     6320.00
01709           -1380.00     6320.00
01710           -1340.00     6320.00
01711           -1360.00     6320.00
01712           -1340.00     6320.00
01713           -1380.00     6320.00
01714           -1380.00     6320.00
01715           -1380.00     6320.00
01716           -1360.00     6320.00
01717           -1380.00     6320.00
01718           -1380.00     6320.00
01719           -1380.00     6240.00
01720           -1380.00     6320.00
01721           -1400.00     6320.00
01722           -1360.00     6320.00
01723           -1400.00     6320.00
01724           -1380.00     6320.00
01725           -1380.00     6320.00
01726           -1380.00     6320.00
01727           -1380.00     6240.00
01728           -1380.00     6320.00
01729           -1380.00     6240.00
01730           -1400.00     6320.00
01731           -1400.00     6320.00
01732           -1380.00     6240.00
01733           -1380.00     6240.00
01734           -1380.00     6320.00
01735           -1380.00     6240.00
01736           -1380.00     6240.00
01737           -1380.00     6240.00
01738           -1380.00     6240.00
01739           -1380.00     6240.00
01740           -1380.00     6240.00
01741           -1400.00     6240.00
01742           -1380.00     6240.00
01743           -1380.00     6240.00
01744           -1380.00     6240.00
01745           -1380.00     6240.00
01746           -1380.00     6160.00
01747           -1380.00     6160.00
01748           -1360.00     6160.00
01749           -1380.00     6080.00
01750           -1380.00     6160.00
01751           -1340.00     6080.00
01752           -1340.00     6080.00
01753           -1360.00     6080.00
01754           -1340.00     6080.00
01755           -1340.00     6080.00
01756           -1340.00     6080.00
01757           -1340.00     6080.00
01758           -1360.00     6000.00
01759           -1380.00     6080.00
01760           -1340.00     6080.00
01761           -1340.00     6000.00
01762           -1340.00     6000.00
01763           -1340.00     6000.00
01764           -1340.00     6000.00
01765           -1340.00     6000.00
01766           -1320.00     6000.00
01767           -1340.00     5920.00
01768           -1340.00     6000.00
01769           -1340.00     5920.00
01770           -1320.00     6000.00
01771           -1340.00     5920.00
01772           -1320.00     5920.00
01773           -1340.00     5920.00
01774           -1320.00     5920.00
01775           -1320.00     5760.00
01776           -1320.00     5840.00
01777           -1320.00     5840.00
01778           -1320.00     5840.00
01779           -1320.00     5840.00
01780           -1320.00     5840.00
01781           -1320.00     5760.00
01782           -1300.00     5760.00
01783           -1300.00     5680.00
01784           -1320.00     5680.00
01785           -1300.00     5760.00
01786           -1320.00     5680.00
01787           -1300.00     5680.00
01788           -1300.00     5680.00
01789           -1280.00     5680.00
01790           -1300.00     5600.00
01791           -1260.00     5680.00
01792           -1280.00     5600.00
01793           -1280.00     5600.00
01794           -1260.00     5600.00
01795           -1260.00     5600.00
01796           -1260.00     5520.00
01797           -1260.00     5520.00
01798           -1260.00     5440.00
01799           -1240.00     5440.00
01800           -1240.00     5440.00
01801           -1260.00     5360.00
01802           -1240.00     5440.00
01803           -1240.00     5360.00
01804           -1240.00     5280.00
01805           -1240.00     5360.00
01806           -1240.00     5360.00
01807           -1220.00     5280.00
01808           -1220.00     5360.00
01809           -1220.00     5200.00
01810           -1220.00     5280.00
01811           -1220.00     5280.00
01812           -1200.00     5200.00
01813           -1220.00     5120.00
01814           -1200.00     5120.00
01815           -1180.00     5120.00
01816           -1180.00     5120.00
01817           -1180.00     5040.00
01818           -1180.00     5040.00
01819           -1160.00     5040.00
01820           -1180.00     4960.00
01821           -1140.00     4960.00
01822           -1160.00     4960.00
01823           -1160.00     4960.00
01824           -1140.00     4960.00
01825           -1160.00     4880.00
01826           -1120.00     4880.00
01827           -1140.00     4800.00
01828           -1140.00     4800.00
01829           -1100.00     4800.00
01830           -1100.00     4800.00
01831           -1100.00     4720.00
01832           -1100.00     4720.00
01833           -1100.00     4720.00
01834           -1080.00     4720.00
01835           -1100.00     4640.00
01836           -1080.00     4640.00
01837           -1080.00     4560.00
01838           -1060.00     4480.00
01839           -1060.00     4560.00
01840           -1060.00     4480.00
01841           -1060.00     4480.00
01842           -1060.00     4480.00
01843           -1060.00     4480.00
01844           -1040.00     4400.00
01845           -1020.00     4320.00
01846           -1040.00     4320.00
01847           -1020.00     4320.00
01848           -1020.00     4320.00
01849           -1020.00     4240.00
01850           -1020.00     4160.00
01851           -1000.00     4240.00
01852           -1000.00     4160.00
01853           -1000.00     4160.00
01854           -1000.00     4080.00
01855           -1000.00     4080.00
01856           -1000.00     4080.00
01857            -980.00     4080.00
01858            -960.00     4000.00
01859            -940.00     4000.00
01860            -940.00     4000.00
01861            -960.00     3920.00
01862            -940.00     3920.00
01863            -940.00     3840.00
01864            -920.00     3840.00
01865            -920.00     3760.00
01866            -920.00     3760.00
01867            -920.00     3760.00
01868            -920.00     3760.00
01869            -900.00     3680.00
01870            -900.00     3680.00
01871            -880.00     3600.00
01872            -880.00     3520.00
01873            -860.00     3520.00
01874            -860.00     3520.00
01875            -860.00     3440.00
01876            -860.00     3440.00
01877            -840.00     3440.00
01878            -840.00     3360.00
01879            -840.00     3360.00
01880            -840.00     3280.00
01881            -820.00     3360.00
01882            -820.00     3200.00
01883            -780.00     3200.00
01884            -780.00     3200.00
01885            -780.00     3120.00
01886            -760.00     3120.00
01887            -760.00     3040.00
01888            -760.00     3040.00
01889            -760.00     3040.00
01890            -760.00     3040.00
01891            -760.00     2960.00
01892            -740.00     2880.00
01893            -740.00     2880.00
01894            -700.00     2800.00
01895            -700.00     2800.00
01896            -700.00     2800.00
01897            -700.00     2720.00
01898            -700.00     2720.00
01899            -680.00     2640.00
01900            -700.00     2640.00
01901            -680.00     2560.00
01902            -660.00     2560.00
01903            -660.00     2560.00
01904            -660.00     2480.00
01905            -620.00     2480.00
01906            -620.00     2400.00
01907            -620.00     2400.00
01908            -620.00     2400.00
01909            -620.00     2400.00
01910            -620.00     2240.00
01911            -600.00     2240.00
01912            -600.00     2240.00
01913            -600.00     2240.00
01914            -600.00     2160.00
01915            -580.00     2080.00
01916            -580.00     2080.00
01917            -540.00     2080.00
01918            -540.00     2000.00
01919            -540.00     1920.00
01920            -540.00     1840.00
01921            -540.00     1840.00
01922            -520.00     1840.00
01923            -520.00     1760.00
01924            -520.00     1760.00
01925            -500.00     1760.00
01926            -480.00     1680.00
01927            -500.00     1600.00
01928            -460.00     1600.00
01929            -460.00     1520.00
01930            -440.00     1520.00
01931            -440.00     1600.00
01932            -440.00     1440.00
01933            -440.00     1440.00
01934            -420.00     1360.00
01935            -420.00     1360.00
01936            -420.00     1280.00
01937            -380.00     1280.00
01938            -380.00     1280.00
01939            -380.00     1200.00
01940            -360.00     1200.00
01941            -360.00     1120.00
01942            -360.00     1120.00
01943            -360.00     1040.00
01944            -340.00      960.00
01945            -340.00     1040.00
01946            -340.00      960.00
01947            -300.00      880.00
01948            -300.00      880.00
01949            -300.00      800.00
01950            -280.00      800.00
01951            -280.00      800.00
01952            -260.00      720.00
01953            -260.00      640.00
01954            -260.00      640.00
01955            -220.00      640.00
01956            -240.00      640.00
01957            -220.00      560.00
01958            -220.00      560.00
01959            -220.00      480.00
01960            -200.00      400.00
01961            -200.00      320.00
01962            -180.00      320.00
01963            -180.00      240.00
01964            -180.00      320.00
01965            -160.00      160.00
01966            -140.00      160.00
01967            -140.00      160.00
01968            -140.00      160.00
01969            -120.00       80.00
01970            -120.00        0.00
01971            -120.00        0.00
01972            -100.00      -80.00
01973            -120.00      -80.00
01974            -100.00      -80.00
01975            -100.00     -160.00
01976             -80.00     -160.00
01977             -80.00     -240.00
01978             -60.00     -320.00
01979             -60.00     -320.00
01980             -40.00     -320.00
01981             -60.00     -400.00
01982             -20.00     -400.00
01983             -20.00     -400.00
01984             -20.00     -560.00
01985             -40.00     -640.00
01986             -20.00     -640.00
01987              20.00     -480.00
01988              40.00     -640.00
01989               0.00     -880.00
01990              20.00     -800.00
01991              60.00     -720.00
01992              40.00     -800.00
01993              40.00     -960.00
01994              60.00     -800.00
01995             100.00     -880.00
01996              60.00    -1040.00
01997             100.00     -960.00
01998             100.00    -1040.00
01999             100.00    -1120.00
02000             120.00    -1120.00
02001             140.00    -1120.00
02002             120.00    -1280.00
02003             140.00    -1120.00
02004             160.00    -1280.00
02005             180.00    -1360.00
02006             180.00    -1360.00
02007             200.00    -1360.00
02008             180.00    -1440.00
02009             200.00    -1440.00
02010             200.00    -1440.00
02011             220.00    -1520.00
02012             220.00    -1600.00
02013             260.00    -1600.00
02014             260.00    -1600.00
02015             260.00    -1680.00
02016             260.00    -1680.00
02017             280.00    -1760.00
02018             280.00    -1760.00
02019             280.00    -1760.00
02020             300.00    -1840.00
02021             300.00    -1920.00
02022             340.00    -1840.00
02023             300.00    -2000.00
02024             340.00    -2000.00
02025             340.00    -2080.00
02026             360.00    -2080.00
02027             360.00    -2080.00
02028             360.00    -2160.00
02029             360.00    -2240.00
02030             380.00    -2240.00
02031             400.00    -2320.00
02032             400.00    -2320.00
02033             380.00    -2320.00
02034             420.00    -2400.00
02035             420.00    -2400.00
02036             420.00    -2400.00
02037             440.00    -2480.00
02038             440.00    -2560.00
02039             440.00    -2560.00
02040             460.00    -2640.00
02041             460.00    -2640.00
02042             460.00    -2640.00
02043             500.00    -2720.00
02044             500.00    -2800.00
02045             500.00    -2720.00
02046             520.00    -2800.00
02047             520.00    -2880.00
02048             540.00    -2880.00
02049             520.00    -2880.00
02050             540.00    -2960.00
02051             540.00    -2960.00
02052             540.00    -3040.00
02053             580.00    -3040.00
02054             540.00    -3120.00
02055             580.00    -3120.00
02056             580.00    -3120.00
02057             580.00    -3200.00
02058             620.00    -3200.00
02059             600.00    -3280.00
02060             620.00    -3280.00
02061             620.00    -3280.00
02062             620.00    -3360.00
02063             640.00    -3360.00
02064             660.00    -3360.00
02065             660.00    -3520.00
02066             680.00    -3520.00
02067             680.00    -3600.00
02068             680.00    -3520.00
02069             680.00    -3600.00
02070             700.00    -3600.00
02071             700.00    -3680.00
02072             700.00    -3680.00
02073             720.00    -3680.00
02074             740.00    -3680.00
02075             740.00    -3760.00
02076             740.00    -3840.00
02077             760.00    -3840.00
02078             760.00    -3840.00
02079             760.00    -3840.00
02080             760.00    -3920.00
02081             780.00    -3920.00
02082             800.00    -3920.00
02083             780.00    -4000.00
02084             780.00    -4080.00
02085             820.00    -4080.00
02086             820.00    -4160.00
02087             820.00    -4160.00
02088             840.00    -4160.00
02089             820.00    -4160.00
02090             840.00    -4240.00
02091             840.00    -4240.00
02092             840.00    -4240.00
02093             860.00    -4240.00
02094             860.00    -4320.00
02095             860.00    -4320.00
02096             900.00    -4320.00
02097             900.00    -4400.00
02098             900.00    -4400.00
02099             900.00    -4480.00
02100             900.00    -4400.00
02101             920.00    -4560.00
02102             920.00    -4480.00
02103             920.00    -4560.00
02104             920.00    -4560.00
02105             920.00    -4640.00
02106             940.00    -4640.00
02107             940.00    -4640.00
02108             940.00    -4720.00
02109             960.00    -4720.00
02110             960.00    -4800.00
02111             940.00    -4800.00
02112             980.00    -4800.00
02113             980.00    -4880.00
02114            1000.00    -4800.00
02115             980.00    -4880.00
02116            1000.00    -4880.00
02117            1000.00    -4880.00
02118            1000.00    -4960.00
02119            1000.00    -4960.00
02120            1040.00    -4960.00
02121            1000.00    -5040.00
02122            1020.00    -5120.00
02123            1020.00    -5040.00
02124            1020.00    -5120.00
02125            1060.00    -5120.00
02126            1060.00    -5120.00
02127            1040.00    -5200.00
02128            1060.00    -5200.00
02129            1060.00    -5200.00
02130            1060.00    -5200.00
02131            1060.00    -5200.00
02132            1080.00    -5280.00
02133            1080.00    -5280.00
02134            1100.00    -5360.00
02135            1100.00    -5360.00
02136            1100.00    -5280.00
02137            1100.00    -5360.00
02138            1140.00    -5440.00
02139            1140.00    -5360.00
02140            1140.00    -5440.00
02141            1160.00    -5440.00
02142            1140.00    -5520.00
02143            1140.00    -5440.00
02144            1160.00    -5440.00
02145            1160.00    -5520.00
02146            1160.00    -5520.00
02147            1160.00    -5520.00
02148            1160.00    -5520.00
02149            1180.00    -5600.00
02150            1180.00    -5600.00
02151            1180.00    -5600.00
02152            1160.00    -5680.00
02153            1200.00    -5600.00
02154            1220.00    -5680.00
02155            1200.00    -5680.00
02156            1180.00    -5680.00
02157            1220.00    -5760.00
02158            1220.00    -5760.00
02159            1220.00    -5760.00
02160            1220.00    -5760.00
02161            1220.00    -5760.00
02162            1220.00    -5840.00
02163            1220.00    -5840.00
02164            1220.00    -5760.00
02165            1240.00    -5840.00
02166            1240.00    -5840.00
02167            1240.00    -5840.00
02168            1240.00    -5920.00
02169            1240.00    -5840.00
02170            1260.00    -5840.00
02171            1260.00    -5920.00
02172            1240.00    -5920.00
02173            1260.00    -5920.00
02174            1260.00    -5920.00
02175            1280.00    -5920.00
02176            1280.00    -5920.00
02177            1300.00    -5920.00
02178            1300.00    -6000.00
02179            1300.00    -6080.00
02180            1300.00    -6000.00
02181            1260.00    -6000.00
02182            1300.00    -6080.00
02183            1300.00    -6080.00
02184            1300.00    -6080.00
02185            1300.00    -6080.00
02186            1300.00    -6080.00
02187            1320.00    -6080.00
02188            1320.00    -6080.00
02189            1300.00    -6080.00
02190            1320.00    -6160.00
02191            1320.00    -6080.00
02192            1320.00    -6160.00
02193            1320.00    -6160.00
02194            1320.00    -6160.00
02195            1320.00    -6080.00
02196            1320.00    -6080.00
02197            1320.00    -6160.00
02198            1320.00    -6160.00
02199            1340.00    -6160.00
02200            1340.00    -6160.00
02201            1340.00    -6160.00
02202            1320.00    -6240.00
02203            1340.00    -6160.00
02204            1340.00    -6160.00
02205            1340.00    -6240.00
02206            1340.00    -6160.00
02207            1340.00    -6240.00
02208            1340.00    -6160.00
02209            1380.00    -6240.00
02210            1360.00    -6160.00
02211            1380.00    -6240.00
02212            1380.00    -6240.00
02213            1380.00    -6240.00
02214            1380.00    -6240.00
02215            1360.00    -6160.00
02216            1380.00    -6240.00
02217            1380.00    -6240.00
02218            1360.00    -6240.00
02219            1400.00    -6160.00
02220            1380.00    -6240.00
02221            1380.00    -6240.00
02222            1380.00    -6240.00
02223            1380.00    -6240.00
02224            1380.00    -6240.00
02225            1380.00    -6240.00
02226            1380.00    -6160.00
02227            1380.00    -6240.00
02228            1380.00    -6240.00
02229            1380.00    -6240.00
02230            1380.00    -6240.00
02231            1380.00    -6160.00
02232            1400.00    -6240.00
02233            1380.00    -6240.00
02234            1380.00    -6240.00
02235            1380.00    -6160.00
02236            1380.00    -6240.00
02237            1380.00    -6160.00
02238            1380.00    -6160.00
02239            1380.00    -6160.00
02240            1380.00    -6160.00
02241            1380.00    -6160.00
02242            1380.00    -6160.00
02243            1380.00    -6160.00
02244            1380.00    -6160.00
02245            1380.00    -6160.00
02246            1380.00    -6160.00
02247            1380.00    -6160.00
02248            1380.00    -6080.00
02249            1380.00    -6160.00
02250            1340.00    -6160.00
02251            1380.00    -6160.00
02252            1340.00    -6080.00
02253            1340.00    -6160.00
02254            1380.00    -6160.00
02255            1360.00    -6080.00
02256            1380.00    -6080.00
02257            1340.00    -6080.00
02258            1360.00    -6080.00
02259            1380.00    -6080.00
02260            1340.00    -6080.00
02261            1360.00    -6000.00
02262            1340.00    -6080.00
02263            1340.00    -6080.00
02264            1340.00    -6000.00
02265            1340.00    -6000.00
02266            1360.00    -5920.00
02267            1380.00    -5920.00
02268            1360.00    -5920.00
02269            1340.00    -5920.00
02270            1340.00    -6000.00
02271            1340.00    -5920.00
02272            1340.00    -5920.00
02273            1340.00    -5920.00
02274            1340.00    -5920.00
02275            1340.00    -5840.00
02276            1340.00    -5840.00
02277            1340.00    -5920.00
02278            1320.00    -5840.00
02279            1320.00    -5840.00
02280            1340.00    -5840.00
02281            1320.00    -5760.00
02282            1320.00    -5840.00
02283            1320.00    -5760.00
02284            1320.00    -5840.00
02285            1320.00    -5760.00
02286            1320.00    -5760.00
02287            1320.00    -5760.00
02288            1300.00    -5680.00
02289            1320.00    -5680.00
02290            1300.00    -5760.00
02291            1300.00    -5680.00
02292            1300.00    -5600.00
02293            1300.00    -5600.00
02294            1300.00    -5600.00
02295            1300.00    -5520.00
02296            1300.00    -5520.00
02297            1300.00    -5600.00
02298            1260.00    -5520.00
02299            1260.00    -5520.00
02300            1260.00    -5520.00
02301            1260.00    -5440.00
02302            1260.00    -5440.00
02303            1260.00    -5440.00
02304            1240.00    -5440.00
02305            1260.00    -5440.00
02306            1240.00    -5440.00
02307            1240.00    -5440.00
02308            1240.00    -5440.00
02309            1240.00    -5360.00
02310            1240.00    -5280.00
02311            1220.00    -5280.00
02312            1220.00    -5280.00
02313            1220.00    -5200.00
02314            1220.00    -5280.00
02315            1220.00    -5280.00
02316            1220.00    -5200.00
02317            1220.00    -5280.00
02318            1220.00    -5200.00
02319            1200.00    -5120.00
02320            1180.00    -5120.00
02321            1180.00    -5120.00
02322            1180.00    -5120.00
02323            1180.00    -5040.00
02324            1160.00    -5120.00
02325            1160.00    -5040.00
02326            1180.00    -4960.00
02327            1160.00    -4960.00
02328            1160.00    -4960.00
02329            1160.00    -4880.00
02330            1160.00    -4960.00
02331            1160.00    -4880.00
02332            1140.00    -4880.00
02333            1140.00    -4880.00
02334            1140.00    -4800.00
02335            1140.00    -4800.00
02336            1100.00    -4800.00
02337            1100.00    -4800.00
02338            1100.00    -4640.00
02339            1100.00    -4640.00
02340            1100.00    -4640.00
02341            1100.00    -4560.00
02342            1100.00    -4560.00
02343            1100.00    -4560.00
02344            1080.00    -4560.00
02345            1080.00    -4560.00
02346            1080.00    -4400.00
02347            1060.00    -4400.00
02348            1060.00    -4480.00
02349            1060.00    -4400.00
02350            1080.00    -4400.00
02351            1040.00    -4320.00
02352            1060.00    -4400.00
02353            1020.00    -4320.00
02354            1060.00    -4240.00
02355            1040.00    -4240.00
02356            1020.00    -4240.00
02357            1020.00    -4240.00
02358            1000.00    -4160.00
02359            1000.00    -4080.00
02360            1000.00    -4000.00
02361            1000.00    -4000.00
02362             980.00    -4160.00
02363             980.00    -4000.00
02364            1000.00    -3920.00
02365             980.00    -3920.00
02366             980.00    -3920.00
02367             980.00    -3920.00
02368             940.00    -3840.00
02369             940.00    -3840.00
02370             920.00    -3840.00
02371             920.00    -3840.00
02372             900.00    -3680.00
02373             920.00    -3680.00
02374             900.00    -3680.00
02375             900.00    -3680.00
02376             900.00    -3600.00
02377             900.00    -3600.00
02378             900.00    -3600.00
02379             880.00    -3520.00
02380             900.00    -3520.00
02381             860.00    -3520.00
02382             860.00    -3520.00
02383             860.00    -3360.00
02384             840.00    -3360.00
02385             820.00    -3360.00
02386             820.00    -3360.00
02387             840.00    -3280.00
02388             820.00    -3280.00
02389             820.00    -3200.00
02390             820.00    -3200.00
02391             820.00    -3200.00
02392             780.00    -3120.00
02393             780.00    -3040.00
02394             760.00    -2960.00
02395             760.00    -3040.00
02396             760.00    -2960.00
02397             760.00    -2960.00
02398             760.00    -2960.00
02399             740.00    -2880.00
02400             740.00    -2880.00
02401             740.00    -2800.00
02402             740.00    -2800.00
02403             720.00    -2720.00
02404             700.00    -2720.00
02405             700.00    -2720.00
02406             700.00    -2560.00
02407             680.00    -2640.00
02408             680.00    -2640.00
02409             680.00    -2560.00
02410             680.00    -2480.00
02411             660.00    -2480.00
02412             660.00    -2400.00
02413             660.00    -2400.00
02414             620.00    -2400.00
02415             620.00    -2320.00
02416             620.00    -2320.00
02417             620.00    -2240.00
02418             620.00    -2240.00
02419             600.00    -2160.00
02420             600.00    -2160.00
02421             600.00    -2080.00
02422             580.00    -2080.00
02423             580.00    -2000.00
02424             580.00    -1920.00
02425             540.00    -1920.00
02426             540.00    -1840.00
02427             540.00    -1840.00
02428             540.00    -1840.00
02429             520.00    -1760.00
02430             520.00    -1760.00
02431             500.00    -1760.00
02432             500.00    -1680.00
02433             500.00    -1680.00
02434             460.00    -1600.00
02435             460.00    -1600.00
02436             460.00    -1600.00
02437             440.00    -1600.00
02438             440.00    -1440.00
02439             420.00    -1440.00
02440             420.00    -1440.00
02441             420.00    -1360.00
02442             420.00    -1280.00
02443             420.00    -1360.00
02444             380.00    -1280.00
02445             380.00    -1200.00
02446             380.00    -1280.00
02447             340.00    -1120.00
02448             360.00    -1120.00
02449             360.00    -1120.00
02450             360.00    -1040.00
02451             340.00    -1040.00
02452             340.00     -960.00
02453             340.00     -960.00
02454             300.00     -960.00
02455             320.00     -880.00
02456             300.00     -800.00
02457             300.00     -720.00
02458             280.00     -800.00
02459             280.00     -720.00
02460             260.00     -720.00
02461             280.00     -640.00
02462             260.00     -640.00
02463             260.00     -560.00
02464             260.00     -480.00
02465             220.00     -480.00
02466             220.00     -400.00
02467             220.00     -400.00
02468             200.00     -320.00
02469             200.00     -320.00
02470             200.00     -320.00
02471             200.00     -240.00
02472             180.00     -160.00
02473             180.00     -160.00
02474             160.00     -160.00
02475             140.00      -80.00
02476             140.00        0.00
02477             120.00        0.00
02478             140.00        0.00
02479             120.00       80.00
02480             120.00      160.00
02481             100.00      160.00
02482             100.00      160.00
02483             100.00      240.00
02484              60.00      240.00
02485              80.00      240.00
02486              40.00      320.00
02487              40.00      320.00
02488              40.00      320.00
02489              40.00      480.00
02490              60.00      560.00
02491              40.00      560.00
02492              20.00      560.00
02493             -20.00      560.00
02494              20.00      720.00
02495              20.00      800.00
02496             -40.00      640.00
02497             -60.00      720.00
02498             -40.00      880.00
02499             -40.00      800.00
02500             -80.00      800.00
02501             -60.00      960.00
02502             -60.00     1120.00
02503            -100.00      880.00
02504            -100.00      960.00
02505            -100.00     1120.00
02506            -120.00     1040.00
02507            -120.00     1120.00
02508            -120.00     1200.00
02509            -120.00     1200.00
02510            -160.00     1200.00
02511            -140.00     1360.00
02512            -140.00     1360.00
02513            -180.00     1360.00
02514            -180.00     1440.00
02515            -200.00     1440.00
02516            -220.00     1440.00
02517            -200.00     1600.00
02518            -220.00     1520.00
02519            -220.00     1600.00
02520            -220.00     1680.00
02521            -260.00     1600.00
02522            -260.00     1760.00
02523            -280.00     1760.00
02524            -260.00     1760.00
02525            -280.00     1840.00
02526            -280.00     1840.00
02527            -300.00     1840.00
02528            -280.00     1920.00
02529            -280.00     2000.00
02530            -300.00     2000.00
02531            -320.00     2080.00
02532            -340.00     2080.00
02533            -340.00     2080.00
02534            -340.00     2160.00
02535            -360.00     2160.00
02536            -380.00     2240.00
02537            -380.00     2240.00
02538            -380.00     2320.00
02539            -380.00     2400.00
02540            -400.00     2400.00
02541            -420.00     2400.00
02542            -420.00     2480.00
02543            -440.00     2560.00
02544            -440.00     2560.00
02545            -440.00     2560.00
02546            -440.00     2640.00
02547            -440.00     2640.00
02548            -460.00     2640.00
02549            -460.00     2720.00
02550            -500.00     2720.00
02551            -460.00     2720.00
02552            -460.00     2800.00
02553            -500.00     2800.00
02554            -520.00     2880.00
02555            -500.00     2880.00
02556            -520.00     2960.00
02557            -540.00     3040.00
02558            -540.00     3040.00
02559            -540.00     3040.00
02560            -580.00     3120.00
02561            -580.00     3120.00
02562            -580.00     3120.00
02563            -580.00     3200.00
02564            -600.00     3280.00
02565            -600.00     3200.00
02566            -600.00     3280.00
02567            -620.00     3360.00
02568            -660.00     3360.00
02569            -620.00     3440.00
02570            -640.00     3440.00
02571            -660.00     3440.00
02572            -660.00     3440.00
02573            -660.00     3520.00
02574            -660.00     3520.00
02575            -680.00     3520.00
02576            -700.00     3600.00
02577            -700.00     3680.00
02578            -700.00     3680.00
02579            -700.00     3680.00
02580            -700.00     3760.00
02581            -740.00     3760.00
02582            -720.00     3840.00
02583            -740.00     3840.00
02584            -760.00     3840.00
02585            -760.00     3840.00
02586            -760.00     3920.00
02587            -760.00     3920.00
02588            -760.00     4000.00
02589            -760.00     4000.00
02590            -780.00     4080.00
02591            -780.00     4080.00
02592            -780.00     4160.00
02593            -800.00     4160.00
02594            -820.00     4160.00
02595            -820.00     4160.00
02596            -840.00     4160.00
02597            -840.00     4240.00
02598            -840.00     4320.00
02599            -840.00     4320.00
02600            -840.00     4320.00
02601            -860.00     4320.00
02602            -860.00     4400.00
02603            -860.00     4400.00
02604            -860.00     4400.00
02605            -900.00     4480.00
02606            -900.00     4480.00
02607            -900.00     4480.00
02608            -900.00     4560.00
02609            -900.00     4480.00
02610            -920.00     4640.00
02611            -920.00     4720.00
02612            -920.00     4640.00
02613            -920.00     4640.00
02614            -920.00     4720.00
02615            -940.00     4720.00
02616            -940.00     4800.00
02617            -960.00     4800.00
02618            -940.00     4800.00
02619            -980.00     4880.00
02620            -980.00     4880.00
02621            -980.00     4960.00
02622           -1000.00     4960.00
02623            -980.00     4960.00
02624           -1020.00     4960.00
02625           -1000.00     5040.00
02626           -1020.00     4960.00
02627           -1020.00     5040.00
02628           -1020.00     5040.00
02629           -1060.00     5040.00
02630           -1040.00     5040.00
02631           -1060.00     5120.00
02632           -1040.00     5120.00
02633           -1040.00     5200.00
02634           -1060.00     5200.00
02635           -1080.00     5280.00
02636           -1080.00     5200.00
02637           -1080.00     5280.00
02638           -1080.00     5280.00
02639           -1100.00     5280.00
02640           -1100.00     5280.00
02641           -1100.00     5360.00
02642           -1100.00     5360.00
02643           -1100.00     5360.00
02644           -1120.00     5440.00
02645           -1100.00     5440.00
02646           -1120.00     5440.00
02647           -1140.00     5440.00
02648           -1160.00     5520.00
02649           -1140.00     5520.00
02650           -1140.00     5520.00
02651           -1140.00     5600.00
02652           -1160.00     5600.00
02653           -1180.00     5600.00
02654           -1160.00     5600.00
02655           -1160.00     5600.00
02656           -1160.00     5680.00
02657           -1180.00     5680.00
02658           -1180.00     5680.00
02659           -1160.00     5760.00
02660           -1180.00     5760.00
02661           -1180.00     5680.00
02662           -1180.00     5680.00
02663           -1200.00     5760.00
02664           -1220.00     5840.00
02665           -1220.00     5760.00
02666           -1220.00     5840.00
02667           -1220.00     5760.00
02668           -1220.00     5760.00
02669           -1220.00     5840.00
02670           -1220.00     5920.00
02671           -1220.00     5920.00
02672           -1240.00     5920.00
02673           -1240.00     5920.00
02674           -1240.00     5920.00
02675           -1240.00     5920.00
02676           -1240.00     5920.00
02677           -1240.00     5920.00
02678           -1240.00     6000.00
02679           -1260.00     5920.00
02680           -1260.00     6000.00
02681           -1260.00     6000.00
02682           -1280.00     6000.00
02683           -1260.00     6000.00
02684           -1260.00     6000.00
02685           -1260.00     6080.00
02686           -1260.00     6080.00
02687           -1260.00     6080.00
02688           -1280.00     6080.00
02689           -1300.00     6080.00
02690           -1300.00     6080.00
02691           -1300.00     6160.00
02692           -1320.00     6160.00
02693           -1300.00     6160.00
02694           -1320.00     6160.00
02695           -1320.00     6080.00
02696           -1320.00     6160.00
02697           -1320.00     6240.00
02698           -1340.00     6240.00
02699           -1320.00     6160.00
02700           -1320.00     6240.00
02701           -1320.00     6240.00
02702           -1340.00     6160.00
02703           -1340.00     6240.00
02704           -1340.00     6240.00
02705           -1320.00     6160.00
02706           -1340.00     6240.00
02707           -1340.00     6240.00
02708           -1340.00     6240.00
02709           -1340.00     6240.00
02710           -1340.00     6240.00
02711           -1340.00     6240.00
02712           -1340.00     6320.00
02713           -1360.00     6240.00
02714           -1360.00     6320.00
02715           -1340.00     6240.00
02716           -1340.00     6240.00
02717           -1340.00     6240.00
02718           -1340.00     6240.00
02719           -1340.00     6320.00
02720           -1340.00     6320.00
02721           -1360.00     6320.00
02722           -1360.00     6320.00
02723           -1380.00     6320.00
02724           -1380.00     6240.00
02725           -1340.00     6240.00
02726           -1360.00     6320.00
02727           -1380.00     6240.00
02728           -1380.00     6320.00
02729           -1380.00     6320.00
02730           -1380.00     6320.00
02731           -1380.00     6320.00
02732           -1380.00     6320.00
02733           -1360.00     6320.00
02734           -1380.00     6320.00
02735           -1380.00     6320.00
02736           -1380.00     6320.00
02737           -1380.00     6240.00
02738           -1380.00     6320.00
02739           -1380.00     6320.00
02740           -1380.00     6320.00
02741           -1380.00     6320.00
02742           -1380.00     6320.00
02743           -1360.00     6320.00
02744           -1380.00     6240.00
02745           -1340.00     6320.00
02746           -1360.00     6240.00
02747           -1360.00     6240.00
02748           -1360.00     6240.00
02749           -1380.00     6320.00
02750           -1380.00     6320.00
02751           -1360.00     6240.00
02752           -1380.00     6240.00
02753           -1360.00     6240.00
02754           -1380.00     6240.00
02755           -1380.00     6240.00
02756           -1360.00     6240.00
02757           -1380.00     6240.00
02758           -1380.00     6240.00
02759           -1380.00     6240.00
02760           -1380.00     6160.00
02761           -1380.00     6240.00
02762           -1340.00     6240.00
02763           -1380.00     6240.00
02764           -1340.00     6240.00
02765           -1380.00     6080.00
02766           -1380.00     6160.00
02767           -1380.00     6160.00
02768           -1360.00     6240.00
02769           -1340.00     6080.00
02770           -1360.00     6080.00
02771           -1380.00     6080.00
02772           -1380.00     6080.00
02773           -1340.00     6080.00
02774           -1380.00     6080.00
02775           -1340.00     6000.00
02776           -1340.00     6080.00
02777           -1360.00     6000.00
02778           -1340.00     6000.00
02779           -1340.00     6080.00
02780           -1340.00     6000.00
02781           -1340.00     6000.00
02782           -1340.00     6000.00
02783           -1340.00     6000.00
02784           -1340.00     6000.00
02785           -1340.00     6000.00
02786           -1340.00     5920.00
02787           -1320.00     6000.00
02788           -1340.00     5920.00
02789           -1340.00     5920.00
02790           -1320.00     5920.00
02791           -1340.00     5920.00
02792           -1320.00     5920.00
02793           -1320.00     5840.00
02794           -1320.00     5840.00
02795           -1320.00     5760.00
02796           -1320.00     5760.00
02797           -1300.00     5840.00
02798           -1300.00     5760.00
02799           -1320.00     5760.00
02800           -1300.00     5840.00
02801           -1300.00     5760.00
02802           -1260.00     5680.00
02803           -1300.00     5680.00
02804           -1280.00     5680.00
02805           -1300.00     5680.00
02806           -1280.00     5680.00
02807           -1280.00     5600.00
02808           -1260.00     5600.00
02809           -1260.00     5600.00
02810           -1260.00     5600.00
02811           -1260.00     5520.00
02812           -1240.00     5520.00
02813           -1240.00     5600.00
02814           -1240.00     5440.00
02815           -1260.00     5440.00
02816           -1240.00     5440.00
02817           -1240.00     5440.00
02818           -1240.00     5440.00
02819           -1240.00     5440.00
02820           -1240.00     5440.00
02821           -1240.00     5360.00
02822           -1240.00     5360.00
02823           -1220.00     5280.00
02824           -1240.00     5280.00
02825           -1220.00     5280.00
02826           -1220.00     5280.00
02827           -1220.00     5200.00
02828           -1220.00     5200.00
02829           -1180.00     5120.00
02830           -1200.00     5200.00
02831           -1220.00     5120.00
02832           -1180.00     5120.00
02833           -1180.00     5120.00
02834           -1180.00     5040.00
02835           -1160.00     5040.00
02836           -1160.00     4960.00
02837           -1180.00     5040.00
02838           -1160.00     4960.00
02839           -1160.00     4960.00
02840           -1160.00     4960.00
02841           -1140.00     4880.00
02842           -1160.00     4880.00
02843           -1140.00     4880.00
02844           -1140.00     4800.00
02845           -1140.00     4800.00
02846           -1120.00     4800.00
02847           -1100.00     4800.00
02848           -1100.00     4800.00
02849           -1100.00     4720.00
02850           -1100.00     4720.00
02851           -1080.00     4640.00
02852           -1080.00     4640.00
02853           -1080.00     4640.00
02854           -1080.00     4560.00
02855           -1080.00     4480.00
02856           -1060.00     4480.00
02857           -1080.00     4480.00
02858           -1060.00     4480.00
02859           -1060.00     4400.00
02860           -1060.00     4480.00
02861           -1020.00     4400.00
02862           -1020.00     4320.00
02863           -1020.00     4320.00
02864           -1020.00     4320.00
02865           -1020.00     4320.00
02866           -1020.00     4240.00
02867           -1000.00     4240.00
02868           -1000.00     4160.00
02869           -1000.00     4160.00
02870            -980.00     4160.00
02871            -980.00     4160.00
02872            -980.00     4080.00
02873            -980.00     4000.00
02874            -940.00     4000.00
02875            -940.00     4000.00
02876            -940.00     4000.00
02877            -940.00     4000.00
02878            -940.00     3840.00
02879            -920.00     3840.00
02880            -920.00     3840.00
02881            -920.00     3760.00
02882            -920.00     3760.00
02883            -920.00     3760.00
02884            -920.00     3680.00
02885            -900.00     3680.00
02886            -880.00     3600.00
02887            -900.00     3680.00
02888            -880.00     3600.00
02889            -900.00     3600.00
02890            -860.00     3520.00
02891            -880.00     3520.00
02892            -860.00     3440.00
02893            -860.00     3440.00
02894            -840.00     3360.00
02895            -860.00     3360.00
02896            -820.00     3360.00
02897            -840.00     3360.00
02898            -840.00     3200.00
02899            -840.00     3280.00
02900            -820.00     3200.00
02901            -780.00     3120.00
02902            -820.00     3200.00
02903            -780.00     3120.00
02904            -760.00     3120.00
02905            -780.00     3040.00
02906            -760.00     3040.00
02907            -760.00     2960.00
02908            -760.00     2880.00
02909            -740.00     2880.00
02910            -740.00     2880.00
02911            -740.00     2800.00
02912            -740.00     2800.00
02913            -700.00     2720.00
02914            -700.00     2800.00
02915            -700.00     2720.00
02916            -700.00     2640.00
02917            -680.00     2640.00
02918            -680.00     2560.00
02919            -660.00     2560.00
02920            -660.00     2480.00
02921            -660.00     2480.00
02922            -640.00     2480.00
02923            -620.00     2480.00
02924            -620.00     2400.00
02925            -620.00     2320.00
02926            -620.00     2400.00
02927            -600.00     2240.00
02928            -600.00     2240.00
02929            -600.00     2160.00
02930            -580.00     2160.00
02931            -580.00     2160.00
02932            -540.00     2080.00
02933            -540.00     2080.00
02934            -540.00     2000.00
02935            -520.00     1920.00
02936            -540.00     1920.00
02937            -520.00     1920.00
02938            -520.00     1840.00
02939            -520.00     1840.00
02940            -500.00     1760.00
02941            -500.00     1760.00
02942            -500.00     1760.00
02943            -460.00     1680.00
02944            -460.00     1680.00
02945            -460.00     1600.00
02946            -460.00     1520.00
02947            -440.00     1520.00
02948            -440.00     1440.00
02949            -440.00     1520.00
02950            -420.00     1440.00
02951            -420.00     1440.00
02952            -440.00     1280.00
02953            -400.00     1280.00
02954            -380.00     1280.00
02955            -380.00     1280.00
02956            -380.00     1200.00
02957            -380.00     1120.00
02958            -380.00     1120.00
02959            -360.00     1120.00
02960            -360.00      960.00
02961            -340.00     1040.00
02962            -340.00      960.00
02963            -340.00      960.00
02964            -300.00      960.00
02965            -300.00      880.00
02966            -300.00      800.00
02967            -300.00      800.00
02968            -280.00      720.00
02969            -280.00      720.00
02970            -280.00      720.00
02971            -260.00      720.00
02972            -260.00      560.00
02973            -240.00      560.00
02974            -220.00      560.00
02975            -220.00      480.00
02976            -200.00      480.00
02977            -220.00      400.00
02978            -200.00      320.00
02979            -200.00      320.00
02980            -180.00      320.00
02981            -180.00      240.00
02982            -180.00      160.00
02983            -140.00      160.00
02984            -180.00      160.00
02985            -120.00      160.00
02986            -120.00       80.00
02987            -140.00       80.00
02988            -120.00        0.00
02989            -100.00      -80.00
02990            -100.00     -160.00
02991             -80.00      -80.00
02992             -60.00     -160.00
02993             -60.00     -160.00
02994             -60.00     -160.00
02995             -40.00     -320.00
02996             -60.00     -320.00
02997             -40.00     -400.00
02998             -40.00     -320.00
02999               0.00     -400.00
03000             -20.00     -480.00
03001               0.00     -640.00
03002             -20.00     -720.00
03003               0.00     -560.00
03004              40.00     -480.00
03005              40.00     -720.00
03006              20.00     -800.00
03007              40.00     -640.00
03008              60.00     -800.00
03009              40.00     -960.00
03010              60.00     -800.00
03011             100.00     -800.00
03012              80.00     -960.00
03013             100.00     -960.00
03014             120.00     -960.00
03015             100.00    -1040.00
03016             120.00    -1040.00
03017             140.00    -1120.00
03018             140.00    -1120.00
03019             140.00    -1200.00
03020             180.00    -1280.00
03021             160.00    -1280.00
03022             140.00    -1280.00
03023             180.00    -1360.00
03024             200.00    -1440.00
03025             180.00    -1440.00
03026             200.00    -1440.00
03027             220.00    -1520.00
03028             200.00    -1600.00
03029             240.00    -1600.00
03030             220.00    -1680.00
03031             220.00    -1680.00
03032             260.00    -1680.00
03033             260.00    -1760.00
03034             260.00    -1760.00
03035             280.00    -1760.00
03036             280.00    -1920.00
03037             300.00    -1840.00
03038             280.00    -1920.00
03039             300.00    -2000.00
03040             320.00    -2000.00
03041             340.00    -2080.00
03042             340.00    -2080.00
03043             360.00    -2080.00
03044             360.00    -2080.00
03045             360.00    -2160.00
03046             360.00    -2240.00
03047             360.00    -2240.00
03048             380.00    -2240.00
03049             400.00    -2320.00
03050             420.00    -2400.00
03051             420.00    -2400.00
03052             420.00    -2400.00
03053             420.00    -2480.00
03054             440.00    -2560.00
03055             440.00    -2560.00
03056             460.00    -2560.00
03057             460.00    -2640.00
03058             460.00    -2640.00
03059             500.00    -2720.00
03060             500.00    -2720.00
03061             500.00    -2720.00
03062             500.00    -2720.00
03063             520.00    -2880.00
03064             520.00    -2880.00
03065             520.00    -2880.00
03066             540.00    -2880.00
03067             540.00    -2960.00
03068             580.00    -2960.00
03069             580.00    -3040.00
03070             580.00    -3040.00
03071             580.00    -3120.00
03072             600.00    -3120.00
03073             600.00    -3200.00
03074             600.00    -3200.00
03075             600.00    -3280.00
03076             620.00    -3280.00
03077             620.00    -3280.00
03078             660.00    -3360.00
03079             660.00    -3360.00
03080             660.00    -3360.00
03081             660.00    -3440.00
03082             660.00    -3440.00
03083             660.00    -3520.00
03084             680.00    -3520.00
03085             680.00    -3520.00
03086             680.00    -3600.00
03087             680.00    -3680.00
03088             700.00    -3600.00
03089             720.00    -3680.00
03090             700.00    -3680.00
03091             720.00    -3680.00
03092             740.00    -3760.00
03093             740.00    -3840.00
03094             740.00    -3840.00
03095             760.00    -3840.00
03096             740.00    -3920.00
03097             760.00    -3920.00
03098             780.00    -3920.00
03099             780.00    -4000.00
03100             780.00    -4000.00
03101             780.00    -4080.00
03102             800.00    -4000.00
03103             800.00    -4080.00
03104             820.00    -4160.00
03105             820.00    -4160.00
03106             820.00    -4160.00
03107             840.00    -4160.00
03108             840.00    -4240.00
03109             840.00    -4320.00
03110             860.00    -4240.00
03111             860.00    -4320.00
03112             860.00    -4320.00
03113             880.00    -4320.00
03114             900.00    -4480.00
03115             900.00    -4400.00
03116             900.00    -4400.00
03117             900.00    -4480.00
03118             900.00    -4480.00
03119             900.00    -4560.00
03120             920.00    -4560.00
03121             920.00    -4560.00
03122             940.00    -4640.00
03123             940.00    -4640.00
03124             940.00    -4720.00
03125             980.00    -4720.00
03126             980.00    -4800.00
03127             980.00    -4800.00
03128             980.00    -4800.00
03129             980.00    -4800.00
03130            1000.00    -4880.00
03131            1000.00    -4880.00
03132            1000.00    -4880.00
03133            1000.00    -4880.00
03134            1000.00    -4960.00
03135            1000.00    -4960.00
03136            1020.00    -4960.00
03137            1020.00    -4960.00
03138            1040.00    -4960.00
03139            1060.00    -5040.00
03140            1060.00    -5040.00
03141            1060.00    -5120.00
03142            1060.00    -5120.00
03143            1060.00    -5200.00
03144            1060.00    -5120.00
03145            1080.00    -5200.00
03146            1080.00    -5200.00
03147            1080.00    -5200.00
03148            1100.00    -5280.00
03149            1080.00    -5280.00
03150            1080.00    -5280.00
03151            1080.00    -5280.00
03152            1100.00    -5280.00
03153            1100.00    -5360.00
03154            1100.00    -5440.00
03155            1100.00    -5440.00
03156            1140.00    -5440.00
03157            1140.00    -5440.00
03158            1140.00    -5440.00
03159            1140.00    -5440.00
03160            1160.00    -5440.00
03161            1160.00    -5440.00
03162            1160.00    -5520.00
03163            1140.00    -5520.00
03164            1160.00    -5520.00
03165            1160.00    -5520.00
03166            1160.00    -5600.00
03167            1180.00    -5600.00
03168            1160.00    -5600.00
03169            1180.00    -5600.00
03170            1180.00    -5680.00
03171            1180.00    -5680.00
03172            1180.00    -5760.00
03173            1200.00    -5760.00
03174            1220.00    -5760.00
03175            1220.00    -5760.00
03176            1220.00    -5760.00
03177            1220.00    -5760.00
03178            1220.00    -5760.00
03179            1220.00    -5840.00
03180            1240.00    -5840.00
03181            1240.00    -5840.00
03182            1240.00    -5760.00
03183            1240.00    -5840.00
03184            1240.00    -5920.00
03185            1260.00    -5920.00
03186            1260.00    -5840.00
03187            1240.00    -5920.00
03188            1260.00    -5920.00
03189            1260.00    -5920.00
03190            1260.00    -5920.00
03191            1260.00    -5920.00
03192            1280.00    -5920.00
03193            1280.00    -6000.00
03194            1300.00    -5920.00
03195            1300.00    -6080.00
03196            1300.00    -6000.00
03197            1300.00    -5920.00
03198            1300.00    -6000.00
03199            1300.00    -6080.00
03200            1300.00    -6000.00
03201            1300.00    -6080.00
03202            1320.00    -6080.00
03203            1320.00    -6080.00
03204            1320.00    -6080.00
03205            1320.00    -6080.00
03206            1320.00    -6080.00
03207            1320.00    -6160.00
03208            1320.00    -6080.00
03209            1320.00    -6080.00
03210            1320.00    -6160.00
03211            1320.00    -6080.00
03212            1320.00    -6160.00
03213            1320.00    -6160.00
03214            1320.00    -6080.00
03215            1320.00    -6160.00
03216            1320.00    -6160.00
03217            1320.00    -6160.00
03218            1340.00    -6160.00
03219            1320.00    -6160.00
03220            1340.00    -6160.00
03221            1340.00    -6240.00
03222            1340.00    -6160.00
03223            1340.00    -6160.00
03224            1320.00    -6240.00
03225            1340.00    -6240.00
03226            1340.00    -6160.00
03227            1340.00    -6160.00
03228            1340.00    -6240.00
03229            1340.00    -6160.00
03230            1340.00    -6240.00
03231            1340.00    -6160.00
03232            1340.00    -6160.00
03233            1360.00    -6240.00
03234            1340.00    -6160.00
03235            1380.00    -6160.00
03236            1380.00    -6240.00
03237            1340.00    -6240.00
03238            1340.00    -6240.00
03239            1360.00    -6240.00
03240            1340.00    -6240.00
03241            1380.00    -6240.00
03242            1380.00    -6240.00
03243            1380.00    -6240.00
03244            1380.00    -6240.00
03245            1380.00    -6160.00
03246            1380.00    -6160.00
03247            1380.00    -6240.00
03248            1380.00    -6160.00
03249            1380.00    -6240.00
03250            1380.00    -6160.00
03251            1380.00    -6160.00
03252            1380.00    -6240.00
03253            1380.00    -6240.00
03254            1380.00    -6240.00
03255            1380.00    -6160.00
03256            1380.00    -6160.00
03257            1380.00    -6160.00
03258            1380.00    -6160.00
03259            1380.00    -6160.00
03260            1380.00    -6160.00
03261            1380.00    -6160.00
03262            1380.00    -6160.00
03263            1380.00    -6160.00
03264            1380.00    -6160.00
03265            1380.00    -6080.00
03266            1380.00    -6160.00
03267            1380.00    -6160.00
03268            1380.00    -6160.00
03269            1380.00    -6080.00
03270            1380.00    -6160.00
03271            1380.00    -6080.00
03272            1380.00    -6160.00
03273            1380.00    -6080.00
03274            1380.00    -6080.00
03275            1380.00    -6080.00
03276            1340.00    -6080.00
03277            1380.00    -6000.00
03278            1340.00    -6080.00
03279            1360.00    -6080.00
03280            1340.00    -5920.00
03281            1360.00    -6000.00
03282            1340.00    -6080.00
03283            1340.00    -5920.00
03284            1340.00    -6000.00
03285            1340.00    -5920.00
03286            1320.00    -5920.00
03287            1340.00    -5840.00
03288            1320.00    -5920.00
03289            1340.00    -5920.00
03290            1320.00    -5920.00
03291            1320.00    -5920.00
03292            1320.00    -5920.00
03293            1340.00    -5840.00
03294            1320.00    -5920.00
03295            1340.00    -5840.00
03296            1300.00    -5840.00
03297            1320.00    -5840.00
03298            1300.00    -5760.00
03299            1320.00    -5760.00
03300            1320.00    -5840.00
03301            1320.00    -5760.00
03302            1320.00    -5760.00
03303            1300.00    -5760.00
03304            1300.00    -5760.00
03305            1300.00    -5760.00
03306            1300.00    -5680.00
03307            1300.00    -5680.00
03308            1300.00    -5680.00
03309            1300.00    -5600.00
03310            1300.00    -5600.00
03311            1300.00    -5600.00
03312            1300.00    -5600.00
03313            1260.00    -5520.00
03314            1300.00    -5600.00
03315            1280.00    -5520.00
03316            1260.00    -5520.00
03317            1260.00    -5520.00
03318            1280.00    -5520.00
03319            1260.00    -5440.00
03320            1260.00    -5520.00
03321            1260.00    -5440.00
03322            1260.00    -5440.00
03323            1260.00    -5440.00
03324            1240.00    -5440.00
03325            1240.00    -5360.00
03326            1240.00    -5280.00
03327            1240.00    -5280.00
03328            1220.00    -5280.00
03329            1240.00    -5280.00
03330            1240.00    -5280.00
03331            1220.00    -5280.00
03332            1220.00    -5200.00
03333            1220.00    -5120.00
03334            1220.00    -5200.00
03335            1220.00    -5200.00
03336            1220.00    -5120.00
03337            1200.00    -5200.00
03338            1200.00    -5040.00
03339            1200.00    -5040.00
03340            1180.00    -5120.00
03341            1160.00    -4960.00
03342            1180.00    -5040.00
03343            1160.00    -4960.00
03344            1160.00    -4960.00
03345            1160.00    -4880.00
03346            1160.00    -4880.00
03347            1160.00    -4880.00
03348            1140.00    -4880.00
03349            1140.00    -4800.00
03350            1140.00    -4800.00
03351            1140.00    -4800.00
03352            1140.00    -4800.00
03353            1100.00    -4800.00
03354            1140.00    -4720.00
03355            1100.00    -4640.00
03356            1100.00    -4640.00
03357            1080.00    -4640.00
03358            1100.00    -4560.00
03359            1100.00    -4560.00
03360            1080.00    -4560.00
03361            1060.00    -4480.00
03362            1080.00    -4480.00
03363            1060.00    -4400.00
03364            1060.00    -4480.00
03365            1060.00    -4400.00
03366            1060.00    -4400.00
03367            1060.00    -4320.00
03368            1040.00    -4320.00
03369            1020.00    -4320.00
03370            1020.00    -4240.00
03371            1020.00    -4240.00
03372            1020.00    -4240.00
03373            1020.00    -4240.00
03374            1020.00    -4160.00
03375            1000.00    -4160.00
03376            1000.00    -4160.00
03377            1000.00    -4080.00
03378            1000.00    -4000.00
03379             980.00    -4080.00
03380             980.00    -4000.00
03381             980.00    -4000.00
03382             940.00    -3920.00
03383             980.00    -3840.00
03384             940.00    -3920.00
03385             940.00    -3840.00
03386             940.00    -3840.00
03387             940.00    -3840.00
03388             920.00    -3760.00
03389             920.00    -3680.00
03390             920.00    -3680.00
03391             920.00    -3680.00
03392             920.00    -3600.00
03393             900.00    -3600.00
03394             900.00    -3600.00
03395             880.00    -3600.00
03396             860.00    -3520.00
03397             900.00    -3520.00
03398             860.00    -3440.00
03399             860.00    -3360.00
03400             840.00    -3360.00
03401             840.00    -3360.00
03402             840.00    -3360.00
03403             840.00    -3280.00
03404             840.00    -3200.00
03405             820.00    -3280.00
03406             820.00    -3200.00
03407             820.00    -3200.00
03408             800.00    -3120.00
03409             780.00    -3200.00
03410             780.00    -3040.00
03411             760.00    -2960.00
03412             760.00    -3040.00
03413             760.00    -2960.00
03414             740.00    -2960.00
03415             740.00    -2880.00
03416             740.00    -2880.00
03417             740.00    -2800.00
03418             700.00    -2800.00
03419             720.00    -2720.00
03420             700.00    -2720.00
03421             700.00    -2640.00
03422             680.00    -2640.00
03423             680.00    -2640.00
03424             680.00    -2640.00
03425             660.00    -2560.00
03426             660.00    -2560.00
03427             660.00    -2560.00
03428             660.00    -2400.00
03429             660.00    -2400.00
03430             620.00    -2400.00
03431             620.00    -2320.00
03432             620.00    -2320.00
03433             600.00    -2320.00
03434             600.00    -2240.00
03435             580.00    -2240.00
03436             600.00    -2160.00
03437             580.00    -2160.00
03438             580.00    -2080.00
03439             580.00    -2080.00
03440             580.00    -2000.00
03441             540.00    -2000.00
03442             540.00    -1840.00
03443             540.00    -1920.00
03444             520.00    -1840.00
03445             520.00    -1840.00
03446             520.00    -1760.00
03447             520.00    -1760.00
03448             520.00    -1760.00
03449             500.00    -1760.00
03450             500.00    -1680.00
03451             500.00    -1600.00
03452             480.00    -1600.00
03453             460.00    -1600.00
03454             460.00    -1520.00
03455             440.00    -1440.00
03456             440.00    -1440.00
03457             440.00    -1440.00
03458             420.00    -1360.00
03459             420.00    -1280.00
03460             420.00    -1280.00
03461             380.00    -1280.00
03462             380.00    -1200.00
03463             400.00    -1120.00
03464             360.00    -1120.00
03465             360.00    -1120.00
03466             360.00    -1040.00
03467             340.00    -1040.00
03468             340.00     -960.00
03469             340.00     -960.00
03470             340.00     -880.00
03471             300.00     -880.00
03472             300.00     -800.00
03473             300.00     -800.00
03474             280.00     -800.00
03475             260.00     -720.00
03476             260.00     -720.00
03477             260.00     -720.00
03478             260.00     -640.00
03479             260.00     -480.00
03480             240.00     -480.00
03481             220.00     -480.00
03482             220.00     -400.00
03483             220.00     -400.00
03484             200.00     -320.00
03485             200.00     -400.00
03486             200.00     -320.00
03487             200.00     -240.00
03488             180.00     -240.00
03489             180.00     -160.00
03490             180.00     -160.00
03491             140.00     -160.00
03492             140.00        0.00
03493             120.00      -80.00
03494             120.00        0.00
03495             120.00        0.00
03496             100.00       80.00
03497             100.00      160.00
03498             100.00      160.00
03499              60.00      160.00
03500              80.00      240.00
03501              60.00      320.00
03502              60.00      320.00
03503              40.00      240.00
03504              40.00      400.00
03505              40.00      320.00
03506              40.00      480.00
03507              20.00      560.00
03508              20.00      560.00
03509             -40.00      480.00
03510             -20.00      560.00
03511              20.00      800.00
03512             -20.00      800.00
03513             -60.00      560.00
03514             -40.00      800.00
03515             -20.00      880.00
03516             -60.00      800.00
03517             -60.00      800.00
03518             -60.00     1120.00
03519             -60.00      960.00
03520            -100.00      960.00
03521            -100.00     1120.00
03522             -60.00     1120.00
03523            -120.00     1040.00
03524            -100.00     1200.00
03525            -120.00     1280.00
03526            -140.00     1120.00
03527            -140.00     1280.00
03528            -140.00     1280.00
03529            -160.00     1280.00
03530            -180.00     1440.00
03531            -180.00     1440.00
03532            -200.00     1440.00
03533            -200.00     1600.00
03534            -180.00     1600.00
03535            -220.00     1520.00
03536            -220.00     1680.00
03537            -220.00     1600.00
03538            -220.00     1600.00
03539            -260.00     1760.00
03540            -240.00     1760.00
03541            -280.00     1760.00
03542            -280.00     1840.00
03543            -300.00     1760.00
03544            -300.00     1920.00
03545            -300.00     1920.00
03546            -300.00     2000.00
03547            -340.00     2080.00
03548            -340.00     2080.00
03549            -340.00     2080.00
03550            -360.00     2160.00
03551            -360.00     2240.00
03552            -360.00     2240.00
03553            -380.00     2240.00
03554            -380.00     2240.00
03555            -380.00     2320.00
03556            -420.00     2400.00
03557            -420.00     2400.00
03558            -420.00     2480.00
03559            -420.00     2400.00
03560            -440.00     2560.00
03561            -440.00     2560.00
03562            -440.00     2560.00
03563            -440.00     2640.00
03564            -460.00     2640.00
03565            -480.00     2560.00
03566            -460.00     2720.00
03567            -500.00     2720.00
03568            -500.00     2800.00
03569            -500.00     2800.00
03570            -520.00     2800.00
03571            -520.00     2880.00
03572            -540.00     2960.00
03573            -540.00     3040.00
03574            -540.00     2960.00
03575            -540.00     3040.00
03576            -580.00     3120.00
03577            -540.00     3120.00
03578            -580.00     3120.00
03579            -600.00     3120.00
03580            -580.00     3200.00
03581            -600.00     3280.00
03582            -600.00     3280.00
03583            -600.00     3280.00
03584            -620.00     3360.00
03585            -620.00     3360.00
03586            -620.00     3360.00
03587            -660.00     3440.00
03588            -660.00     3440.00
03589            -660.00     3440.00
03590            -660.00     3520.00
03591            -680.00     3520.00
03592            -680.00     3680.00
03593            -680.00     3680.00
03594            -700.00     3680.00
03595            -700.00     3680.00
03596            -700.00     3680.00
03597            -700.00     3680.00
03598            -740.00     3760.00
03599            -740.00     3760.00
03600            -740.00     3840.00
03601            -740.00     3840.00
03602            -760.00     3920.00
03603            -740.00     4000.00
03604            -760.00     4000.00
03605            -780.00     4000.00
03606            -780.00     4000.00
03607            -800.00     4080.00
03608            -820.00     4080.00
03609            -820.00     4080.00
03610            -820.00     4160.00
03611            -820.00     4160.00
03612            -840.00     4160.00
03613            -840.00     4240.00
03614            -840.00     4320.00
03615            -840.00     4320.00
03616            -860.00     4320.00
03617            -860.00     4320.00
03618            -860.00     4320.00
03619            -880.00     4400.00
03620            -880.00     4400.00
03621            -880.00     4480.00
03622            -900.00     4400.00
03623            -900.00     4480.00
03624            -920.00     4480.00
03625            -920.00     4560.00
03626            -920.00     4640.00
03627            -920.00     4640.00
03628            -940.00     4640.00
03629            -940.00     4720.00
03630            -940.00     4720.00
03631            -940.00     4720.00
03632            -940.00     4720.00
03633            -940.00     4800.00
03634            -960.00     4800.00
03635            -980.00     4800.00
03636            -980.00     4800.00
03637           -1000.00     4880.00
03638           -1000.00     4880.00
03639           -1000.00     4960.00
03640           -1000.00     4960.00
03641           -1020.00     4960.00
03642           -1020.00     5040.00
03643           -1020.00     5040.00
03644           -1020.00     5120.00
03645           -1020.00     5040.00
03646           -1020.00     5120.00
03647           -1060.00     5040.00
03648           -1060.00     5120.00
03649           -1060.00     5120.00
03650           -1060.00     5120.00
03651           -1080.00     5200.00
03652           -1080.00     5280.00
03653           -1080.00     5280.00
03654           -1080.00     5280.00
03655           -1080.00     5280.00
03656           -1080.00     5280.00
03657           -1100.00     5280.00
03658           -1100.00     5360.00
03659           -1100.00     5360.00
03660           -1100.00     5440.00
03661           -1100.00     5440.00
03662           -1100.00     5440.00
03663           -1120.00     5360.00
03664           -1120.00     5440.00
03665           -1100.00     5520.00
03666           -1140.00     5520.00
03667           -1140.00     5440.00
03668           -1140.00     5600.00
03669           -1160.00     5520.00
03670           -1160.00     5600.00
03671           -1160.00     5600.00
03672           -1160.00     5680.00
03673           -1180.00     5680.00
03674           -1180.00     5600.00
03675           -1180.00     5680.00
03676           -1180.00     5680.00
03677           -1180.00     5680.00
03678           -1220.00     5760.00
03679           -1200.00     5760.00
03680           -1220.00     5840.00
03681           -1220.00     5760.00
03682           -1220.00     5840.00
03683           -1220.00     5840.00
03684           -1220.00     5760.00
03685           -1240.00     5840.00
03686           -1240.00     5840.00
03687           -1240.00     5920.00
03688           -1240.00     5920.00
03689           -1240.00     5920.00
03690           -1240.00     5920.00
03691           -1260.00     5920.00
03692           -1260.00     5920.00
03693           -1260.00     6000.00
03694           -1260.00     5920.00
03695           -1260.00     5920.00
03696           -1260.00     6000.00
03697           -1260.00     6000.00
03698           -1260.00     6000.00
03699           -1300.00     6000.00
03700           -1260.00     6000.00
03701           -1280.00     6000.00
03702           -1280.00     6080.00
03703           -1300.00     6000.00
03704           -1300.00     6080.00
03705           -1280.00     6080.00
03706           -1300.00     6080.00
03707           -1300.00     6080.00
03708           -1300.00     6080.00
03709           -1320.00     6080.00
03710           -1300.00     6080.00
03711           -1320.00     6160.00
03712           -1300.00     6160.00
03713           -1300.00     6240.00
03714           -1300.00     6160.00
03715           -1320.00     6240.00
03716           -1320.00     6160.00
03717           -1320.00     6160.00
03718           -1320.00     6240.00
03719           -1340.00     6240.00
03720           -1320.00     6240.00
03721           -1320.00     6240.00
03722           -1320.00     6240.00
03723           -1340.00     6240.00
03724           -1340.00     6240.00
03725           -1340.00     6240.00
03726           -1340.00     6320.00
03727           -1340.00     6240.00
03728           -1320.00     6320.00
03729           -1340.00     6240.00
03730           -1340.00     6240.00
03731           -1340.00     6320.00
03732           -1340.00     6240.00
03733           -1340.00     6240.00
03734           -1340.00     6320.00
03735           -1340.00     6320.00
03736           -1380.00     6320.00
03737           -1360.00     6240.00
03738           -1380.00     6320.00
03739           -1340.00     6320.00
03740           -1380.00     6240.00
03741           -1380.00     6320.00
03742           -1360.00     6320.00
03743           -1380.00     6320.00
03744           -1380.00     6320.00
03745           -1380.00     6320.00
03746           -1380.00     6320.00
03747           -1380.00     6320.00
03748           -1380.00     6320.00
03749           -1400.00     6320.00
03750           -1380.00     6320.00
03751           -1380.00     6320.00
03752           -1380.00     6320.00
03753           -1380.00     6320.00
03754           -1380.00     6320.00
03755           -1380.00     6320.00
03756           -1380.00     6320.00
03757           -1380.00     6240.00
03758           -1380.00     6240.00
03759           -1380.00     6320.00
03760           -1380.00     6320.00
03761           -1380.00     6240.00
03762           -1380.00     6240.00
03763           -1380.00     6240.00
03764           -1380.00     6240.00
03765           -1380.00     6240.00
03766           -1380.00     6320.00
03767           -1380.00     6240.00
03768           -1380.00     6240.00
03769           -1400.00     6240.00
03770           -1380.00     6240.00
03771           -1380.00     6240.00
03772           -1380.00     6240.00
03773           -1360.00     6240.00
03774           -1380.00     6240.00
03775           -1360.00     6240.00
03776           -1380.00     6240.00
03777           -1360.00     6240.00
03778           -1360.00     6240.00
03779           -1360.00     6240.00
03780           -1380.00     6080.00
03781           -1380.00     6240.00
03782           -1360.00     6160.00
03783           -1360.00     6160.00
03784           -1340.00     6160.00
03785           -1380.00     6080.00
03786           -1340.00     6080.00
03787           -1340.00     6080.00
03788           -1340.00     6080.00
03789           -1340.00     6080.00
03790           -1360.00     6080.00
03791           -1340.00     6080.00
03792           -1340.00     6080.00
03793           -1340.00     6000.00
03794           -1360.00     6000.00
03795           -1340.00     6000.00
03796           -1340.00     6000.00
03797           -1340.00     6000.00
03798           -1340.00     6000.00
03799           -1340.00     6000.00
03800           -1340.00     6000.00
03801           -1340.00     5920.00
03802           -1340.00     5920.00
03803           -1340.00     6000.00
03804           -1340.00     5920.00
03805           -1320.00     5920.00
03806           -1340.00     5920.00
03807           -1320.00     5920.00
03808           -1340.00     5920.00
03809           -1320.00     5840.00
03810           -1320.00     5840.00
03811           -1320.00     5840.00
03812           -1320.00     5840.00
03813           -1320.00     5840.00
03814           -1320.00     5760.00
03815           -1320.00     5760.00
03816           -1320.00     5680.00
03817           -1320.00     5680.00
03818           -1300.00     5680.00
03819           -1300.00     5680.00
03820           -1260.00     5600.00
03821           -1300.00     5680.00
03822           -1300.00     5680.00
03823           -1300.00     5600.00
03824           -1300.00     5680.00
03825           -1260.00     5600.00
03826           -1260.00     5600.00
03827           -1300.00     5600.00
03828           -1260.00     5440.00
03829           -1260.00     5440.00
03830           -1240.00     5520.00
03831           -1240.00     5440.00
03832           -1260.00     5440.00
03833           -1240.00     5440.00
03834           -1240.00     5440.00
03835           -1240.00     5360.00
03836           -1240.00     5360.00
03837           -1240.00     5280.00
03838           -1240.00     5280.00
03839           -1220.00     5280.00
03840           -1220.00     5280.00
03841           -1200.00     5280.00
03842           -1220.00     5280.00
03843           -1200.00     5280.00
03844           -1180.00     5200.00
03845           -1220.00     5200.00
03846           -1180.00     5200.00
03847           -1180.00     5120.00
03848           -1180.00     5120.00
03849           -1180.00     5120.00
03850           -1160.00     5120.00
03851           -1160.00     5040.00
03852           -1160.00     5040.00
03853           -1160.00     5040.00
03854           -1160.00     5040.00
03855           -1140.00     4960.00
03856           -1140.00     4960.00
03857           -1140.00     4960.00
03858           -1140.00     4960.00
03859           -1140.00     4960.00
03860           -1140.00     4800.00
03861           -1120.00     4800.00
03862           -1120.00     4800.00
03863           -1100.00     4720.00
03864           -1100.00     4800.00
03865           -1120.00     4720.00
03866           -1100.00     4720.00
03867           -1100.00     4640.00
03868           -1100.00     4640.00
03869           -1100.00     4560.00
03870           -1080.00     4560.00
03871           -1080.00     4560.00
03872           -1080.00     4480.00
03873           -1080.00     4480.00
03874           -1060.00     4480.00
03875           -1060.00     4400.00
03876           -1060.00     4400.00
03877           -1060.00     4400.00
03878           -1020.00     4400.00
03879           -1040.00     4320.00
03880           -1020.00     4320.00
03881           -1020.00     4320.00
03882           -1020.00     4240.00
03883           -1020.00     4160.00
03884           -1000.00     4240.00
03885           -1000.00     4160.00
03886           -1020.00     4160.00
03887            -980.00     4080.00
03888            -980.00     4080.00
03889            -980.00     4080.00
03890            -980.00     4000.00
03891            -980.00     4000.00
03892            -940.00     4000.00
03893            -940.00     3920.00
03894            -940.00     3840.00
03895            -940.00     3840.00
03896            -940.00     3840.00
03897            -920.00     3840.00
03898            -920.00     3760.00
03899            -920.00     3760.00
03900            -920.00     3760.00
03901            -920.00     3680.00
03902            -900.00     3680.00
03903            -880.00     3600.00
03904            -880.00     3600.00
03905            -860.00     3520.00
03906            -860.00     3520.00
03907            -860.00     3520.00
03908            -860.00     3520.00
03909            -840.00     3440.00
03910            -840.00     3440.00
03911            -840.00     3360.00
03912            -840.00     3360.00
03913            -820.00     3280.00
03914            -820.00     3360.00
03915            -820.00     3200.00
03916            -820.00     3200.00
03917            -780.00     3280.00
03918            -780.00     3120.00
03919            -780.00     3040.00
03920            -760.00     3120.00
03921            -760.00     3040.00
03922            -760.00     3040.00
03923            -740.00     2960.00
03924            -740.00     2960.00
03925            -740.00     2960.00
03926            -740.00     2880.00
03927            -720.00     2880.00
03928            -740.00     2800.00
03929            -700.00     2720.00
03930            -700.00     2720.00
03931            -700.00     2720.00
03932            -700.00     2720.00
03933            -680.00     2640.00
03934            -680.00     2560.00
03935            -680.00     2560.00
03936            -680.00     2480.00
03937            -660.00     2480.00
03938            -680.00     2480.00
03939            -660.00     2400.00
03940            -640.00     2400.00
03941            -620.00     2400.00
03942            -620.00     2320.00
03943            -620.00     2240.00
03944            -600.00     2240.00
03945            -600.00     2160.00
03946            -600.00     2240.00
03947            -600.00     2160.00
03948            -580.00     2080.00
03949            -580.00     2080.00
03950            -560.00     2000.00
03951            -540.00     1920.00
03952            -540.00     1920.00
03953            -540.00     1840.00
03954            -540.00     1840.00
03955            -520.00     1840.00
03956            -520.00     1760.00
03957            -520.00     1760.00
03958            -520.00     1760.00
03959            -500.00     1680.00
03960            -500.00     1600.00
03961            -460.00     1600.00
03962            -460.00     1600.00
03963            -460.00     1520.00
03964            -440.00     1600.00
03965            -440.00     1520.00
03966            -440.00     1440.00
03967            -440.00     1360.00
03968            -420.00     1360.00
03969            -380.00     1360.00
03970            -420.00     1280.00
03971            -380.00     1280.00
03972            -380.00     1280.00
03973            -380.00     1120.00
03974            -380.00     1200.00
03975            -360.00     1120.00
03976            -360.00     1120.00
03977            -340.00      960.00
03978            -340.00      960.00
03979            -340.00      880.00
03980            -320.00      880.00
03981            -300.00      880.00
03982            -300.00      880.00
03983            -300.00      800.00
03984            -280.00      800.00
03985            -280.00      720.00
03986            -260.00      800.00
03987            -260.00      640.00
03988            -260.00      560.00
03989            -240.00      560.00
03990            -220.00      560.00
03991            -220.00      480.00
03992            -220.00      480.00
03993            -200.00      480.00
03994            -200.00      320.00
03995            -200.00      320.00
03996            -220.00      320.00
03997            -200.00      240.00
03998            -200.00      240.00
03999            -180.00      160.00
04000            -160.00      160.00
04001            -180.00      160.00
04002            -140.00       80.00
04003            -120.00        0.00
04004            -120.00        0.00
04005            -120.00        0.00
04006            -120.00      -80.00
04007            -100.00      -80.00
04008            -100.00     -160.00
04009             -60.00     -160.00
04010             -80.00     -240.00
04011             -60.00     -240.00
04012             -60.00     -320.00
04013             -60.00     -320.00
04014             -40.00     -320.00
04015             -20.00     -320.00
04016               0.00     -400.00
04017             -20.00     -640.00
04018             -40.00     -640.00
04019             -20.00     -640.00
04020              20.00     -480.00
04021              40.00     -560.00
04022              20.00     -800.00
04023              20.00     -720.00
04024              60.00     -640.00
04025              40.00     -800.00
04026              40.00     -880.00
04027             100.00     -800.00
04028             100.00     -960.00
04029              60.00    -1040.00
04030             100.00     -960.00
04031             100.00    -1040.00
04032             100.00    -1120.00
04033             120.00    -1040.00
04034             140.00    -1120.00
04035             140.00    -1280.00
04036             140.00    -1120.00
04037             180.00    -1200.00
04038             160.00    -1360.00
04039             180.00    -1360.00
04040             200.00    -1360.00
04041             180.00    -1440.00
04042             200.00    -1440.00
04043             220.00    -1440.00
04044             220.00    -1600.00
04045             220.00    -1520.00
04046             260.00    -1600.00
04047             260.00    -1600.00
04048             260.00    -1680.00
04049             280.00    -1680.00
04050             280.00    -1760.00
04051             260.00    -1760.00
04052             280.00    -1840.00
04053             300.00    -1920.00
04054             300.00    -1840.00
04055             300.00    -2000.00
04056             300.00    -2000.00
04057             340.00    -2000.00
04058             340.00    -2000.00
04059             360.00    -2080.00
04060             360.00    -2160.00
04061             360.00    -2160.00
04062             360.00    -2160.00
04063             380.00    -2320.00
04064             380.00    -2320.00
04065             380.00    -2320.00
04066             380.00    -2320.00
04067             420.00    -2400.00
04068             420.00    -2400.00
04069             420.00    -2480.00
04070             440.00    -2480.00
04071             440.00    -2560.00
04072             440.00    -2560.00
04073             460.00    -2560.00
04074             460.00    -2640.00
04075             480.00    -2640.00
04076             460.00    -2640.00
04077             500.00    -2720.00
04078             500.00    -2720.00
04079             520.00    -2800.00
04080             500.00    -2880.00
04081             540.00    -2880.00
04082             540.00    -2880.00
04083             520.00    -2960.00
04084             520.00    -2960.00
04085             580.00    -2960.00
04086             540.00    -3120.00
04087             580.00    -3040.00
04088             580.00    -3120.00
04089             580.00    -3200.00
04090             600.00    -3200.00
04091             600.00    -3200.00
04092             600.00    -3280.00
04093             620.00    -3280.00
04094             620.00    -3280.00
04095             620.00    -3360.00
04096             640.00    -3360.00
04097             660.00    -3360.00
04098             660.00    -3360.00
04099             660.00    -3520.00
04100             660.00    -3520.00
04101             680.00    -3520.00
04102             680.00    -3520.00
04103             680.00    -3600.00
04104             700.00    -3680.00
04105             720.00    -3680.00
04106             720.00    -3680.00
04107             720.00    -3680.00
04108             760.00    -3680.00
04109             740.00    -3760.00
04110             760.00    -3840.00
04111             740.00    -3840.00
04112             760.00    -3840.00
04113             760.00    -3920.00
04114             780.00    -3920.00
04115             780.00    -3920.00
04116             800.00    -4000.00
04117             820.00    -4000.00
04118             800.00    -4000.00
04119             820.00    -4080.00
04120             820.00    -4160.00
04121             820.00    -4160.00
04122             840.00    -4240.00
04123             840.00    -4240.00
04124             840.00    -4240.00
04125             860.00    -4240.00
04126             840.00    -4320.00
04127             840.00    -4320.00
04128             860.00    -4320.00
04129             860.00    -4400.00
04130             880.00    -4320.00
04131             900.00    -4400.00
04132             900.00    -4400.00
04133             900.00    -4480.00
04134             900.00    -4560.00
04135             920.00    -4560.00
04136             900.00    -4480.00
04137             920.00    -4560.00
04138             920.00    -4640.00
04139             940.00    -4640.00
04140             920.00    -4720.00
04141             940.00    -4720.00
04142             940.00    -4720.00
04143             980.00    -4800.00
04144             980.00    -4800.00
04145             980.00    -4800.00
04146             980.00    -4800.00
04147             980.00    -4800.00
04148            1000.00    -4960.00
04149            1000.00    -4880.00
04150            1000.00    -4880.00
04151            1000.00    -4960.00
04152            1000.00    -4880.00
04153            1000.00    -4960.00
04154            1020.00    -5120.00
04155            1040.00    -5040.00
04156            1060.00    -5120.00
04157            1060.00    -5040.00
04158            1060.00    -5120.00
04159            1060.00    -5120.00
04160            1060.00    -5120.00
04161            1060.00    -5120.00
04162            1060.00    -5200.00
04163            1080.00    -5200.00
04164            1080.00    -5280.00
04165            1100.00    -5280.00
04166            1100.00    -5280.00
04167            1100.00    -5280.00
04168            1100.00    -5280.00
04169            1140.00    -5280.00
04170            1100.00    -5360.00
04171            1140.00    -5360.00
04172            1140.00    -5360.00
04173            1140.00    -5440.00
04174            1140.00    -5360.00
04175            1140.00    -5440.00
04176            1160.00    -5440.00
04177            1160.00    -5440.00
04178            1160.00    -5520.00
04179            1160.00    -5520.00
04180            1160.00    -5520.00
04181            1180.00    -5520.00
04182            1160.00    -5600.00
04183            1180.00    -5520.00
04184            1180.00    -5600.00
04185            1180.00    -5600.00
04186            1180.00    -5600.00
04187            1180.00    -5600.00
04188            1200.00    -5600.00
04189            1220.00    -5680.00
04190            1220.00    -5760.00
04191            1220.00    -5760.00
04192            1220.00    -5760.00
04193            1220.00    -5680.00
04194            1220.00    -5760.00
04195            1220.00    -5760.00
04196            1220.00    -5840.00
04197            1240.00    -5840.00
04198            1220.00    -5840.00
04199            1240.00    -5840.00
04200            1240.00    -5840.00
04201            1240.00    -5840.00
04202            1240.00    -5920.00
04203            1240.00    -5840.00
04204            1260.00    -5920.00
04205            1240.00    -5920.00
04206            1260.00    -5920.00
04207            1260.00    -5920.00
04208            1260.00    -5920.00
04209            1260.00    -5920.00
04210            1280.00    -5920.00
04211            1260.00    -6000.00
04212            1260.00    -5920.00
04213            1300.00    -5920.00
04214            1300.00    -6080.00
04215            1280.00    -6080.00
04216            1300.00    -6000.00
04217            1280.00    -6080.00
04218            1300.00    -6000.00
04219            1300.00    -6080.00
04220            1320.00    -6080.00
04221            1300.00    -6160.00
04222            1320.00    -6080.00
04223            1320.00    -6080.00
04224            1320.00    -6080.00
04225            1320.00    -6080.00
04226            1320.00    -6080.00
04227            1320.00    -6080.00
04228            1320.00    -6160.00
04229            1340.00    -6160.00
04230            1320.00    -6160.00
04231            1320.00    -6160.00
04232            1340.00    -6160.00
04233            1340.00    -6160.00
04234            1340.00    -6160.00
04235            1340.00    -6080.00
04236            1340.00    -6160.00
04237            1340.00    -6160.00
04238            1360.00    -6240.00
04239            1340.00    -6160.00
04240            1340.00    -6160.00
04241            1340.00    -6160.00
04242            1360.00    -6240.00
04243            1340.00    -6240.00
04244            1360.00    -6240.00
04245            1360.00    -6160.00
04246            1380.00    -6240.00
04247            1340.00    -6240.00
04248            1360.00    -6160.00
04249            1380.00    -6240.00
04250            1380.00    -6240.00
04251            1380.00    -6240.00
04252            1380.00    -6240.00
04253            1380.00    -6160.00
04254            1380.00    -6160.00
04255            1360.00    -6240.00
04256            1380.00    -6160.00
04257            1360.00    -6240.00
04258            1340.00    -6160.00
04259            1360.00    -6160.00
04260            1380.00    -6240.00
04261            1380.00    -6160.00
04262            1340.00    -6240.00
04263            1380.00    -6240.00
04264            1380.00    -6160.00
04265            1360.00    -6240.00
04266            1340.00    -6160.00
04267            1380.00    -6240.00
04268            1380.00    -6160.00
04269            1380.00    -6240.00
04270            1380.00    -6160.00
04271            1380.00    -6160.00
04272            1380.00    -6240.00
04273            1380.00    -6160.00
04274            1380.00    -6160.00
04275            1380.00    -6160.00
04276            1360.00    -6160.00
04277            1380.00    -6160.00
04278            1340.00    -6160.00
04279            1380.00    -6080.00
04280            1360.00    -6160.00
04281            1380.00    -6160.00
04282            1360.00    -6160.00
04283            1360.00    -6080.00
04284            1380.00    -6080.00
04285            1380.00    -6080.00
04286            1380.00    -6080.00
04287            1360.00    -6080.00
04288            1380.00    -6080.00
04289            1340.00    -6080.00
04290            1380.00    -6080.00
04291            1360.00    -6080.00
04292            1360.00    -6080.00
04293            1340.00    -6080.00
04294            1340.00    -6080.00
04295            1380.00    -6000.00
04296            1360.00    -6080.00
04297            1340.00    -6080.00
04298            1360.00    -6000.00
04299            1340.00    -5920.00
04300            1340.00    -6000.00
04301            1360.00    -5920.00
04302            1340.00    -5920.00
04303            1340.00    -5920.00
04304            1340.00    -5920.00
04305            1320.00    -5920.00
04306            1340.00    -5920.00
04307            1340.00    -5920.00
04308            1320.00    -5920.00
04309            1340.00    -5840.00
04310            1340.00    -5840.00
04311            1320.00    -5840.00
04312            1340.00    -5840.00
04313            1320.00    -5840.00
04314            1320.00    -5840.00
04315            1320.00    -5840.00
04316            1320.00    -5760.00
04317            1320.00    -5760.00
04318            1320.00    -5760.00
04319            1320.00    -5760.00
04320            1300.00    -5760.00
04321            1320.00    -5760.00
04322            1300.00    -5680.00
04323            1320.00    -5680.00
04324            1300.00    -5600.00
04325            1300.00    -5600.00
04326            1300.00    -5600.00
04327            1280.00    -5600.00
04328            1280.00    -5600.00
04329            1300.00    -5600.00
04330            1260.00    -5600.00
04331            1260.00    -5520.00
04332            1260.00    -5600.00
04333            1260.00    -5520.00
04334            1240.00    -5520.00
04335            1240.00    -5440.00
04336            1240.00    -5440.00
04337            1260.00    -5440.00
04338            1240.00    -5440.00
04339            1240.00    -5440.00
04340            1240.00    -5440.00
04341            1240.00    -5360.00
04342            1240.00    -5360.00
04343            1220.00    -5280.00
04344            1220.00    -5280.00
04345            1220.00    -5280.00
04346            1220.00    -5280.00
04347            1220.00    -5200.00
04348            1200.00    -5200.00
04349            1220.00    -5200.00
04350            1220.00    -5200.00
04351            1220.00    -5200.00
04352            1180.00    -5120.00
04353            1200.00    -5120.00
04354            1180.00    -5120.00
04355            1180.00    -5120.00
04356            1200.00    -5040.00
04357            1160.00    -5040.00
04358            1180.00    -4960.00
04359            1160.00    -5040.00
04360            1160.00    -4960.00
04361            1160.00    -4960.00
04362            1160.00    -4880.00
04363            1160.00    -4960.00
04364            1140.00    -4880.00
04365            1160.00    -4880.00
04366            1140.00    -4800.00
04367            1140.00    -4800.00
04368            1140.00    -4880.00
04369            1120.00    -4720.00
04370            1140.00    -4800.00
04371            1120.00    -4640.00
04372            1100.00    -4640.00
04373            1100.00    -4640.00
04374            1100.00    -4640.00
04375            1100.00    -4560.00
04376            1100.00    -4560.00
04377            1080.00    -4560.00
04378            1080.00    -4560.00
04379            1080.00    -4480.00
04380            1080.00    -4400.00
04381            1080.00    -4400.00
04382            1060.00    -4400.00
04383            1060.00    -4400.00
04384            1060.00    -4320.00
04385            1040.00    -4320.00
04386            1040.00    -4320.00
04387            1020.00    -4240.00
04388            1020.00    -4240.00
04389            1020.00    -4240.00
04390            1000.00    -4160.00
04391            1000.00    -4160.00
04392            1000.00    -4080.00
04393            1000.00    -4080.00
04394             980.00    -4160.00
04395             980.00    -4000.00
04396             980.00    -4080.00
04397             980.00    -4000.00
04398             980.00    -4000.00
04399             960.00    -3920.00
04400             940.00    -3840.00
04401             920.00    -3840.00
04402             920.00    -3840.00
04403             920.00    -3840.00
04404             940.00    -3760.00
04405             900.00    -3680.00
04406             920.00    -3680.00
04407             900.00    -3680.00
04408             900.00    -3680.00
04409             900.00    -3600.00
04410             900.00    -3600.00
04411             900.00    -3520.00
04412             860.00    -3520.00
04413             860.00    -3520.00
04414             900.00    -3520.00
04415             860.00    -3360.00
04416             860.00    -3360.00
04417             840.00    -3360.00
04418             840.00    -3360.00
04419             840.00    -3280.00
04420             820.00    -3280.00
04421             820.00    -3200.00
04422             820.00    -3200.00
04423             820.00    -3200.00
04424             820.00    -3200.00
04425             800.00    -3120.00
04426             780.00    -3040.00
04427             780.00    -3040.00
04428             780.00    -3040.00
04429             760.00    -3040.00
04430             760.00    -2960.00
04431             760.00    -2880.00
04432             740.00    -2880.00
04433             740.00    -2880.00
04434             740.00    -2800.00
04435             740.00    -2800.00
04436             700.00    -2720.00
04437             700.00    -2640.00
04438             700.00    -2640.00
04439             700.00    -2640.00
04440             680.00    -2560.00
04441             680.00    -2560.00
04442             680.00    -2560.00
04443             680.00    -2480.00
04444             660.00    -2480.00
04445             660.00    -2480.00
04446             660.00    -2400.00
04447             620.00    -2400.00
04448             660.00    -2320.00
04449             620.00    -2320.00
04450             620.00    -2240.00
04451             600.00    -2240.00
04452             600.00    -2160.00
04453             600.00    -2160.00
04454             580.00    -2080.00
04455             580.00    -2080.00
04456             560.00    -2000.00
04457             560.00    -1920.00
04458             560.00    -2000.00
04459             540.00    -1920.00
04460             520.00    -1840.00
04461             540.00    -1840.00
04462             520.00    -1760.00
04463             520.00    -1760.00
04464             500.00    -1760.00
04465             500.00    -1760.00
04466             480.00    -1680.00
04467             460.00    -1600.00
04468             460.00    -1600.00
04469             440.00    -1520.00
04470             440.00    -1600.00
04471             440.00    -1440.00
04472             440.00    -1440.00
04473             420.00    -1440.00
04474             420.00    -1360.00
04475             420.00    -1360.00
04476             420.00    -1280.00
04477             380.00    -1280.00
04478             380.00    -1280.00
04479             360.00    -1200.00
04480             380.00    -1200.00
04481             360.00    -1120.00
04482             360.00    -1120.00
04483             340.00    -1040.00
04484             360.00     -960.00
04485             340.00     -960.00
04486             340.00     -960.00
04487             340.00     -960.00
04488             320.00     -880.00
04489             300.00     -800.00
04490             300.00     -800.00
04491             280.00     -720.00
04492             280.00     -720.00
04493             280.00     -720.00
04494             260.00     -640.00
04495             260.00     -640.00
04496             260.00     -640.00
04497             260.00     -480.00
04498             240.00     -400.00
04499             220.00     -400.00
04500             220.00     -400.00
04501             200.00     -320.00
04502             200.00     -320.00
04503             200.00     -320.00
04504             180.00     -240.00
04505             200.00     -160.00
04506             180.00     -160.00
04507             180.00      -80.00
04508             140.00     -160.00
04509             140.00      -80.00
04510             120.00        0.00
04511             120.00        0.00
04512             120.00       80.00
04513             120.00       80.00
04514             100.00      160.00
04515             100.00      160.00
04516             100.00      160.00
04517              60.00      240.00
04518              60.00      320.00
04519              40.00      320.00
04520              40.00      320.00
04521              40.00      320.00
04522              40.00      480.00
04523              20.00      560.00
04524              20.00      560.00
04525             -20.00      560.00
04526             -40.00      480.00
04527             -20.00      640.00
04528              20.00      800.00
04529             -40.00      640.00
04530             -60.00      720.00
04531             -40.00      880.00
04532             -40.00      880.00
04533            -100.00      720.00
04534             -60.00      960.00
04535             -60.00     1040.00
04536            -100.00      880.00
04537            -100.00      960.00
04538            -100.00     1200.00
04539            -120.00     1120.00
04540            -140.00     1120.00
04541            -120.00     1280.00
04542            -140.00     1200.00
04543            -140.00     1200.00
04544            -140.00     1280.00
04545            -140.00     1280.00
04546            -180.00     1360.00
04547            -160.00     1440.00
04548            -200.00     1440.00
04549            -200.00     1440.00
04550            -200.00     1600.00
04551            -220.00     1520.00
04552            -220.00     1600.00
04553            -220.00     1680.00
04554            -220.00     1600.00
04555            -260.00     1680.00
04556            -240.00     1760.00
04557            -260.00     1760.00
04558            -280.00     1840.00
04559            -280.00     1840.00
04560            -280.00     1840.00
04561            -300.00     1920.00
04562            -300.00     1920.00
04563            -300.00     2000.00
04564            -300.00     2080.00
04565            -340.00     2080.00
04566            -340.00     2160.00
04567            -340.00     2160.00
04568            -340.00     2240.00
04569            -360.00     2240.00
04570            -360.00     2240.00
04571            -380.00     2320.00
04572            -380.00     2320.00
04573            -380.00     2400.00
04574            -420.00     2480.00
04575            -420.00     2400.00
04576            -420.00     2480.00
04577            -440.00     2480.00
04578            -440.00     2560.00
04579            -440.00     2560.00
04580            -460.00     2560.00
04581            -460.00     2720.00
04582            -460.00     2720.00
04583            -480.00     2720.00
04584            -460.00     2800.00
04585            -520.00     2800.00
04586            -500.00     2800.00
04587            -520.00     2880.00
04588            -520.00     2880.00
04589            -540.00     2960.00
04590            -540.00     2960.00
04591            -540.00     3040.00
04592            -580.00     3120.00
04593            -580.00     3120.00
04594            -580.00     3120.00
04595            -580.00     3120.00
04596            -600.00     3280.00
04597            -600.00     3280.00
04598            -600.00     3200.00
04599            -620.00     3280.00
04600            -620.00     3360.00
04601            -620.00     3360.00
04602            -620.00     3360.00
04603            -620.00     3440.00
04604            -640.00     3440.00
04605            -660.00     3440.00
04606            -680.00     3520.00
04607            -660.00     3520.00
04608            -680.00     3520.00
04609            -680.00     3520.00
04610            -700.00     3680.00
04611            -700.00     3680.00
04612            -700.00     3680.00
04613            -700.00     3760.00
04614            -700.00     3760.00
04615            -700.00     3760.00
04616            -740.00     3840.00
04617            -720.00     3920.00
04618            -740.00     3840.00
04619            -740.00     3840.00
04620            -760.00     4000.00
04621            -780.00     4000.00
04622            -760.00     4000.00
04623            -780.00     4080.00
04624            -780.00     4080.00
04625            -780.00     4160.00
04626            -800.00     4160.00
04627            -820.00     4160.00
04628            -820.00     4160.00
04629            -820.00     4240.00
04630            -820.00     4320.00
04631            -840.00     4320.00
04632            -840.00     4320.00
04633            -860.00     4320.00
04634            -860.00     4400.00
04635            -860.00     4400.00
04636            -860.00     4400.00
04637            -860.00     4480.00
04638            -880.00     4480.00
04639            -900.00     4480.00
04640            -900.00     4480.00
04641            -900.00     4560.00
04642            -920.00     4640.00
04643            -920.00     4640.00
04644            -920.00     4640.00
04645            -920.00     4720.00
04646            -940.00     4720.00
04647            -940.00     4720.00
04648            -960.00     4720.00
04649            -940.00     4800.00
04650            -980.00     4800.00
04651            -980.00     4800.00
04652            -980.00     4800.00
04653            -980.00     4880.00
04654            -980.00     4960.00
04655           -1000.00     4960.00
04656           -1000.00     4960.00
04657           -1020.00     4960.00
04658           -1020.00     4960.00
04659           -1020.00     5040.00
04660           -1020.00     5040.00
04661           -1020.00     5040.00
04662           -1020.00     5040.00
04663           -1020.00     5120.00
04664           -1020.00     5120.00
04665           -1060.00     5120.00
04666           -1080.00     5200.00
04667           -1060.00     5200.00
04668           -1080.00     5280.00
04669           -1080.00     5280.00
04670           -1080.00     5280.00
04671           -1080.00     5280.00
04672           -1080.00     5360.00
04673           -1100.00     5280.00
04674           -1100.00     5360.00
04675           -1100.00     5360.00
04676           -1100.00     5360.00
04677           -1120.00     5440.00
04678           -1100.00     5440.00
04679           -1120.00     5440.00
04680           -1140.00     5440.00
04681           -1140.00     5520.00
04682           -1140.00     5520.00
04683           -1160.00     5600.00
04684           -1160.00     5600.00
04685           -1160.00     5600.00
04686           -1160.00     5600.00
04687           -1160.00     5600.00
04688           -1160.00     5600.00
04689           -1160.00     5680.00
04690           -1160.00     5600.00
04691           -1180.00     5680.00
04692           -1180.00     5680.00
04693           -1160.00     5680.00
04694           -1180.00     5760.00
04695           -1200.00     5760.00
04696           -1180.00     5840.00
04697           -1200.00     5760.00
04698           -1220.00     5840.00
04699           -1220.00     5840.00
04700           -1220.00     5840.00
04701           -1220.00     5840.00
04702           -1220.00     5920.00
04703           -1220.00     5840.00
04704           -1240.00     5840.00
04705           -1240.00     5920.00
04706           -1240.00     5920.00
04707           -1240.00     5920.00
04708           -1240.00     5920.00
04709           -1240.00     5920.00
04710           -1260.00     6000.00
04711           -1240.00     5920.00
04712           -1260.00     6000.00
04713           -1240.00     6000.00
04714           -1260.00     6000.00
04715           -1280.00     6000.00
04716           -1260.00     6000.00
04717           -1280.00     6000.00
04718           -1280.00     6000.00
04719           -1300.00     6000.00
04720           -1280.00     6080.00
04721           -1300.00     6000.00
04722           -1300.00     6080.00
04723           -1320.00     6080.00
04724           -1300.00     6080.00
04725           -1300.00     6160.00
04726           -1300.00     6160.00
04727           -1300.00     6160.00
04728           -1320.00     6160.00
04729           -1320.00     6160.00
04730           -1320.00     6160.00
04731           -1320.00     6080.00
04732           -1320.00     6240.00
04733           -1320.00     6080.00
04734           -1320.00     6240.00
04735           -1320.00     6160.00
04736           -1320.00     6240.00
04737           -1340.00     6240.00
04738           -1340.00     6240.00
04739           -1340.00     6240.00
04740           -1320.00     6240.00
04741           -1340.00     6240.00
04742           -1340.00     6320.00
04743           -1340.00     6240.00
04744           -1340.00     6240.00
04745           -1340.00     6320.00
04746           -1340.00     6320.00
04747           -1340.00     6320.00
04748           -1340.00     6240.00
04749           -1340.00     6240.00
04750           -1340.00     6240.00
04751           -1340.00     6320.00
04752           -1340.00     6320.00
04753           -1360.00     6320.00
04754           -1340.00     6320.00
04755           -1340.00     6320.00
04756           -1340.00     6320.00
04757           -1340.00     6320.00
04758           -1340.00     6240.00
04759           -1360.00     6320.00
04760           -1380.00     6320.00
04761           -1360.00     6320.00
04762           -1340.00     6320.00
04763           -1360.00     6320.00
04764           -1360.00     6320.00
04765           -1360.00     6320.00
04766           -1360.00     6320.00
04767           -1380.00     6240.00
04768           -1380.00     6320.00
04769           -1380.00     6320.00
04770           -1380.00     6320.00
04771           -1380.00     6240.00
04772           -1380.00     6320.00
04773           -1380.00     6240.00
04774           -1360.00     6320.00
04775           -1380.00     6320.00
04776           -1360.00     6320.00
04777           -1380.00     6320.00
04778           -1400.00     6320.00
04779           -1380.00     6320.00
04780           -1380.00     6240.00
04781           -1400.00     6240.00
04782           -1380.00     6240.00
04783           -1380.00     6320.00
04784           -1380.00     6240.00
04785           -1380.00     6240.00
04786           -1380.00     6240.00
04787           -1380.00     6240.00
04788           -1380.00     6240.00
04789           -1380.00     6240.00
04790           -1380.00     6240.00
04791           -1380.00     6240.00
04792           -1380.00     6240.00
04793           -1380.00     6160.00
04794           -1380.00     6240.00
04795           -1380.00     6240.00
04796           -1380.00     6160.00
04797           -1340.00     6240.00
04798           -1380.00     6160.00
04799           -1340.00     6160.00
04800           -1360.00     6160.00
04801           -1380.00     6080.00
04802           -1360.00     6080.00
04803           -1380.00     6160.00
04804           -1340.00     6080.00
04805           -1340.00     6080.00
04806           -1380.00     6080.00
04807           -1340.00     6080.00
04808           -1340.00     6080.00
04809           -1340.00     6080.00
04810           -1340.00     6080.00
04811           -1340.00     6000.00
04812           -1340.00     6000.00
04813           -1340.00     6000.00
04814           -1340.00     6000.00
04815           -1340.00     6000.00
04816           -1340.00     6000.00
04817           -1340.00     6000.00
04818           -1340.00     5920.00
04819           -1340.00     6000.00
04820           -1340.00     5920.00
04821           -1320.00     5920.00
04822           -1340.00     5920.00
04823           -1320.00     5920.00
04824           -1320.00     5920.00
04825           -1300.00     5920.00
04826           -1320.00     5840.00
04827           -1300.00     5840.00
04828           -1300.00     5840.00
04829           -1320.00     5840.00
04830           -1300.00     5840.00
04831           -1300.00     5760.00
04832           -1300.00     5760.00
04833           -1300.00     5760.00
04834           -1300.00     5680.00
04835           -1280.00     5680.00
04836           -1260.00     5680.00
04837           -1260.00     5680.00
04838           -1280.00     5600.00
04839           -1260.00     5680.00
04840           -1260.00     5600.00
04841           -1260.00     5600.00
04842           -1260.00     5600.00
04843           -1260.00     5520.00
04844           -1260.00     5600.00
04845           -1260.00     5440.00
04846           -1260.00     5520.00
04847           -1260.00     5440.00
04848           -1260.00     5440.00
04849           -1240.00     5440.00
04850           -1260.00     5440.00
04851           -1240.00     5440.00
04852           -1240.00     5360.00
04853           -1240.00     5360.00
04854           -1240.00     5280.00
04855           -1240.00     5360.00
04856           -1240.00     5280.00
04857           -1220.00     5280.00
04858           -1240.00     5280.00
04859           -1220.00     5280.00
04860           -1200.00     5200.00
04861           -1200.00     5200.00
04862           -1180.00     5200.00
04863           -1180.00     5200.00
04864           -1180.00     5120.00
04865           -1180.00     5120.00
04866           -1180.00     5120.00
04867           -1180.00     5040.00
04868           -1180.00     5120.00
04869           -1180.00     5040.00
04870           -1160.00     5040.00
04871           -1180.00     4960.00
04872           -1160.00     4960.00
04873           -1160.00     4880.00
04874           -1140.00     4960.00
04875           -1140.00     4800.00
04876           -1140.00     4880.00
04877           -1120.00     4800.00
04878           -1120.00     4800.00
04879           -1100.00     4800.00
04880           -1100.00     4720.00
04881           -1100.00     4800.00
04882           -1100.00     4720.00
04883           -1100.00     4640.00
04884           -1080.00     4720.00
04885           -1080.00     4640.00
04886           -1080.00     4640.00
04887           -1080.00     4560.00
04888           -1080.00     4560.00
04889           -1080.00     4480.00
04890           -1060.00     4480.00
04891           -1080.00     4480.00
04892           -1040.00     4400.00
04893           -1060.00     4480.00
04894           -1020.00     4320.00
04895           -1020.00     4320.00
04896           -1020.00     4320.00
04897           -1020.00     4320.00
04898           -1020.00     4320.00
04899           -1000.00     4240.00
04900           -1000.00     4240.00
04901           -1000.00     4160.00
04902           -1000.00     4160.00
04903           -1000.00     4160.00
04904            -980.00     4080.00
04905            -980.00     4080.00
04906            -980.00     4080.00
04907            -980.00     4000.00
04908            -940.00     4000.00
04909            -940.00     4000.00
04910            -940.00     3920.00
04911            -940.00     3840.00
04912            -940.00     3840.00
04913            -940.00     3760.00
04914            -920.00     3760.00
04915            -920.00     3760.00
04916            -920.00     3760.00
04917            -920.00     3680.00
04918            -920.00     3680.00
04919            -900.00     3680.00
04920            -900.00     3680.00
04921            -880.00     3600.00
04922            -880.00     3520.00
04923            -860.00     3520.00
04924            -860.00     3520.00
04925            -860.00     3440.00
04926            -860.00     3360.00
04927            -840.00     3440.00
04928            -840.00     3360.00
04929            -840.00     3360.00
04930            -820.00     3360.00
04931            -820.00     3280.00
04932            -820.00     3200.00
04933            -780.00     3200.00
04934            -820.00     3200.00
04935            -780.00     3120.00
04936            -780.00     3120.00
04937            -760.00     3040.00
04938            -760.00     3040.00
04939            -760.00     3040.00
04940            -740.00     2960.00
04941            -740.00     2880.00
04942            -740.00     2880.00
04943            -700.00     2880.00
04944            -740.00     2800.00
04945            -720.00     2800.00
04946            -700.00     2800.00
04947            -700.00     2720.00
04948            -680.00     2640.00
04949            -680.00     2640.00
04950            -680.00     2640.00
04951            -660.00     2560.00
04952            -660.00     2560.00
04953            -660.00     2480.00
04954            -660.00     2480.00
04955            -620.00     2400.00
04956            -620.00     2400.00
04957            -620.00     2400.00
04958            -620.00     2320.00
04959            -600.00     2400.00
04960            -600.00     2240.00
04961            -600.00     2240.00
04962            -580.00     2160.00
04963            -580.00     2160.00
04964            -580.00     2160.00
04965            -540.00     2160.00
04966            -540.00     2000.00
04967            -540.00     2000.00
04968            -540.00     1920.00
04969            -520.00     1920.00
04970            -540.00     1920.00
04971            -520.00     1920.00
04972            -500.00     1840.00
04973            -500.00     1840.00
04974            -500.00     1760.00
04975            -480.00     1760.00
04976            -500.00     1680.00
04977            -460.00     1600.00
04978            -460.00     1600.00
04979            -460.00     1520.00
04980            -440.00     1520.00
04981            -440.00     1440.00
04982            -440.00     1440.00
04983            -440.00     1440.00
04984            -420.00     1440.00
04985            -420.00     1280.00
04986            -400.00     1360.00
04987            -380.00     1200.00
04988            -380.00     1200.00
04989            -380.00     1200.00
04990            -380.00     1120.00
04991            -360.00     1120.00
04992            -360.00     1120.00
04993            -360.00     1040.00
04994            -360.00      960.00
04995            -340.00      960.00
04996            -320.00      960.00
04997            -300.00      800.00
04998            -300.00      800.00
04999            -300.00      800.00
05000            -300.00      800.00
