Unit:(mV)
                     CH1         CH2
Frequency              ?  98.434 kHz
00001            -500.00    -2640.00
00002            -520.00    -2720.00
00003            -520.00    -2720.00
00004            -540.00    -2720.00
00005            -540.00    -2880.00
00006            -540.00    -2880.00
00007            -540.00    -2960.00
00008            -580.00    -2960.00
00009            -580.00    -2960.00
00010            -600.00    -3040.00
00011            -600.00    -3040.00
00012            -600.00    -3200.00
00013            -620.00    -3120.00
00014            -620.00    -3280.00
00015            -620.00    -3280.00
00016            -620.00    -3280.00
00017            -660.00    -3360.00
00018            -660.00    -3360.00
00019            -660.00    -3360.00
00020            -680.00    -3520.00
00021            -680.00    -3520.00
00022            -700.00    -3520.00
00023            -700.00    -3600.00
00024            -740.00    -3600.00
00025            -700.00    -3680.00
00026            -740.00    -3680.00
00027            -720.00    -3680.00
00028            -740.00    -3760.00
00029            -760.00    -3840.00
00030            -740.00    -3840.00
00031            -760.00    -3920.00
00032            -760.00    -3920.00
00033            -780.00    -3920.00
00034            -780.00    -4000.00
00035            -780.00    -4000.00
00036            -820.00    -4000.00
00037            -820.00    -4160.00
00038            -820.00    -4160.00
00039            -840.00    -4240.00
00040            -840.00    -4240.00
00041            -840.00    -4240.00
00042            -860.00    -4320.00
00043            -840.00    -4320.00
00044            -860.00    -4400.00
00045            -860.00    -4400.00
00046            -880.00    -4480.00
00047            -900.00    -4560.00
00048            -900.00    -4560.00
00049            -900.00    -4560.00
00050            -920.00    -4640.00
00051            -920.00    -4640.00
00052            -920.00    -4720.00
00053            -920.00    -4800.00
00054            -940.00    -4800.00
00055            -940.00    -4800.00
00056            -940.00    -4880.00
00057            -960.00    -4880.00
00058            -980.00    -4960.00
00059            -980.00    -4960.00
00060            -980.00    -4960.00
00061           -1000.00    -5040.00
00062           -1000.00    -5040.00
00063           -1000.00    -5120.00
00064           -1020.00    -5120.00
00065           -1020.00    -5120.00
00066           -1020.00    -5200.00
00067           -1060.00    -5200.00
00068           -1020.00    -5280.00
00069           -1060.00    -5280.00
00070           -1080.00    -5280.00
00071           -1080.00    -5440.00
00072           -1080.00    -5440.00
00073           -1080.00    -5440.00
00074           -1100.00    -5440.00
00075           -1100.00    -5520.00
00076           -1100.00    -5520.00
00077           -1100.00    -5600.00
00078           -1100.00    -5600.00
00079           -1140.00    -5600.00
00080           -1120.00    -5600.00
00081           -1160.00    -5600.00
00082           -1140.00    -5760.00
00083           -1160.00    -5760.00
00084           -1160.00    -5840.00
00085           -1160.00    -5760.00
00086           -1160.00    -5840.00
00087           -1180.00    -5840.00
00088           -1180.00    -5840.00
00089           -1180.00    -5920.00
00090           -1200.00    -5920.00
00091           -1180.00    -5920.00
00092           -1220.00    -6000.00
00093           -1200.00    -6080.00
00094           -1220.00    -6080.00
00095           -1240.00    -6080.00
00096           -1220.00    -6080.00
00097           -1220.00    -6160.00
00098           -1240.00    -6160.00
00099           -1240.00    -6240.00
00100           -1260.00    -6240.00
00101           -1260.00    -6240.00
00102           -1260.00    -6320.00
00103           -1260.00    -6320.00
00104           -1260.00    -6240.00
00105           -1260.00    -6320.00
00106           -1260.00    -6400.00
00107           -1280.00    -6400.00
00108           -1300.00    -6480.00
00109           -1300.00    -6480.00
00110           -1300.00    -6480.00
00111           -1300.00    -6480.00
00112           -1320.00    -6480.00
00113           -1320.00    -6560.00
00114           -1320.00    -6560.00
00115           -1300.00    -6640.00
00116           -1320.00    -6560.00
00117           -1340.00    -6640.00
00118           -1340.00    -6720.00
00119           -1340.00    -6720.00
00120           -1340.00    -6720.00
00121           -1340.00    -6720.00
00122           -1340.00    -6720.00
00123           -1340.00    -6720.00
00124           -1360.00    -6720.00
00125           -1340.00    -6800.00
00126           -1380.00    -6800.00
00127           -1380.00    -6800.00
00128           -1400.00    -6800.00
00129           -1400.00    -6880.00
00130           -1400.00    -6880.00
00131           -1400.00    -6880.00
00132           -1400.00    -6880.00
00133           -1400.00    -6960.00
00134           -1400.00    -6880.00
00135           -1400.00    -6960.00
00136           -1420.00    -7040.00
00137           -1420.00    -6960.00
00138           -1400.00    -7040.00
00139           -1420.00    -7040.00
00140           -1420.00    -7040.00
00141           -1460.00    -7040.00
00142           -1440.00    -7040.00
00143           -1460.00    -6960.00
00144           -1420.00    -7120.00
00145           -1460.00    -7040.00
00146           -1460.00    -7120.00
00147           -1460.00    -7120.00
00148           -1480.00    -7120.00
00149           -1480.00    -7200.00
00150           -1480.00    -7200.00
00151           -1480.00    -7280.00
00152           -1480.00    -7200.00
00153           -1460.00    -7280.00
00154           -1480.00    -7200.00
00155           -1480.00    -7200.00
00156           -1480.00    -7280.00
00157           -1480.00    -7360.00
00158           -1480.00    -7360.00
00159           -1480.00    -7360.00
00160           -1480.00    -7360.00
00161           -1500.00    -7280.00
00162           -1480.00    -7360.00
00163           -1480.00    -7360.00
00164           -1500.00    -7360.00
00165           -1500.00    -7360.00
00166           -1500.00    -7360.00
00167           -1500.00    -7360.00
00168           -1500.00    -7440.00
00169           -1500.00    -7360.00
00170           -1500.00    -7440.00
00171           -1500.00    -7440.00
00172           -1500.00    -7440.00
00173           -1500.00    -7440.00
00174           -1520.00    -7520.00
00175           -1500.00    -7440.00
00176           -1500.00    -7360.00
00177           -1500.00    -7440.00
00178           -1500.00    -7440.00
00179           -1500.00    -7440.00
00180           -1540.00    -7440.00
00181           -1520.00    -7440.00
00182           -1500.00    -7440.00
00183           -1500.00    -7520.00
00184           -1520.00    -7440.00
00185           -1540.00    -7520.00
00186           -1520.00    -7520.00
00187           -1540.00    -7520.00
00188           -1540.00    -7520.00
00189           -1520.00    -7440.00
00190           -1540.00    -7520.00
00191           -1540.00    -7440.00
00192           -1500.00    -7520.00
00193           -1540.00    -7520.00
00194           -1540.00    -7520.00
00195           -1540.00    -7520.00
00196           -1540.00    -7440.00
00197           -1560.00    -7520.00
00198           -1520.00    -7440.00
00199           -1540.00    -7520.00
00200           -1540.00    -7520.00
00201           -1540.00    -7520.00
00202           -1540.00    -7440.00
00203           -1560.00    -7520.00
00204           -1540.00    -7520.00
00205           -1540.00    -7440.00
00206           -1540.00    -7520.00
00207           -1540.00    -7520.00
00208           -1560.00    -7440.00
00209           -1540.00    -7440.00
00210           -1540.00    -7520.00
00211           -1540.00    -7520.00
00212           -1540.00    -7440.00
00213           -1540.00    -7440.00
00214           -1560.00    -7440.00
00215           -1520.00    -7440.00
00216           -1540.00    -7440.00
00217           -1540.00    -7440.00
00218           -1540.00    -7440.00
00219           -1540.00    -7360.00
00220           -1540.00    -7440.00
00221           -1520.00    -7360.00
00222           -1540.00    -7360.00
00223           -1520.00    -7360.00
00224           -1540.00    -7440.00
00225           -1500.00    -7360.00
00226           -1500.00    -7360.00
00227           -1500.00    -7360.00
00228           -1500.00    -7360.00
00229           -1500.00    -7280.00
00230           -1500.00    -7360.00
00231           -1500.00    -7280.00
00232           -1500.00    -7280.00
00233           -1500.00    -7280.00
00234           -1500.00    -7360.00
00235           -1500.00    -7280.00
00236           -1500.00    -7200.00
00237           -1480.00    -7200.00
00238           -1500.00    -7200.00
00239           -1500.00    -7200.00
00240           -1480.00    -7120.00
00241           -1480.00    -7200.00
00242           -1480.00    -7200.00
00243           -1480.00    -7120.00
00244           -1480.00    -7120.00
00245           -1480.00    -7120.00
00246           -1480.00    -7120.00
00247           -1480.00    -6960.00
00248           -1460.00    -7120.00
00249           -1460.00    -7040.00
00250           -1460.00    -7040.00
00251           -1480.00    -7040.00
00252           -1460.00    -6960.00
00253           -1460.00    -6960.00
00254           -1460.00    -6960.00
00255           -1460.00    -6880.00
00256           -1420.00    -6960.00
00257           -1460.00    -6960.00
00258           -1420.00    -6880.00
00259           -1460.00    -6880.00
00260           -1440.00    -6880.00
00261           -1440.00    -6880.00
00262           -1420.00    -6880.00
00263           -1420.00    -6800.00
00264           -1420.00    -6800.00
00265           -1420.00    -6800.00
00266           -1420.00    -6800.00
00267           -1400.00    -6720.00
00268           -1400.00    -6720.00
00269           -1400.00    -6720.00
00270           -1400.00    -6720.00
00271           -1400.00    -6720.00
00272           -1400.00    -6720.00
00273           -1400.00    -6640.00
00274           -1380.00    -6640.00
00275           -1380.00    -6560.00
00276           -1400.00    -6560.00
00277           -1360.00    -6560.00
00278           -1360.00    -6560.00
00279           -1380.00    -6480.00
00280           -1340.00    -6480.00
00281           -1360.00    -6400.00
00282           -1340.00    -6400.00
00283           -1340.00    -6400.00
00284           -1340.00    -6400.00
00285           -1340.00    -6320.00
00286           -1340.00    -6320.00
00287           -1320.00    -6320.00
00288           -1320.00    -6240.00
00289           -1320.00    -6240.00
00290           -1300.00    -6160.00
00291           -1280.00    -6160.00
00292           -1320.00    -6160.00
00293           -1300.00    -6160.00
00294           -1300.00    -6160.00
00295           -1300.00    -6080.00
00296           -1260.00    -6080.00
00297           -1260.00    -6080.00
00298           -1260.00    -6000.00
00299           -1260.00    -5920.00
00300           -1260.00    -6000.00
00301           -1240.00    -5920.00
00302           -1240.00    -5920.00
00303           -1240.00    -5840.00
00304           -1240.00    -5840.00
00305           -1240.00    -5760.00
00306           -1220.00    -5760.00
00307           -1220.00    -5760.00
00308           -1180.00    -5760.00
00309           -1220.00    -5680.00
00310           -1180.00    -5680.00
00311           -1200.00    -5600.00
00312           -1180.00    -5600.00
00313           -1180.00    -5520.00
00314           -1180.00    -5520.00
00315           -1140.00    -5520.00
00316           -1160.00    -5520.00
00317           -1160.00    -5440.00
00318           -1160.00    -5440.00
00319           -1140.00    -5360.00
00320           -1140.00    -5360.00
00321           -1120.00    -5360.00
00322           -1140.00    -5280.00
00323           -1100.00    -5280.00
00324           -1100.00    -5200.00
00325           -1100.00    -5200.00
00326           -1080.00    -5200.00
00327           -1100.00    -5120.00
00328           -1080.00    -5120.00
00329           -1080.00    -5040.00
00330           -1080.00    -4960.00
00331           -1080.00    -5040.00
00332           -1080.00    -4960.00
00333           -1060.00    -4880.00
00334           -1060.00    -4880.00
00335           -1020.00    -4880.00
00336           -1020.00    -4800.00
00337           -1020.00    -4800.00
00338           -1020.00    -4800.00
00339           -1020.00    -4720.00
00340           -1020.00    -4640.00
00341           -1000.00    -4560.00
00342           -1000.00    -4560.00
00343            -980.00    -4560.00
00344            -980.00    -4400.00
00345            -960.00    -4480.00
00346            -980.00    -4400.00
00347            -960.00    -4400.00
00348            -940.00    -4320.00
00349            -940.00    -4320.00
00350            -920.00    -4320.00
00351            -920.00    -4320.00
00352            -920.00    -4240.00
00353            -920.00    -4160.00
00354            -920.00    -4160.00
00355            -880.00    -4160.00
00356            -900.00    -4000.00
00357            -880.00    -4000.00
00358            -860.00    -3920.00
00359            -840.00    -3920.00
00360            -860.00    -3920.00
00361            -860.00    -3840.00
00362            -840.00    -3840.00
00363            -840.00    -3840.00
00364            -820.00    -3760.00
00365            -820.00    -3680.00
00366            -800.00    -3600.00
00367            -820.00    -3600.00
00368            -780.00    -3600.00
00369            -760.00    -3520.00
00370            -780.00    -3520.00
00371            -760.00    -3520.00
00372            -760.00    -3440.00
00373            -740.00    -3360.00
00374            -740.00    -3360.00
00375            -740.00    -3360.00
00376            -740.00    -3200.00
00377            -700.00    -3200.00
00378            -700.00    -3200.00
00379            -700.00    -3200.00
00380            -680.00    -3120.00
00381            -680.00    -3040.00
00382            -660.00    -3040.00
00383            -680.00    -2960.00
00384            -660.00    -2880.00
00385            -640.00    -2880.00
00386            -620.00    -2880.00
00387            -620.00    -2800.00
00388            -620.00    -2720.00
00389            -620.00    -2720.00
00390            -600.00    -2640.00
00391            -600.00    -2640.00
00392            -600.00    -2640.00
00393            -600.00    -2560.00
00394            -580.00    -2560.00
00395            -560.00    -2480.00
00396            -560.00    -2400.00
00397            -540.00    -2400.00
00398            -540.00    -2240.00
00399            -540.00    -2320.00
00400            -520.00    -2240.00
00401            -520.00    -2240.00
00402            -500.00    -2160.00
00403            -500.00    -2080.00
00404            -500.00    -2080.00
00405            -460.00    -2000.00
00406            -480.00    -1920.00
00407            -460.00    -1840.00
00408            -440.00    -1840.00
00409            -440.00    -1920.00
00410            -440.00    -1760.00
00411            -440.00    -1760.00
00412            -420.00    -1680.00
00413            -420.00    -1680.00
00414            -400.00    -1600.00
00415            -380.00    -1600.00
00416            -380.00    -1520.00
00417            -360.00    -1440.00
00418            -380.00    -1440.00
00419            -340.00    -1440.00
00420            -340.00    -1360.00
00421            -340.00    -1280.00
00422            -340.00    -1280.00
00423            -320.00    -1200.00
00424            -300.00    -1120.00
00425            -280.00    -1120.00
00426            -300.00    -1120.00
00427            -280.00    -1040.00
00428            -260.00     -960.00
00429            -260.00     -960.00
00430            -240.00     -880.00
00431            -220.00     -800.00
00432            -220.00     -800.00
00433            -220.00     -720.00
00434            -220.00     -720.00
00435            -200.00     -640.00
00436            -200.00     -640.00
00437            -200.00     -640.00
00438            -180.00     -480.00
00439            -160.00     -400.00
00440            -140.00     -400.00
00441            -140.00     -400.00
00442            -120.00     -320.00
00443            -120.00     -320.00
00444            -120.00     -240.00
00445            -120.00     -160.00
00446            -100.00     -160.00
00447            -100.00     -160.00
00448            -100.00      -80.00
00449             -60.00      -80.00
00450             -60.00       80.00
00451             -40.00       80.00
00452             -60.00      160.00
00453             -40.00      160.00
00454             -20.00      240.00
00455             -20.00      240.00
00456             -20.00      320.00
00457              20.00      320.00
00458              20.00      320.00
00459              20.00      400.00
00460              40.00      480.00
00461              60.00      560.00
00462              60.00      640.00
00463              20.00      560.00
00464             -20.00      560.00
00465              60.00      800.00
00466             160.00      880.00
00467              80.00      800.00
00468              40.00      800.00
00469             140.00     1040.00
00470             140.00      960.00
00471             100.00      880.00
00472             140.00     1120.00
00473             220.00     1200.00
00474             120.00     1040.00
00475             140.00     1120.00
00476             220.00     1280.00
00477             180.00     1200.00
00478             200.00     1280.00
00479             240.00     1440.00
00480             200.00     1360.00
00481             200.00     1440.00
00482             260.00     1520.00
00483             240.00     1520.00
00484             260.00     1600.00
00485             280.00     1680.00
00486             260.00     1600.00
00487             280.00     1760.00
00488             340.00     1760.00
00489             300.00     1840.00
00490             300.00     1840.00
00491             340.00     1920.00
00492             340.00     1920.00
00493             340.00     2080.00
00494             360.00     2080.00
00495             360.00     2080.00
00496             380.00     2160.00
00497             380.00     2240.00
00498             380.00     2240.00
00499             420.00     2320.00
00500             420.00     2400.00
00501             420.00     2320.00
00502             420.00     2400.00
00503             440.00     2480.00
00504             440.00     2480.00
00505             440.00     2560.00
00506             500.00     2560.00
00507             500.00     2640.00
00508             460.00     2720.00
00509             520.00     2720.00
00510             500.00     2800.00
00511             520.00     2800.00
00512             520.00     2880.00
00513             540.00     2880.00
00514             520.00     2880.00
00515             540.00     3040.00
00516             560.00     3120.00
00517             580.00     3120.00
00518             580.00     3120.00
00519             580.00     3120.00
00520             600.00     3280.00
00521             600.00     3200.00
00522             600.00     3280.00
00523             600.00     3360.00
00524             640.00     3360.00
00525             620.00     3440.00
00526             620.00     3440.00
00527             660.00     3520.00
00528             660.00     3520.00
00529             660.00     3520.00
00530             680.00     3680.00
00531             680.00     3600.00
00532             700.00     3760.00
00533             700.00     3760.00
00534             700.00     3840.00
00535             720.00     3760.00
00536             740.00     3920.00
00537             740.00     3840.00
00538             740.00     3920.00
00539             740.00     4000.00
00540             760.00     4000.00
00541             760.00     4080.00
00542             780.00     4160.00
00543             780.00     4160.00
00544             800.00     4160.00
00545             820.00     4160.00
00546             780.00     4320.00
00547             840.00     4320.00
00548             840.00     4320.00
00549             840.00     4400.00
00550             860.00     4400.00
00551             860.00     4480.00
00552             860.00     4480.00
00553             860.00     4480.00
00554             880.00     4560.00
00555             880.00     4640.00
00556             880.00     4640.00
00557             900.00     4720.00
00558             900.00     4720.00
00559             900.00     4800.00
00560             920.00     4800.00
00561             940.00     4800.00
00562             940.00     4880.00
00563             940.00     4880.00
00564             940.00     4960.00
00565             940.00     4960.00
00566             980.00     4960.00
00567             980.00     5040.00
00568            1000.00     5120.00
00569             980.00     5120.00
00570            1000.00     5120.00
00571            1000.00     5120.00
00572            1020.00     5280.00
00573            1020.00     5280.00
00574            1020.00     5280.00
00575            1040.00     5280.00
00576            1060.00     5360.00
00577            1060.00     5440.00
00578            1060.00     5440.00
00579            1060.00     5440.00
00580            1060.00     5440.00
00581            1060.00     5520.00
00582            1100.00     5520.00
00583            1080.00     5600.00
00584            1100.00     5600.00
00585            1100.00     5680.00
00586            1100.00     5680.00
00587            1140.00     5760.00
00588            1100.00     5840.00
00589            1140.00     5760.00
00590            1120.00     5760.00
00591            1140.00     5840.00
00592            1140.00     5840.00
00593            1160.00     5920.00
00594            1160.00     5920.00
00595            1160.00     5920.00
00596            1160.00     6000.00
00597            1160.00     6000.00
00598            1160.00     6080.00
00599            1180.00     6080.00
00600            1180.00     6080.00
00601            1180.00     6080.00
00602            1200.00     6240.00
00603            1220.00     6160.00
00604            1220.00     6240.00
00605            1220.00     6240.00
00606            1220.00     6240.00
00607            1220.00     6240.00
00608            1240.00     6320.00
00609            1220.00     6320.00
00610            1240.00     6400.00
00611            1240.00     6400.00
00612            1260.00     6400.00
00613            1260.00     6400.00
00614            1260.00     6480.00
00615            1260.00     6480.00
00616            1300.00     6560.00
00617            1300.00     6560.00
00618            1300.00     6560.00
00619            1300.00     6560.00
00620            1300.00     6640.00
00621            1300.00     6640.00
00622            1300.00     6640.00
00623            1300.00     6640.00
00624            1320.00     6640.00
00625            1320.00     6720.00
00626            1320.00     6720.00
00627            1340.00     6720.00
00628            1380.00     6800.00
00629            1340.00     6800.00
00630            1360.00     6880.00
00631            1380.00     6880.00
00632            1380.00     6880.00
00633            1380.00     6880.00
00634            1380.00     6880.00
00635            1380.00     6960.00
00636            1380.00     6880.00
00637            1380.00     6960.00
00638            1400.00     6960.00
00639            1400.00     6960.00
00640            1380.00     6960.00
00641            1400.00     7040.00
00642            1400.00     7040.00
00643            1400.00     7040.00
00644            1420.00     7040.00
00645            1420.00     7040.00
00646            1420.00     7040.00
00647            1420.00     7200.00
00648            1420.00     7200.00
00649            1420.00     7200.00
00650            1420.00     7280.00
00651            1420.00     7120.00
00652            1420.00     7200.00
00653            1420.00     7200.00
00654            1460.00     7280.00
00655            1460.00     7280.00
00656            1460.00     7200.00
00657            1440.00     7280.00
00658            1460.00     7280.00
00659            1460.00     7280.00
00660            1460.00     7360.00
00661            1480.00     7360.00
00662            1460.00     7360.00
00663            1460.00     7360.00
00664            1480.00     7360.00
00665            1480.00     7360.00
00666            1480.00     7360.00
00667            1480.00     7360.00
00668            1480.00     7360.00
00669            1480.00     7360.00
00670            1480.00     7360.00
00671            1480.00     7360.00
00672            1480.00     7440.00
00673            1480.00     7440.00
00674            1480.00     7520.00
00675            1480.00     7520.00
00676            1500.00     7520.00
00677            1480.00     7520.00
00678            1500.00     7440.00
00679            1500.00     7520.00
00680            1500.00     7520.00
00681            1520.00     7520.00
00682            1500.00     7520.00
00683            1500.00     7520.00
00684            1520.00     7520.00
00685            1500.00     7520.00
00686            1520.00     7520.00
00687            1500.00     7520.00
00688            1540.00     7600.00
00689            1540.00     7520.00
00690            1540.00     7600.00
00691            1540.00     7520.00
00692            1540.00     7520.00
00693            1540.00     7520.00
00694            1540.00     7600.00
00695            1540.00     7520.00
00696            1540.00     7600.00
00697            1540.00     7520.00
00698            1540.00     7600.00
00699            1540.00     7600.00
00700            1540.00     7600.00
00701            1540.00     7520.00
00702            1540.00     7600.00
00703            1540.00     7600.00
00704            1540.00     7600.00
00705            1540.00     7520.00
00706            1540.00     7520.00
00707            1540.00     7600.00
00708            1540.00     7520.00
00709            1540.00     7520.00
00710            1540.00     7600.00
00711            1540.00     7600.00
00712            1540.00     7520.00
00713            1540.00     7520.00
00714            1540.00     7520.00
00715            1540.00     7600.00
00716            1540.00     7600.00
00717            1540.00     7520.00
00718            1540.00     7600.00
00719            1520.00     7520.00
00720            1540.00     7520.00
00721            1540.00     7520.00
00722            1500.00     7520.00
00723            1500.00     7520.00
00724            1540.00     7520.00
00725            1500.00     7520.00
00726            1500.00     7520.00
00727            1540.00     7520.00
00728            1540.00     7520.00
00729            1520.00     7520.00
00730            1500.00     7520.00
00731            1500.00     7520.00
00732            1500.00     7440.00
00733            1500.00     7440.00
00734            1520.00     7440.00
00735            1500.00     7520.00
00736            1500.00     7360.00
00737            1500.00     7440.00
00738            1500.00     7360.00
00739            1500.00     7360.00
00740            1500.00     7360.00
00741            1500.00     7360.00
00742            1480.00     7360.00
00743            1480.00     7360.00
00744            1480.00     7280.00
00745            1480.00     7360.00
00746            1500.00     7280.00
00747            1480.00     7280.00
00748            1480.00     7360.00
00749            1480.00     7280.00
00750            1480.00     7280.00
00751            1480.00     7280.00
00752            1480.00     7200.00
00753            1480.00     7200.00
00754            1480.00     7280.00
00755            1480.00     7200.00
00756            1480.00     7120.00
00757            1460.00     7120.00
00758            1460.00     7200.00
00759            1480.00     7200.00
00760            1460.00     7040.00
00761            1460.00     7040.00
00762            1460.00     7040.00
00763            1460.00     7040.00
00764            1460.00     7040.00
00765            1460.00     7040.00
00766            1460.00     7040.00
00767            1440.00     6960.00
00768            1420.00     6960.00
00769            1440.00     6960.00
00770            1420.00     6880.00
00771            1420.00     6880.00
00772            1420.00     6880.00
00773            1400.00     6880.00
00774            1420.00     6880.00
00775            1400.00     6880.00
00776            1400.00     6800.00
00777            1400.00     6800.00
00778            1400.00     6720.00
00779            1380.00     6720.00
00780            1380.00     6720.00
00781            1380.00     6720.00
00782            1380.00     6720.00
00783            1380.00     6640.00
00784            1360.00     6640.00
00785            1340.00     6640.00
00786            1340.00     6560.00
00787            1340.00     6560.00
00788            1340.00     6560.00
00789            1320.00     6560.00
00790            1320.00     6560.00
00791            1320.00     6480.00
00792            1320.00     6480.00
00793            1320.00     6400.00
00794            1320.00     6400.00
00795            1320.00     6400.00
00796            1300.00     6400.00
00797            1300.00     6320.00
00798            1300.00     6320.00
00799            1280.00     6240.00
00800            1280.00     6240.00
00801            1260.00     6240.00
00802            1260.00     6240.00
00803            1280.00     6240.00
00804            1260.00     6160.00
00805            1240.00     6080.00
00806            1260.00     6080.00
00807            1260.00     6080.00
00808            1240.00     6080.00
00809            1240.00     6000.00
00810            1240.00     6000.00
00811            1220.00     5920.00
00812            1220.00     5920.00
00813            1220.00     5920.00
00814            1220.00     5920.00
00815            1220.00     5760.00
00816            1180.00     5840.00
00817            1200.00     5760.00
00818            1220.00     5760.00
00819            1180.00     5680.00
00820            1180.00     5680.00
00821            1160.00     5680.00
00822            1180.00     5680.00
00823            1160.00     5600.00
00824            1160.00     5600.00
00825            1160.00     5600.00
00826            1160.00     5440.00
00827            1140.00     5440.00
00828            1140.00     5360.00
00829            1120.00     5360.00
00830            1140.00     5360.00
00831            1100.00     5280.00
00832            1100.00     5280.00
00833            1100.00     5280.00
00834            1100.00     5200.00
00835            1080.00     5280.00
00836            1080.00     5200.00
00837            1060.00     5120.00
00838            1080.00     5120.00
00839            1060.00     5120.00
00840            1060.00     5040.00
00841            1060.00     4960.00
00842            1060.00     4960.00
00843            1060.00     4960.00
00844            1020.00     4880.00
00845            1020.00     4800.00
00846            1020.00     4800.00
00847            1000.00     4800.00
00848            1000.00     4720.00
00849            1000.00     4720.00
00850             980.00     4640.00
00851             980.00     4640.00
00852             980.00     4560.00
00853             940.00     4480.00
00854             940.00     4480.00
00855             920.00     4480.00
00856             940.00     4480.00
00857             920.00     4400.00
00858             920.00     4320.00
00859             920.00     4320.00
00860             920.00     4320.00
00861             900.00     4320.00
00862             900.00     4240.00
00863             860.00     4160.00
00864             860.00     4160.00
00865             860.00     4080.00
00866             840.00     4080.00
00867             840.00     4000.00
00868             860.00     4000.00
00869             840.00     4000.00
00870             820.00     3840.00
00871             820.00     3920.00
00872             820.00     3840.00
00873             800.00     3840.00
00874             820.00     3760.00
00875             780.00     3680.00
00876             780.00     3680.00
00877             760.00     3680.00
00878             780.00     3600.00
00879             760.00     3520.00
00880             760.00     3520.00
00881             740.00     3520.00
00882             740.00     3440.00
00883             740.00     3360.00
00884             700.00     3360.00
00885             700.00     3360.00
00886             700.00     3200.00
00887             700.00     3280.00
00888             680.00     3200.00
00889             680.00     3200.00
00890             680.00     3120.00
00891             660.00     3040.00
00892             660.00     3040.00
00893             620.00     3040.00
00894             660.00     2960.00
00895             620.00     2880.00
00896             620.00     2800.00
00897             620.00     2800.00
00898             600.00     2800.00
00899             580.00     2720.00
00900             580.00     2640.00
00901             580.00     2560.00
00902             580.00     2560.00
00903             580.00     2560.00
00904             540.00     2480.00
00905             540.00     2480.00
00906             540.00     2400.00
00907             520.00     2400.00
00908             520.00     2400.00
00909             500.00     2240.00
00910             500.00     2240.00
00911             500.00     2160.00
00912             460.00     2080.00
00913             460.00     2080.00
00914             440.00     2080.00
00915             440.00     2000.00
00916             420.00     1920.00
00917             420.00     1920.00
00918             420.00     1920.00
00919             400.00     1840.00
00920             400.00     1760.00
00921             380.00     1760.00
00922             360.00     1680.00
00923             360.00     1600.00
00924             360.00     1600.00
00925             340.00     1520.00
00926             340.00     1520.00
00927             340.00     1440.00
00928             320.00     1440.00
00929             340.00     1440.00
00930             320.00     1280.00
00931             300.00     1280.00
00932             280.00     1200.00
00933             280.00     1200.00
00934             260.00     1120.00
00935             260.00     1120.00
00936             260.00     1120.00
00937             220.00      960.00
00938             240.00     1040.00
00939             220.00      880.00
00940             220.00      880.00
00941             200.00      800.00
00942             200.00      800.00
00943             180.00      720.00
00944             180.00      640.00
00945             180.00      640.00
00946             180.00      560.00
00947             160.00      560.00
00948             140.00      480.00
00949             140.00      480.00
00950             120.00      400.00
00951             120.00      320.00
00952             120.00      320.00
00953             100.00      320.00
00954             100.00      160.00
00955             100.00      160.00
00956              60.00      160.00
00957              60.00       80.00
00958              60.00        0.00
00959              40.00        0.00
00960              40.00      -80.00
00961              20.00      -80.00
00962              20.00     -160.00
00963              20.00     -160.00
00964             -20.00     -240.00
00965              20.00     -240.00
00966             -20.00     -320.00
00967             -40.00     -320.00
00968             -20.00     -400.00
00969             -20.00     -400.00
00970             -20.00     -400.00
00971             -60.00     -640.00
00972            -120.00     -720.00
00973            -140.00     -720.00
00974            -100.00     -640.00
00975             -40.00     -640.00
00976            -120.00     -800.00
00977            -180.00     -800.00
00978            -100.00     -800.00
00979            -140.00     -960.00
00980            -200.00    -1040.00
00981            -180.00     -960.00
00982            -120.00    -1040.00
00983            -220.00    -1120.00
00984            -220.00    -1120.00
00985            -180.00    -1200.00
00986            -220.00    -1280.00
00987            -220.00    -1280.00
00988            -220.00    -1280.00
00989            -280.00    -1440.00
00990            -280.00    -1440.00
00991            -260.00    -1440.00
00992            -280.00    -1600.00
00993            -280.00    -1600.00
00994            -280.00    -1600.00
00995            -320.00    -1680.00
00996            -300.00    -1680.00
00997            -300.00    -1760.00
00998            -340.00    -1760.00
00999            -360.00    -1920.00
01000            -340.00    -1920.00
01001            -360.00    -1840.00
01002            -380.00    -1920.00
01003            -360.00    -2000.00
01004            -380.00    -2000.00
01005            -380.00    -2080.00
01006            -380.00    -2160.00
01007            -420.00    -2240.00
01008            -420.00    -2240.00
01009            -420.00    -2320.00
01010            -420.00    -2320.00
01011            -440.00    -2400.00
01012            -460.00    -2400.00
01013            -460.00    -2480.00
01014            -460.00    -2480.00
01015            -500.00    -2560.00
01016            -500.00    -2640.00
01017            -500.00    -2720.00
01018            -500.00    -2640.00
01019            -520.00    -2720.00
01020            -540.00    -2800.00
01021            -520.00    -2880.00
01022            -540.00    -2880.00
01023            -540.00    -2880.00
01024            -580.00    -2960.00
01025            -580.00    -2960.00
01026            -580.00    -3040.00
01027            -600.00    -3120.00
01028            -600.00    -3120.00
01029            -600.00    -3200.00
01030            -600.00    -3200.00
01031            -620.00    -3280.00
01032            -620.00    -3280.00
01033            -640.00    -3360.00
01034            -640.00    -3360.00
01035            -660.00    -3360.00
01036            -660.00    -3440.00
01037            -680.00    -3520.00
01038            -680.00    -3520.00
01039            -700.00    -3600.00
01040            -700.00    -3600.00
01041            -700.00    -3680.00
01042            -720.00    -3680.00
01043            -720.00    -3680.00
01044            -740.00    -3760.00
01045            -760.00    -3840.00
01046            -760.00    -3840.00
01047            -760.00    -3920.00
01048            -760.00    -3920.00
01049            -780.00    -3920.00
01050            -760.00    -4000.00
01051            -820.00    -4000.00
01052            -780.00    -4000.00
01053            -820.00    -4160.00
01054            -820.00    -4160.00
01055            -840.00    -4160.00
01056            -860.00    -4320.00
01057            -840.00    -4320.00
01058            -860.00    -4320.00
01059            -860.00    -4320.00
01060            -860.00    -4400.00
01061            -880.00    -4480.00
01062            -900.00    -4480.00
01063            -900.00    -4560.00
01064            -900.00    -4480.00
01065            -920.00    -4640.00
01066            -920.00    -4640.00
01067            -920.00    -4640.00
01068            -940.00    -4720.00
01069            -940.00    -4720.00
01070            -920.00    -4800.00
01071            -940.00    -4880.00
01072            -940.00    -4880.00
01073            -960.00    -4880.00
01074            -980.00    -4960.00
01075            -980.00    -4960.00
01076           -1000.00    -5040.00
01077           -1000.00    -5120.00
01078           -1020.00    -5120.00
01079           -1020.00    -5120.00
01080           -1020.00    -5200.00
01081           -1020.00    -5200.00
01082           -1020.00    -5120.00
01083           -1020.00    -5200.00
01084           -1020.00    -5280.00
01085           -1060.00    -5280.00
01086           -1060.00    -5280.00
01087           -1080.00    -5360.00
01088           -1060.00    -5440.00
01089           -1080.00    -5440.00
01090           -1080.00    -5440.00
01091           -1080.00    -5440.00
01092           -1100.00    -5520.00
01093           -1080.00    -5600.00
01094           -1100.00    -5520.00
01095           -1100.00    -5600.00
01096           -1140.00    -5680.00
01097           -1140.00    -5680.00
01098           -1140.00    -5760.00
01099           -1140.00    -5760.00
01100           -1140.00    -5760.00
01101           -1160.00    -5760.00
01102           -1160.00    -5840.00
01103           -1180.00    -5840.00
01104           -1180.00    -5920.00
01105           -1180.00    -5920.00
01106           -1180.00    -5920.00
01107           -1180.00    -5920.00
01108           -1200.00    -5920.00
01109           -1220.00    -6080.00
01110           -1220.00    -6080.00
01111           -1240.00    -6080.00
01112           -1220.00    -6080.00
01113           -1240.00    -6160.00
01114           -1260.00    -6080.00
01115           -1240.00    -6240.00
01116           -1240.00    -6240.00
01117           -1260.00    -6240.00
01118           -1260.00    -6240.00
01119           -1260.00    -6320.00
01120           -1280.00    -6320.00
01121           -1260.00    -6320.00
01122           -1300.00    -6400.00
01123           -1300.00    -6400.00
01124           -1300.00    -6400.00
01125           -1300.00    -6480.00
01126           -1300.00    -6560.00
01127           -1320.00    -6480.00
01128           -1320.00    -6480.00
01129           -1320.00    -6560.00
01130           -1340.00    -6560.00
01131           -1320.00    -6560.00
01132           -1340.00    -6560.00
01133           -1340.00    -6640.00
01134           -1340.00    -6720.00
01135           -1340.00    -6720.00
01136           -1360.00    -6640.00
01137           -1340.00    -6720.00
01138           -1360.00    -6720.00
01139           -1380.00    -6720.00
01140           -1360.00    -6800.00
01141           -1340.00    -6800.00
01142           -1380.00    -6800.00
01143           -1380.00    -6800.00
01144           -1380.00    -6880.00
01145           -1380.00    -6880.00
01146           -1400.00    -6880.00
01147           -1400.00    -6880.00
01148           -1400.00    -6880.00
01149           -1400.00    -6960.00
01150           -1400.00    -6880.00
01151           -1400.00    -6960.00
01152           -1400.00    -6960.00
01153           -1420.00    -6960.00
01154           -1400.00    -7040.00
01155           -1420.00    -6960.00
01156           -1420.00    -7040.00
01157           -1420.00    -7120.00
01158           -1420.00    -7040.00
01159           -1440.00    -6960.00
01160           -1420.00    -7200.00
01161           -1460.00    -7120.00
01162           -1460.00    -7120.00
01163           -1440.00    -7200.00
01164           -1460.00    -7200.00
01165           -1460.00    -7200.00
01166           -1460.00    -7120.00
01167           -1460.00    -7200.00
01168           -1480.00    -7200.00
01169           -1480.00    -7200.00
01170           -1460.00    -7200.00
01171           -1480.00    -7200.00
01172           -1480.00    -7280.00
01173           -1480.00    -7200.00
01174           -1500.00    -7280.00
01175           -1500.00    -7360.00
01176           -1500.00    -7360.00
01177           -1500.00    -7360.00
01178           -1500.00    -7360.00
01179           -1500.00    -7360.00
01180           -1500.00    -7360.00
01181           -1500.00    -7360.00
01182           -1500.00    -7360.00
01183           -1500.00    -7360.00
01184           -1500.00    -7360.00
01185           -1500.00    -7440.00
01186           -1500.00    -7360.00
01187           -1500.00    -7440.00
01188           -1540.00    -7440.00
01189           -1500.00    -7440.00
01190           -1520.00    -7360.00
01191           -1520.00    -7440.00
01192           -1540.00    -7440.00
01193           -1520.00    -7360.00
01194           -1500.00    -7440.00
01195           -1540.00    -7440.00
01196           -1540.00    -7440.00
01197           -1520.00    -7520.00
01198           -1540.00    -7520.00
01199           -1540.00    -7440.00
01200           -1540.00    -7440.00
01201           -1520.00    -7440.00
01202           -1540.00    -7520.00
01203           -1520.00    -7440.00
01204           -1540.00    -7440.00
01205           -1540.00    -7520.00
01206           -1540.00    -7440.00
01207           -1540.00    -7440.00
01208           -1540.00    -7520.00
01209           -1540.00    -7520.00
01210           -1540.00    -7440.00
01211           -1540.00    -7440.00
01212           -1540.00    -7520.00
01213           -1540.00    -7520.00
01214           -1520.00    -7520.00
01215           -1540.00    -7520.00
01216           -1520.00    -7520.00
01217           -1540.00    -7440.00
01218           -1520.00    -7440.00
01219           -1500.00    -7440.00
01220           -1540.00    -7440.00
01221           -1520.00    -7520.00
01222           -1540.00    -7520.00
01223           -1500.00    -7440.00
01224           -1520.00    -7440.00
01225           -1540.00    -7440.00
01226           -1540.00    -7440.00
01227           -1540.00    -7440.00
01228           -1520.00    -7520.00
01229           -1540.00    -7440.00
01230           -1500.00    -7440.00
01231           -1540.00    -7440.00
01232           -1520.00    -7520.00
01233           -1500.00    -7440.00
01234           -1540.00    -7360.00
01235           -1500.00    -7360.00
01236           -1540.00    -7440.00
01237           -1500.00    -7440.00
01238           -1540.00    -7360.00
01239           -1520.00    -7360.00
01240           -1520.00    -7360.00
01241           -1520.00    -7360.00
01242           -1520.00    -7360.00
01243           -1500.00    -7360.00
01244           -1500.00    -7360.00
01245           -1500.00    -7360.00
01246           -1520.00    -7360.00
01247           -1500.00    -7360.00
01248           -1520.00    -7360.00
01249           -1500.00    -7280.00
01250           -1500.00    -7280.00
01251           -1500.00    -7280.00
01252           -1500.00    -7280.00
01253           -1500.00    -7200.00
01254           -1500.00    -7200.00
01255           -1480.00    -7280.00
01256           -1500.00    -7200.00
01257           -1480.00    -7200.00
01258           -1500.00    -7200.00
01259           -1500.00    -7120.00
01260           -1480.00    -7120.00
01261           -1480.00    -7200.00
01262           -1480.00    -7120.00
01263           -1480.00    -7120.00
01264           -1480.00    -7120.00
01265           -1460.00    -7120.00
01266           -1460.00    -6960.00
01267           -1460.00    -7040.00
01268           -1460.00    -6960.00
01269           -1460.00    -6880.00
01270           -1460.00    -6960.00
01271           -1440.00    -6960.00
01272           -1460.00    -6880.00
01273           -1420.00    -6880.00
01274           -1460.00    -6880.00
01275           -1420.00    -6880.00
01276           -1440.00    -6880.00
01277           -1400.00    -6880.00
01278           -1400.00    -6800.00
01279           -1420.00    -6880.00
01280           -1400.00    -6800.00
01281           -1400.00    -6800.00
01282           -1400.00    -6800.00
01283           -1400.00    -6800.00
01284           -1400.00    -6800.00
01285           -1400.00    -6720.00
01286           -1400.00    -6720.00
01287           -1380.00    -6720.00
01288           -1380.00    -6560.00
01289           -1380.00    -6640.00
01290           -1380.00    -6640.00
01291           -1380.00    -6560.00
01292           -1340.00    -6640.00
01293           -1380.00    -6480.00
01294           -1340.00    -6480.00
01295           -1340.00    -6480.00
01296           -1340.00    -6480.00
01297           -1340.00    -6400.00
01298           -1340.00    -6400.00
01299           -1340.00    -6400.00
01300           -1340.00    -6320.00
01301           -1340.00    -6400.00
01302           -1340.00    -6320.00
01303           -1320.00    -6400.00
01304           -1320.00    -6240.00
01305           -1320.00    -6240.00
01306           -1320.00    -6240.00
01307           -1320.00    -6240.00
01308           -1320.00    -6160.00
01309           -1280.00    -6080.00
01310           -1300.00    -6160.00
01311           -1280.00    -6080.00
01312           -1260.00    -6080.00
01313           -1300.00    -6080.00
01314           -1260.00    -6080.00
01315           -1280.00    -5920.00
01316           -1260.00    -5920.00
01317           -1260.00    -5920.00
01318           -1240.00    -5920.00
01319           -1240.00    -5840.00
01320           -1240.00    -5840.00
01321           -1240.00    -5840.00
01322           -1240.00    -5760.00
01323           -1220.00    -5760.00
01324           -1220.00    -5760.00
01325           -1220.00    -5760.00
01326           -1220.00    -5600.00
01327           -1180.00    -5600.00
01328           -1180.00    -5520.00
01329           -1180.00    -5600.00
01330           -1180.00    -5520.00
01331           -1180.00    -5520.00
01332           -1160.00    -5520.00
01333           -1160.00    -5440.00
01334           -1140.00    -5440.00
01335           -1140.00    -5360.00
01336           -1140.00    -5440.00
01337           -1140.00    -5280.00
01338           -1120.00    -5280.00
01339           -1140.00    -5280.00
01340           -1100.00    -5200.00
01341           -1100.00    -5200.00
01342           -1100.00    -5200.00
01343           -1080.00    -5120.00
01344           -1080.00    -5120.00
01345           -1080.00    -5120.00
01346           -1060.00    -4960.00
01347           -1060.00    -5040.00
01348           -1060.00    -4880.00
01349           -1020.00    -4960.00
01350           -1040.00    -4800.00
01351           -1020.00    -4880.00
01352           -1020.00    -4800.00
01353           -1020.00    -4800.00
01354           -1020.00    -4720.00
01355           -1000.00    -4720.00
01356           -1000.00    -4640.00
01357           -1000.00    -4640.00
01358            -980.00    -4560.00
01359            -980.00    -4560.00
01360            -980.00    -4480.00
01361            -940.00    -4400.00
01362            -960.00    -4400.00
01363            -940.00    -4400.00
01364            -940.00    -4320.00
01365            -940.00    -4320.00
01366            -920.00    -4320.00
01367            -920.00    -4240.00
01368            -920.00    -4240.00
01369            -900.00    -4160.00
01370            -920.00    -4160.00
01371            -900.00    -4000.00
01372            -900.00    -4000.00
01373            -860.00    -4000.00
01374            -860.00    -4000.00
01375            -860.00    -4000.00
01376            -860.00    -3920.00
01377            -860.00    -3840.00
01378            -840.00    -3840.00
01379            -840.00    -3760.00
01380            -820.00    -3760.00
01381            -820.00    -3680.00
01382            -820.00    -3680.00
01383            -780.00    -3600.00
01384            -820.00    -3600.00
01385            -780.00    -3520.00
01386            -780.00    -3520.00
01387            -760.00    -3520.00
01388            -760.00    -3360.00
01389            -760.00    -3360.00
01390            -760.00    -3360.00
01391            -740.00    -3280.00
01392            -700.00    -3280.00
01393            -740.00    -3200.00
01394            -700.00    -3200.00
01395            -700.00    -3200.00
01396            -700.00    -3120.00
01397            -700.00    -3040.00
01398            -680.00    -2960.00
01399            -660.00    -2960.00
01400            -660.00    -2880.00
01401            -660.00    -2880.00
01402            -620.00    -2880.00
01403            -620.00    -2800.00
01404            -620.00    -2800.00
01405            -600.00    -2720.00
01406            -600.00    -2640.00
01407            -600.00    -2640.00
01408            -580.00    -2560.00
01409            -580.00    -2560.00
01410            -580.00    -2480.00
01411            -540.00    -2480.00
01412            -540.00    -2400.00
01413            -540.00    -2400.00
01414            -540.00    -2320.00
01415            -540.00    -2320.00
01416            -520.00    -2240.00
01417            -500.00    -2240.00
01418            -500.00    -2240.00
01419            -460.00    -2080.00
01420            -460.00    -2080.00
01421            -460.00    -2000.00
01422            -460.00    -2000.00
01423            -460.00    -1920.00
01424            -440.00    -1840.00
01425            -440.00    -1760.00
01426            -420.00    -1760.00
01427            -420.00    -1760.00
01428            -420.00    -1680.00
01429            -420.00    -1680.00
01430            -380.00    -1600.00
01431            -380.00    -1600.00
01432            -380.00    -1520.00
01433            -380.00    -1520.00
01434            -360.00    -1360.00
01435            -360.00    -1440.00
01436            -340.00    -1360.00
01437            -340.00    -1360.00
01438            -320.00    -1200.00
01439            -300.00    -1280.00
01440            -300.00    -1200.00
01441            -300.00    -1200.00
01442            -300.00    -1040.00
01443            -280.00    -1040.00
01444            -260.00     -960.00
01445            -260.00     -960.00
01446            -260.00     -960.00
01447            -260.00     -800.00
01448            -220.00     -800.00
01449            -220.00     -800.00
01450            -220.00     -640.00
01451            -200.00     -720.00
01452            -200.00     -640.00
01453            -200.00     -640.00
01454            -200.00     -480.00
01455            -180.00     -480.00
01456            -160.00     -400.00
01457            -140.00     -400.00
01458            -120.00     -320.00
01459            -120.00     -320.00
01460            -120.00     -240.00
01461            -100.00     -160.00
01462            -100.00     -160.00
01463             -80.00      -80.00
01464             -60.00      -80.00
01465             -60.00        0.00
01466             -60.00        0.00
01467             -60.00        0.00
01468             -40.00      160.00
01469             -40.00      160.00
01470             -20.00      240.00
01471             -20.00      240.00
01472              20.00      320.00
01473              20.00      320.00
01474              20.00      320.00
01475              40.00      400.00
01476              60.00      480.00
01477              80.00      640.00
01478              60.00      720.00
01479              20.00      560.00
01480              20.00      560.00
01481              60.00      800.00
01482             180.00      880.00
01483              80.00      720.00
01484              60.00      800.00
01485             140.00      960.00
01486             140.00      960.00
01487             100.00      880.00
01488             180.00     1120.00
01489             200.00     1200.00
01490             160.00     1120.00
01491             140.00     1200.00
01492             220.00     1280.00
01493             180.00     1280.00
01494             200.00     1280.00
01495             240.00     1440.00
01496             220.00     1360.00
01497             220.00     1440.00
01498             260.00     1520.00
01499             260.00     1520.00
01500             260.00     1600.00
01501             280.00     1680.00
01502             260.00     1600.00
01503             280.00     1760.00
01504             300.00     1840.00
01505             300.00     1760.00
01506             300.00     1840.00
01507             340.00     2000.00
01508             300.00     1920.00
01509             340.00     2080.00
01510             360.00     2160.00
01511             340.00     2080.00
01512             360.00     2240.00
01513             360.00     2160.00
01514             360.00     2240.00
01515             420.00     2320.00
01516             420.00     2400.00
01517             420.00     2400.00
01518             420.00     2400.00
01519             440.00     2480.00
01520             440.00     2560.00
01521             440.00     2560.00
01522             460.00     2560.00
01523             460.00     2640.00
01524             480.00     2720.00
01525             480.00     2800.00
01526             520.00     2720.00
01527             520.00     2800.00
01528             520.00     2880.00
01529             520.00     2880.00
01530             540.00     3040.00
01531             560.00     3040.00
01532             580.00     3040.00
01533             580.00     3120.00
01534             580.00     3120.00
01535             580.00     3200.00
01536             580.00     3280.00
01537             600.00     3280.00
01538             620.00     3360.00
01539             620.00     3360.00
01540             660.00     3360.00
01541             640.00     3440.00
01542             660.00     3440.00
01543             660.00     3520.00
01544             680.00     3520.00
01545             680.00     3600.00
01546             680.00     3680.00
01547             700.00     3680.00
01548             680.00     3680.00
01549             700.00     3840.00
01550             700.00     3760.00
01551             740.00     3840.00
01552             740.00     3840.00
01553             740.00     3920.00
01554             740.00     4000.00
01555             760.00     4000.00
01556             760.00     4000.00
01557             760.00     4080.00
01558             800.00     4160.00
01559             780.00     4080.00
01560             820.00     4160.00
01561             820.00     4160.00
01562             820.00     4320.00
01563             820.00     4320.00
01564             840.00     4400.00
01565             840.00     4400.00
01566             840.00     4400.00
01567             840.00     4400.00
01568             860.00     4480.00
01569             860.00     4480.00
01570             900.00     4560.00
01571             860.00     4560.00
01572             880.00     4720.00
01573             900.00     4640.00
01574             900.00     4720.00
01575             900.00     4720.00
01576             920.00     4800.00
01577             920.00     4800.00
01578             920.00     4880.00
01579             920.00     4960.00
01580             980.00     4960.00
01581             940.00     4960.00
01582             960.00     5040.00
01583             980.00     5040.00
01584             980.00     5120.00
01585             980.00     5120.00
01586            1000.00     5120.00
01587            1000.00     5120.00
01588            1020.00     5280.00
01589            1000.00     5280.00
01590            1020.00     5280.00
01591            1060.00     5280.00
01592            1020.00     5360.00
01593            1060.00     5360.00
01594            1060.00     5440.00
01595            1060.00     5440.00
01596            1080.00     5440.00
01597            1060.00     5520.00
01598            1080.00     5600.00
01599            1080.00     5520.00
01600            1080.00     5680.00
01601            1100.00     5600.00
01602            1100.00     5680.00
01603            1120.00     5680.00
01604            1140.00     5840.00
01605            1140.00     5840.00
01606            1140.00     5840.00
01607            1160.00     5920.00
01608            1160.00     5920.00
01609            1160.00     5920.00
01610            1160.00     5920.00
01611            1160.00     5920.00
01612            1180.00     6000.00
01613            1180.00     6000.00
01614            1200.00     6000.00
01615            1180.00     6080.00
01616            1220.00     6080.00
01617            1220.00     6080.00
01618            1220.00     6160.00
01619            1220.00     6240.00
01620            1220.00     6240.00
01621            1220.00     6240.00
01622            1220.00     6240.00
01623            1240.00     6320.00
01624            1240.00     6320.00
01625            1260.00     6400.00
01626            1260.00     6400.00
01627            1260.00     6400.00
01628            1240.00     6400.00
01629            1280.00     6400.00
01630            1280.00     6480.00
01631            1300.00     6400.00
01632            1300.00     6480.00
01633            1300.00     6560.00
01634            1300.00     6560.00
01635            1300.00     6560.00
01636            1300.00     6560.00
01637            1300.00     6640.00
01638            1320.00     6640.00
01639            1320.00     6720.00
01640            1320.00     6720.00
01641            1320.00     6720.00
01642            1340.00     6720.00
01643            1320.00     6720.00
01644            1320.00     6800.00
01645            1340.00     6800.00
01646            1340.00     6880.00
01647            1340.00     6800.00
01648            1340.00     6880.00
01649            1360.00     6880.00
01650            1380.00     6880.00
01651            1360.00     6880.00
01652            1380.00     6960.00
01653            1380.00     6960.00
01654            1380.00     6960.00
01655            1380.00     6960.00
01656            1400.00     7040.00
01657            1400.00     7040.00
01658            1400.00     7040.00
01659            1400.00     7040.00
01660            1400.00     7040.00
01661            1420.00     7120.00
01662            1420.00     7200.00
01663            1420.00     7120.00
01664            1420.00     7200.00
01665            1420.00     7200.00
01666            1420.00     7200.00
01667            1420.00     7200.00
01668            1440.00     7200.00
01669            1440.00     7200.00
01670            1460.00     7280.00
01671            1460.00     7200.00
01672            1460.00     7280.00
01673            1460.00     7280.00
01674            1460.00     7280.00
01675            1460.00     7280.00
01676            1480.00     7280.00
01677            1460.00     7360.00
01678            1460.00     7360.00
01679            1480.00     7360.00
01680            1480.00     7360.00
01681            1480.00     7360.00
01682            1480.00     7360.00
01683            1480.00     7360.00
01684            1480.00     7440.00
01685            1480.00     7360.00
01686            1480.00     7360.00
01687            1480.00     7360.00
01688            1500.00     7440.00
01689            1500.00     7360.00
01690            1480.00     7520.00
01691            1500.00     7520.00
01692            1500.00     7440.00
01693            1500.00     7520.00
01694            1480.00     7520.00
01695            1500.00     7520.00
01696            1500.00     7520.00
01697            1500.00     7520.00
01698            1500.00     7520.00
01699            1500.00     7520.00
01700            1500.00     7520.00
01701            1520.00     7520.00
01702            1520.00     7600.00
01703            1500.00     7520.00
01704            1520.00     7600.00
01705            1500.00     7520.00
01706            1500.00     7520.00
01707            1500.00     7520.00
01708            1540.00     7520.00
01709            1520.00     7600.00
01710            1520.00     7600.00
01711            1520.00     7520.00
01712            1500.00     7520.00
01713            1540.00     7520.00
01714            1520.00     7600.00
01715            1520.00     7600.00
01716            1540.00     7520.00
01717            1520.00     7600.00
01718            1520.00     7520.00
01719            1520.00     7600.00
01720            1520.00     7520.00
01721            1540.00     7600.00
01722            1540.00     7600.00
01723            1540.00     7600.00
01724            1540.00     7600.00
01725            1540.00     7520.00
01726            1540.00     7600.00
01727            1540.00     7520.00
01728            1540.00     7600.00
01729            1540.00     7520.00
01730            1540.00     7520.00
01731            1520.00     7600.00
01732            1540.00     7520.00
01733            1540.00     7600.00
01734            1540.00     7520.00
01735            1540.00     7520.00
01736            1540.00     7520.00
01737            1540.00     7520.00
01738            1540.00     7520.00
01739            1540.00     7520.00
01740            1540.00     7520.00
01741            1540.00     7520.00
01742            1540.00     7520.00
01743            1540.00     7520.00
01744            1540.00     7520.00
01745            1540.00     7520.00
01746            1540.00     7440.00
01747            1540.00     7440.00
01748            1520.00     7440.00
01749            1500.00     7360.00
01750            1540.00     7440.00
01751            1500.00     7440.00
01752            1520.00     7360.00
01753            1500.00     7360.00
01754            1520.00     7360.00
01755            1500.00     7440.00
01756            1500.00     7360.00
01757            1500.00     7360.00
01758            1500.00     7360.00
01759            1500.00     7360.00
01760            1500.00     7360.00
01761            1480.00     7360.00
01762            1500.00     7280.00
01763            1480.00     7280.00
01764            1480.00     7280.00
01765            1480.00     7280.00
01766            1480.00     7200.00
01767            1480.00     7200.00
01768            1480.00     7200.00
01769            1480.00     7200.00
01770            1460.00     7280.00
01771            1480.00     7120.00
01772            1460.00     7200.00
01773            1460.00     7120.00
01774            1460.00     7120.00
01775            1460.00     7040.00
01776            1460.00     7120.00
01777            1460.00     7040.00
01778            1460.00     7040.00
01779            1420.00     7040.00
01780            1460.00     7040.00
01781            1420.00     6960.00
01782            1440.00     7040.00
01783            1460.00     6960.00
01784            1420.00     6960.00
01785            1420.00     6880.00
01786            1400.00     6960.00
01787            1420.00     6880.00
01788            1420.00     6880.00
01789            1400.00     6880.00
01790            1400.00     6880.00
01791            1400.00     6880.00
01792            1400.00     6800.00
01793            1380.00     6720.00
01794            1380.00     6720.00
01795            1400.00     6720.00
01796            1380.00     6720.00
01797            1380.00     6720.00
01798            1380.00     6640.00
01799            1380.00     6640.00
01800            1380.00     6640.00
01801            1380.00     6560.00
01802            1340.00     6560.00
01803            1360.00     6560.00
01804            1340.00     6560.00
01805            1340.00     6560.00
01806            1340.00     6560.00
01807            1340.00     6480.00
01808            1320.00     6480.00
01809            1320.00     6400.00
01810            1320.00     6400.00
01811            1300.00     6400.00
01812            1320.00     6320.00
01813            1300.00     6320.00
01814            1320.00     6320.00
01815            1300.00     6240.00
01816            1300.00     6240.00
01817            1300.00     6240.00
01818            1300.00     6240.00
01819            1280.00     6160.00
01820            1280.00     6160.00
01821            1260.00     6080.00
01822            1260.00     6080.00
01823            1260.00     6080.00
01824            1240.00     6000.00
01825            1240.00     6000.00
01826            1220.00     5920.00
01827            1220.00     5920.00
01828            1220.00     5920.00
01829            1220.00     5920.00
01830            1220.00     5840.00
01831            1220.00     5840.00
01832            1200.00     5760.00
01833            1180.00     5840.00
01834            1180.00     5680.00
01835            1180.00     5680.00
01836            1160.00     5680.00
01837            1180.00     5680.00
01838            1160.00     5600.00
01839            1160.00     5600.00
01840            1160.00     5600.00
01841            1140.00     5520.00
01842            1140.00     5440.00
01843            1140.00     5440.00
01844            1100.00     5440.00
01845            1100.00     5360.00
01846            1100.00     5280.00
01847            1100.00     5280.00
01848            1100.00     5360.00
01849            1100.00     5280.00
01850            1080.00     5200.00
01851            1080.00     5200.00
01852            1060.00     5120.00
01853            1080.00     5120.00
01854            1060.00     5120.00
01855            1080.00     5040.00
01856            1060.00     5040.00
01857            1040.00     4960.00
01858            1020.00     4960.00
01859            1020.00     4960.00
01860            1020.00     4960.00
01861            1000.00     4880.00
01862            1000.00     4800.00
01863            1000.00     4800.00
01864            1000.00     4720.00
01865             980.00     4720.00
01866             980.00     4720.00
01867             980.00     4640.00
01868             980.00     4560.00
01869             940.00     4560.00
01870             980.00     4480.00
01871             940.00     4480.00
01872             940.00     4400.00
01873             920.00     4400.00
01874             920.00     4320.00
01875             920.00     4320.00
01876             900.00     4320.00
01877             900.00     4240.00
01878             900.00     4160.00
01879             900.00     4160.00
01880             900.00     4160.00
01881             860.00     4080.00
01882             860.00     4000.00
01883             840.00     4000.00
01884             840.00     4000.00
01885             840.00     3920.00
01886             840.00     3840.00
01887             820.00     3840.00
01888             820.00     3840.00
01889             820.00     3760.00
01890             780.00     3760.00
01891             780.00     3680.00
01892             780.00     3680.00
01893             780.00     3600.00
01894             740.00     3520.00
01895             760.00     3520.00
01896             740.00     3520.00
01897             740.00     3440.00
01898             740.00     3360.00
01899             740.00     3360.00
01900             700.00     3360.00
01901             700.00     3280.00
01902             680.00     3200.00
01903             680.00     3200.00
01904             680.00     3280.00
01905             660.00     3120.00
01906             660.00     3040.00
01907             660.00     3040.00
01908             660.00     3040.00
01909             620.00     2960.00
01910             620.00     2880.00
01911             600.00     2880.00
01912             600.00     2800.00
01913             600.00     2800.00
01914             600.00     2720.00
01915             580.00     2720.00
01916             580.00     2720.00
01917             560.00     2560.00
01918             560.00     2560.00
01919             540.00     2480.00
01920             540.00     2480.00
01921             540.00     2400.00
01922             540.00     2400.00
01923             520.00     2400.00
01924             520.00     2320.00
01925             520.00     2240.00
01926             500.00     2240.00
01927             480.00     2160.00
01928             460.00     2160.00
01929             460.00     2080.00
01930             460.00     2080.00
01931             440.00     2000.00
01932             440.00     1920.00
01933             420.00     1840.00
01934             420.00     1840.00
01935             420.00     1760.00
01936             420.00     1760.00
01937             380.00     1760.00
01938             380.00     1680.00
01939             360.00     1600.00
01940             380.00     1600.00
01941             360.00     1520.00
01942             360.00     1440.00
01943             360.00     1440.00
01944             340.00     1440.00
01945             340.00     1360.00
01946             300.00     1280.00
01947             280.00     1280.00
01948             280.00     1280.00
01949             280.00     1200.00
01950             280.00     1120.00
01951             280.00     1120.00
01952             260.00     1120.00
01953             260.00     1040.00
01954             240.00      960.00
01955             220.00      880.00
01956             220.00      880.00
01957             200.00      800.00
01958             200.00      800.00
01959             180.00      720.00
01960             180.00      720.00
01961             180.00      640.00
01962             140.00      560.00
01963             140.00      480.00
01964             140.00      480.00
01965             140.00      480.00
01966             120.00      320.00
01967             100.00      320.00
01968             120.00      320.00
01969             100.00      240.00
01970             100.00      240.00
01971              60.00      160.00
01972              60.00      160.00
01973              40.00      160.00
01974              40.00        0.00
01975              40.00      -80.00
01976              20.00      -80.00
01977              20.00      -80.00
01978              20.00      -80.00
01979              20.00     -160.00
01980             -20.00     -240.00
01981             -40.00     -320.00
01982             -20.00     -240.00
01983             -40.00     -400.00
01984             -40.00     -400.00
01985             -40.00     -480.00
01986             -20.00     -400.00
01987             -60.00     -640.00
01988            -140.00     -720.00
01989            -140.00     -720.00
01990             -60.00     -640.00
01991             -40.00     -720.00
01992            -140.00     -880.00
01993            -180.00     -800.00
01994             -60.00     -800.00
01995            -140.00     -960.00
01996            -200.00    -1040.00
01997            -140.00     -960.00
01998            -120.00    -1040.00
01999            -220.00    -1200.00
02000            -200.00    -1120.00
02001            -200.00    -1200.00
02002            -240.00    -1280.00
02003            -220.00    -1280.00
02004            -220.00    -1360.00
02005            -260.00    -1440.00
02006            -260.00    -1440.00
02007            -260.00    -1520.00
02008            -280.00    -1440.00
02009            -280.00    -1600.00
02010            -280.00    -1600.00
02011            -300.00    -1680.00
02012            -300.00    -1760.00
02013            -300.00    -1680.00
02014            -340.00    -1840.00
02015            -340.00    -1840.00
02016            -360.00    -1920.00
02017            -360.00    -1920.00
02018            -380.00    -2000.00
02019            -360.00    -2080.00
02020            -380.00    -2080.00
02021            -380.00    -2080.00
02022            -400.00    -2160.00
02023            -420.00    -2240.00
02024            -420.00    -2320.00
02025            -440.00    -2320.00
02026            -420.00    -2400.00
02027            -460.00    -2400.00
02028            -460.00    -2480.00
02029            -500.00    -2480.00
02030            -460.00    -2560.00
02031            -460.00    -2560.00
02032            -500.00    -2640.00
02033            -500.00    -2640.00
02034            -520.00    -2720.00
02035            -520.00    -2720.00
02036            -520.00    -2800.00
02037            -540.00    -2800.00
02038            -540.00    -2880.00
02039            -560.00    -2960.00
02040            -580.00    -2960.00
02041            -600.00    -3040.00
02042            -600.00    -3120.00
02043            -600.00    -3120.00
02044            -600.00    -3200.00
02045            -620.00    -3200.00
02046            -620.00    -3200.00
02047            -620.00    -3280.00
02048            -660.00    -3280.00
02049            -640.00    -3360.00
02050            -680.00    -3360.00
02051            -660.00    -3360.00
02052            -660.00    -3520.00
02053            -680.00    -3520.00
02054            -700.00    -3600.00
02055            -700.00    -3600.00
02056            -700.00    -3600.00
02057            -700.00    -3680.00
02058            -700.00    -3680.00
02059            -700.00    -3760.00
02060            -760.00    -3840.00
02061            -760.00    -3840.00
02062            -760.00    -3840.00
02063            -760.00    -3920.00
02064            -760.00    -3920.00
02065            -780.00    -4000.00
02066            -780.00    -4000.00
02067            -780.00    -4000.00
02068            -820.00    -4160.00
02069            -820.00    -4160.00
02070            -820.00    -4160.00
02071            -840.00    -4240.00
02072            -820.00    -4240.00
02073            -860.00    -4320.00
02074            -860.00    -4320.00
02075            -840.00    -4400.00
02076            -860.00    -4400.00
02077            -860.00    -4400.00
02078            -900.00    -4480.00
02079            -900.00    -4560.00
02080            -880.00    -4560.00
02081            -920.00    -4560.00
02082            -920.00    -4640.00
02083            -920.00    -4640.00
02084            -920.00    -4800.00
02085            -940.00    -4800.00
02086            -940.00    -4800.00
02087            -960.00    -4800.00
02088            -940.00    -4960.00
02089            -980.00    -4960.00
02090            -980.00    -4960.00
02091            -980.00    -4960.00
02092           -1000.00    -5040.00
02093           -1000.00    -5120.00
02094           -1020.00    -5120.00
02095           -1020.00    -5120.00
02096           -1020.00    -5120.00
02097           -1020.00    -5120.00
02098           -1040.00    -5200.00
02099           -1040.00    -5280.00
02100           -1060.00    -5280.00
02101           -1060.00    -5280.00
02102           -1060.00    -5360.00
02103           -1060.00    -5440.00
02104           -1080.00    -5440.00
02105           -1080.00    -5440.00
02106           -1080.00    -5520.00
02107           -1100.00    -5440.00
02108           -1100.00    -5520.00
02109           -1100.00    -5520.00
02110           -1100.00    -5600.00
02111           -1120.00    -5600.00
02112           -1100.00    -5760.00
02113           -1140.00    -5760.00
02114           -1140.00    -5760.00
02115           -1140.00    -5760.00
02116           -1160.00    -5760.00
02117           -1160.00    -5840.00
02118           -1160.00    -5840.00
02119           -1180.00    -5840.00
02120           -1180.00    -5920.00
02121           -1180.00    -5920.00
02122           -1180.00    -5920.00
02123           -1180.00    -6000.00
02124           -1220.00    -6000.00
02125           -1180.00    -6080.00
02126           -1220.00    -6080.00
02127           -1220.00    -6080.00
02128           -1240.00    -6160.00
02129           -1240.00    -6160.00
02130           -1240.00    -6160.00
02131           -1240.00    -6240.00
02132           -1260.00    -6240.00
02133           -1240.00    -6240.00
02134           -1260.00    -6320.00
02135           -1260.00    -6320.00
02136           -1260.00    -6320.00
02137           -1260.00    -6400.00
02138           -1280.00    -6400.00
02139           -1260.00    -6400.00
02140           -1300.00    -6480.00
02141           -1300.00    -6480.00
02142           -1300.00    -6480.00
02143           -1300.00    -6480.00
02144           -1300.00    -6480.00
02145           -1300.00    -6480.00
02146           -1320.00    -6560.00
02147           -1340.00    -6560.00
02148           -1320.00    -6560.00
02149           -1340.00    -6640.00
02150           -1320.00    -6720.00
02151           -1340.00    -6720.00
02152           -1340.00    -6720.00
02153           -1340.00    -6720.00
02154           -1340.00    -6720.00
02155           -1360.00    -6720.00
02156           -1380.00    -6800.00
02157           -1380.00    -6800.00
02158           -1380.00    -6880.00
02159           -1400.00    -6880.00
02160           -1400.00    -6880.00
02161           -1400.00    -6880.00
02162           -1380.00    -6880.00
02163           -1400.00    -6880.00
02164           -1400.00    -6880.00
02165           -1420.00    -6960.00
02166           -1400.00    -6880.00
02167           -1400.00    -6960.00
02168           -1420.00    -7040.00
02169           -1420.00    -6960.00
02170           -1420.00    -7040.00
02171           -1460.00    -6960.00
02172           -1420.00    -7040.00
02173           -1460.00    -6960.00
02174           -1440.00    -7120.00
02175           -1460.00    -7120.00
02176           -1460.00    -7120.00
02177           -1460.00    -7120.00
02178           -1460.00    -7120.00
02179           -1460.00    -7200.00
02180           -1440.00    -7200.00
02181           -1480.00    -7200.00
02182           -1460.00    -7200.00
02183           -1460.00    -7280.00
02184           -1480.00    -7200.00
02185           -1460.00    -7200.00
02186           -1480.00    -7200.00
02187           -1480.00    -7280.00
02188           -1480.00    -7200.00
02189           -1500.00    -7280.00
02190           -1480.00    -7360.00
02191           -1480.00    -7360.00
02192           -1500.00    -7360.00
02193           -1480.00    -7360.00
02194           -1500.00    -7360.00
02195           -1500.00    -7360.00
02196           -1500.00    -7360.00
02197           -1480.00    -7360.00
02198           -1480.00    -7360.00
02199           -1500.00    -7440.00
02200           -1500.00    -7440.00
02201           -1500.00    -7440.00
02202           -1500.00    -7440.00
02203           -1500.00    -7440.00
02204           -1500.00    -7440.00
02205           -1500.00    -7440.00
02206           -1500.00    -7440.00
02207           -1500.00    -7440.00
02208           -1500.00    -7440.00
02209           -1500.00    -7440.00
02210           -1540.00    -7440.00
02211           -1500.00    -7440.00
02212           -1520.00    -7440.00
02213           -1520.00    -7440.00
02214           -1540.00    -7440.00
02215           -1520.00    -7440.00
02216           -1540.00    -7440.00
02217           -1540.00    -7520.00
02218           -1560.00    -7520.00
02219           -1540.00    -7520.00
02220           -1540.00    -7520.00
02221           -1540.00    -7520.00
02222           -1540.00    -7520.00
02223           -1540.00    -7440.00
02224           -1540.00    -7520.00
02225           -1540.00    -7520.00
02226           -1560.00    -7520.00
02227           -1540.00    -7520.00
02228           -1540.00    -7520.00
02229           -1560.00    -7520.00
02230           -1560.00    -7520.00
02231           -1540.00    -7520.00
02232           -1540.00    -7440.00
02233           -1540.00    -7440.00
02234           -1540.00    -7440.00
02235           -1540.00    -7520.00
02236           -1540.00    -7440.00
02237           -1560.00    -7520.00
02238           -1540.00    -7520.00
02239           -1560.00    -7440.00
02240           -1540.00    -7440.00
02241           -1540.00    -7520.00
02242           -1540.00    -7440.00
02243           -1560.00    -7440.00
02244           -1540.00    -7440.00
02245           -1540.00    -7440.00
02246           -1540.00    -7440.00
02247           -1500.00    -7440.00
02248           -1500.00    -7360.00
02249           -1540.00    -7440.00
02250           -1540.00    -7440.00
02251           -1540.00    -7360.00
02252           -1540.00    -7440.00
02253           -1520.00    -7440.00
02254           -1500.00    -7360.00
02255           -1500.00    -7360.00
02256           -1540.00    -7360.00
02257           -1500.00    -7360.00
02258           -1500.00    -7360.00
02259           -1500.00    -7360.00
02260           -1500.00    -7360.00
02261           -1500.00    -7360.00
02262           -1500.00    -7280.00
02263           -1500.00    -7360.00
02264           -1500.00    -7200.00
02265           -1500.00    -7360.00
02266           -1500.00    -7280.00
02267           -1500.00    -7200.00
02268           -1500.00    -7280.00
02269           -1500.00    -7200.00
02270           -1480.00    -7200.00
02271           -1480.00    -7280.00
02272           -1480.00    -7120.00
02273           -1480.00    -7200.00
02274           -1480.00    -7120.00
02275           -1480.00    -7120.00
02276           -1480.00    -7120.00
02277           -1480.00    -7120.00
02278           -1460.00    -7120.00
02279           -1480.00    -7120.00
02280           -1460.00    -7040.00
02281           -1460.00    -7040.00
02282           -1460.00    -7040.00
02283           -1460.00    -6960.00
02284           -1460.00    -7040.00
02285           -1460.00    -7040.00
02286           -1460.00    -6960.00
02287           -1460.00    -7040.00
02288           -1460.00    -6880.00
02289           -1420.00    -6960.00
02290           -1440.00    -6880.00
02291           -1460.00    -6880.00
02292           -1420.00    -6880.00
02293           -1420.00    -6800.00
02294           -1420.00    -6880.00
02295           -1440.00    -6880.00
02296           -1400.00    -6800.00
02297           -1400.00    -6800.00
02298           -1420.00    -6800.00
02299           -1400.00    -6800.00
02300           -1400.00    -6720.00
02301           -1420.00    -6720.00
02302           -1400.00    -6720.00
02303           -1400.00    -6720.00
02304           -1400.00    -6640.00
02305           -1400.00    -6640.00
02306           -1380.00    -6640.00
02307           -1380.00    -6560.00
02308           -1380.00    -6560.00
02309           -1380.00    -6560.00
02310           -1380.00    -6480.00
02311           -1380.00    -6480.00
02312           -1340.00    -6480.00
02313           -1340.00    -6480.00
02314           -1360.00    -6400.00
02315           -1340.00    -6400.00
02316           -1340.00    -6400.00
02317           -1320.00    -6400.00
02318           -1340.00    -6320.00
02319           -1320.00    -6320.00
02320           -1300.00    -6240.00
02321           -1320.00    -6240.00
02322           -1320.00    -6240.00
02323           -1300.00    -6160.00
02324           -1300.00    -6160.00
02325           -1260.00    -6160.00
02326           -1260.00    -6160.00
02327           -1300.00    -6080.00
02328           -1260.00    -6080.00
02329           -1260.00    -6080.00
02330           -1260.00    -6000.00
02331           -1260.00    -6000.00
02332           -1240.00    -5920.00
02333           -1240.00    -5920.00
02334           -1240.00    -5920.00
02335           -1240.00    -5840.00
02336           -1240.00    -5840.00
02337           -1220.00    -5840.00
02338           -1220.00    -5760.00
02339           -1220.00    -5760.00
02340           -1220.00    -5760.00
02341           -1180.00    -5760.00
02342           -1180.00    -5600.00
02343           -1180.00    -5600.00
02344           -1180.00    -5520.00
02345           -1180.00    -5520.00
02346           -1180.00    -5520.00
02347           -1160.00    -5520.00
02348           -1160.00    -5440.00
02349           -1160.00    -5440.00
02350           -1140.00    -5440.00
02351           -1140.00    -5440.00
02352           -1140.00    -5360.00
02353           -1140.00    -5280.00
02354           -1140.00    -5280.00
02355           -1100.00    -5280.00
02356           -1120.00    -5280.00
02357           -1100.00    -5200.00
02358           -1100.00    -5120.00
02359           -1080.00    -5200.00
02360           -1080.00    -5120.00
02361           -1080.00    -5040.00
02362           -1080.00    -4960.00
02363           -1080.00    -5040.00
02364           -1080.00    -4960.00
02365           -1060.00    -4960.00
02366           -1060.00    -4880.00
02367           -1020.00    -4880.00
02368           -1020.00    -4800.00
02369           -1020.00    -4800.00
02370           -1020.00    -4720.00
02371           -1020.00    -4640.00
02372           -1020.00    -4720.00
02373           -1000.00    -4560.00
02374           -1000.00    -4560.00
02375            -980.00    -4560.00
02376            -980.00    -4400.00
02377            -960.00    -4560.00
02378            -940.00    -4400.00
02379            -940.00    -4400.00
02380            -960.00    -4400.00
02381            -920.00    -4320.00
02382            -940.00    -4320.00
02383            -920.00    -4240.00
02384            -920.00    -4240.00
02385            -900.00    -4160.00
02386            -900.00    -4160.00
02387            -880.00    -4080.00
02388            -880.00    -4000.00
02389            -860.00    -4000.00
02390            -860.00    -4000.00
02391            -860.00    -3920.00
02392            -840.00    -3840.00
02393            -840.00    -3840.00
02394            -840.00    -3760.00
02395            -840.00    -3840.00
02396            -820.00    -3760.00
02397            -820.00    -3680.00
02398            -800.00    -3680.00
02399            -780.00    -3600.00
02400            -780.00    -3600.00
02401            -760.00    -3520.00
02402            -760.00    -3520.00
02403            -760.00    -3440.00
02404            -740.00    -3440.00
02405            -760.00    -3360.00
02406            -740.00    -3360.00
02407            -720.00    -3280.00
02408            -700.00    -3280.00
02409            -700.00    -3200.00
02410            -700.00    -3200.00
02411            -700.00    -3200.00
02412            -700.00    -3120.00
02413            -700.00    -3040.00
02414            -680.00    -3040.00
02415            -680.00    -2960.00
02416            -660.00    -2960.00
02417            -660.00    -2880.00
02418            -640.00    -2880.00
02419            -660.00    -2800.00
02420            -620.00    -2720.00
02421            -620.00    -2640.00
02422            -600.00    -2640.00
02423            -600.00    -2640.00
02424            -580.00    -2560.00
02425            -600.00    -2560.00
02426            -600.00    -2560.00
02427            -540.00    -2480.00
02428            -580.00    -2400.00
02429            -540.00    -2400.00
02430            -540.00    -2320.00
02431            -540.00    -2240.00
02432            -520.00    -2240.00
02433            -520.00    -2240.00
02434            -500.00    -2160.00
02435            -500.00    -2080.00
02436            -460.00    -2000.00
02437            -460.00    -2080.00
02438            -460.00    -1920.00
02439            -460.00    -1920.00
02440            -460.00    -1840.00
02441            -440.00    -1760.00
02442            -420.00    -1760.00
02443            -420.00    -1760.00
02444            -420.00    -1680.00
02445            -380.00    -1680.00
02446            -380.00    -1600.00
02447            -380.00    -1600.00
02448            -380.00    -1520.00
02449            -360.00    -1440.00
02450            -360.00    -1440.00
02451            -360.00    -1360.00
02452            -340.00    -1360.00
02453            -320.00    -1280.00
02454            -300.00    -1280.00
02455            -300.00    -1280.00
02456            -300.00    -1120.00
02457            -280.00    -1120.00
02458            -280.00    -1040.00
02459            -280.00    -1040.00
02460            -280.00     -960.00
02461            -260.00     -960.00
02462            -240.00     -960.00
02463            -220.00     -800.00
02464            -220.00     -800.00
02465            -220.00     -800.00
02466            -200.00     -720.00
02467            -200.00     -640.00
02468            -180.00     -640.00
02469            -180.00     -640.00
02470            -140.00     -480.00
02471            -180.00     -480.00
02472            -140.00     -400.00
02473            -140.00     -320.00
02474            -120.00     -320.00
02475            -120.00     -240.00
02476            -120.00     -240.00
02477            -100.00     -160.00
02478            -100.00      -80.00
02479            -100.00      -80.00
02480             -60.00      -80.00
02481             -60.00      -80.00
02482             -60.00        0.00
02483             -40.00       80.00
02484             -60.00      160.00
02485             -20.00      160.00
02486             -40.00      160.00
02487             -20.00      240.00
02488               0.00      320.00
02489               0.00      320.00
02490              20.00      320.00
02491              40.00      480.00
02492              40.00      480.00
02493              60.00      640.00
02494              60.00      640.00
02495              20.00      560.00
02496              20.00      560.00
02497             100.00      800.00
02498             180.00      880.00
02499              60.00      720.00
02500              60.00      800.00
02501             180.00      960.00
02502             120.00      880.00
02503             100.00      960.00
02504             180.00     1120.00
02505             200.00     1200.00
02506             120.00     1040.00
02507             140.00     1200.00
02508             220.00     1280.00
02509             180.00     1200.00
02510             200.00     1360.00
02511             240.00     1440.00
02512             200.00     1360.00
02513             220.00     1440.00
02514             260.00     1520.00
02515             240.00     1520.00
02516             260.00     1600.00
02517             300.00     1600.00
02518             260.00     1600.00
02519             300.00     1760.00
02520             320.00     1840.00
02521             300.00     1840.00
02522             300.00     1920.00
02523             340.00     1920.00
02524             340.00     1920.00
02525             360.00     2080.00
02526             380.00     2080.00
02527             360.00     2080.00
02528             380.00     2240.00
02529             380.00     2160.00
02530             380.00     2240.00
02531             420.00     2240.00
02532             420.00     2320.00
02533             420.00     2400.00
02534             440.00     2400.00
02535             440.00     2480.00
02536             440.00     2560.00
02537             460.00     2560.00
02538             500.00     2560.00
02539             460.00     2640.00
02540             500.00     2720.00
02541             500.00     2800.00
02542             500.00     2800.00
02543             520.00     2800.00
02544             520.00     2880.00
02545             520.00     2880.00
02546             520.00     2880.00
02547             540.00     3040.00
02548             540.00     3040.00
02549             580.00     3120.00
02550             580.00     3120.00
02551             580.00     3200.00
02552             600.00     3200.00
02553             600.00     3280.00
02554             600.00     3360.00
02555             600.00     3360.00
02556             620.00     3440.00
02557             640.00     3440.00
02558             620.00     3520.00
02559             660.00     3520.00
02560             660.00     3520.00
02561             680.00     3680.00
02562             660.00     3680.00
02563             680.00     3680.00
02564             680.00     3680.00
02565             700.00     3760.00
02566             700.00     3760.00
02567             740.00     3840.00
02568             740.00     3840.00
02569             700.00     4000.00
02570             760.00     4000.00
02571             740.00     4000.00
02572             760.00     4000.00
02573             780.00     4000.00
02574             780.00     4160.00
02575             780.00     4160.00
02576             800.00     4160.00
02577             820.00     4240.00
02578             820.00     4320.00
02579             820.00     4320.00
02580             840.00     4400.00
02581             840.00     4400.00
02582             840.00     4400.00
02583             860.00     4480.00
02584             860.00     4480.00
02585             860.00     4480.00
02586             880.00     4560.00
02587             900.00     4560.00
02588             900.00     4640.00
02589             900.00     4720.00
02590             900.00     4720.00
02591             920.00     4800.00
02592             920.00     4800.00
02593             940.00     4880.00
02594             940.00     4880.00
02595             940.00     4960.00
02596             940.00     4960.00
02597             980.00     4960.00
02598             980.00     5040.00
02599             980.00     5040.00
02600             980.00     5120.00
02601            1000.00     5120.00
02602            1000.00     5120.00
02603            1020.00     5120.00
02604            1020.00     5280.00
02605            1000.00     5280.00
02606            1020.00     5280.00
02607            1020.00     5280.00
02608            1060.00     5360.00
02609            1040.00     5360.00
02610            1060.00     5360.00
02611            1060.00     5440.00
02612            1060.00     5520.00
02613            1060.00     5440.00
02614            1080.00     5440.00
02615            1080.00     5600.00
02616            1080.00     5680.00
02617            1100.00     5680.00
02618            1100.00     5680.00
02619            1100.00     5680.00
02620            1140.00     5760.00
02621            1100.00     5840.00
02622            1120.00     5760.00
02623            1140.00     5760.00
02624            1160.00     5840.00
02625            1140.00     5920.00
02626            1140.00     5920.00
02627            1160.00     6000.00
02628            1160.00     6000.00
02629            1180.00     6000.00
02630            1180.00     6000.00
02631            1180.00     6080.00
02632            1180.00     6000.00
02633            1200.00     6160.00
02634            1220.00     6160.00
02635            1220.00     6160.00
02636            1220.00     6160.00
02637            1220.00     6240.00
02638            1240.00     6240.00
02639            1240.00     6320.00
02640            1220.00     6320.00
02641            1260.00     6400.00
02642            1240.00     6400.00
02643            1240.00     6400.00
02644            1260.00     6400.00
02645            1260.00     6480.00
02646            1260.00     6480.00
02647            1300.00     6480.00
02648            1300.00     6560.00
02649            1300.00     6560.00
02650            1300.00     6560.00
02651            1300.00     6560.00
02652            1320.00     6640.00
02653            1320.00     6640.00
02654            1300.00     6640.00
02655            1320.00     6640.00
02656            1320.00     6720.00
02657            1320.00     6720.00
02658            1320.00     6720.00
02659            1340.00     6720.00
02660            1340.00     6800.00
02661            1340.00     6800.00
02662            1340.00     6800.00
02663            1380.00     6800.00
02664            1380.00     6880.00
02665            1380.00     6880.00
02666            1380.00     6880.00
02667            1380.00     6880.00
02668            1380.00     6880.00
02669            1400.00     6960.00
02670            1380.00     6960.00
02671            1400.00     6960.00
02672            1400.00     7040.00
02673            1400.00     7040.00
02674            1400.00     7040.00
02675            1400.00     7040.00
02676            1400.00     7040.00
02677            1400.00     7040.00
02678            1420.00     7040.00
02679            1420.00     7120.00
02680            1420.00     7120.00
02681            1400.00     7200.00
02682            1440.00     7200.00
02683            1420.00     7200.00
02684            1420.00     7200.00
02685            1420.00     7200.00
02686            1420.00     7280.00
02687            1460.00     7280.00
02688            1460.00     7280.00
02689            1460.00     7280.00
02690            1460.00     7280.00
02691            1460.00     7280.00
02692            1460.00     7280.00
02693            1460.00     7360.00
02694            1480.00     7280.00
02695            1460.00     7360.00
02696            1460.00     7360.00
02697            1480.00     7360.00
02698            1480.00     7360.00
02699            1480.00     7360.00
02700            1480.00     7360.00
02701            1480.00     7440.00
02702            1500.00     7440.00
02703            1500.00     7440.00
02704            1480.00     7360.00
02705            1480.00     7440.00
02706            1500.00     7520.00
02707            1500.00     7520.00
02708            1500.00     7520.00
02709            1500.00     7440.00
02710            1500.00     7520.00
02711            1500.00     7520.00
02712            1500.00     7520.00
02713            1500.00     7520.00
02714            1520.00     7520.00
02715            1500.00     7520.00
02716            1540.00     7520.00
02717            1540.00     7520.00
02718            1500.00     7520.00
02719            1540.00     7520.00
02720            1540.00     7520.00
02721            1500.00     7520.00
02722            1540.00     7520.00
02723            1540.00     7600.00
02724            1540.00     7520.00
02725            1540.00     7520.00
02726            1520.00     7520.00
02727            1540.00     7520.00
02728            1540.00     7520.00
02729            1540.00     7600.00
02730            1540.00     7600.00
02731            1540.00     7520.00
02732            1540.00     7600.00
02733            1540.00     7600.00
02734            1540.00     7600.00
02735            1540.00     7600.00
02736            1540.00     7520.00
02737            1540.00     7600.00
02738            1540.00     7520.00
02739            1540.00     7600.00
02740            1520.00     7600.00
02741            1520.00     7520.00
02742            1540.00     7520.00
02743            1540.00     7520.00
02744            1540.00     7600.00
02745            1520.00     7600.00
02746            1540.00     7600.00
02747            1540.00     7520.00
02748            1540.00     7520.00
02749            1540.00     7520.00
02750            1520.00     7520.00
02751            1540.00     7520.00
02752            1500.00     7520.00
02753            1540.00     7520.00
02754            1520.00     7520.00
02755            1540.00     7520.00
02756            1540.00     7520.00
02757            1540.00     7520.00
02758            1500.00     7520.00
02759            1500.00     7440.00
02760            1500.00     7520.00
02761            1500.00     7520.00
02762            1520.00     7440.00
02763            1500.00     7440.00
02764            1500.00     7520.00
02765            1540.00     7360.00
02766            1500.00     7520.00
02767            1500.00     7360.00
02768            1500.00     7440.00
02769            1520.00     7360.00
02770            1480.00     7360.00
02771            1500.00     7360.00
02772            1500.00     7360.00
02773            1480.00     7360.00
02774            1480.00     7360.00
02775            1500.00     7360.00
02776            1500.00     7360.00
02777            1480.00     7360.00
02778            1480.00     7280.00
02779            1500.00     7360.00
02780            1480.00     7360.00
02781            1480.00     7280.00
02782            1480.00     7200.00
02783            1480.00     7200.00
02784            1480.00     7200.00
02785            1480.00     7200.00
02786            1460.00     7200.00
02787            1480.00     7200.00
02788            1480.00     7120.00
02789            1460.00     7200.00
02790            1460.00     7120.00
02791            1460.00     7120.00
02792            1460.00     7040.00
02793            1460.00     7040.00
02794            1460.00     7040.00
02795            1460.00     7040.00
02796            1460.00     6960.00
02797            1420.00     6960.00
02798            1440.00     7040.00
02799            1420.00     6960.00
02800            1420.00     6960.00
02801            1420.00     6880.00
02802            1420.00     6880.00
02803            1420.00     6880.00
02804            1400.00     6880.00
02805            1400.00     6880.00
02806            1400.00     6880.00
02807            1380.00     6800.00
02808            1380.00     6800.00
02809            1380.00     6800.00
02810            1380.00     6800.00
02811            1380.00     6720.00
02812            1380.00     6720.00
02813            1380.00     6720.00
02814            1380.00     6640.00
02815            1360.00     6640.00
02816            1340.00     6640.00
02817            1380.00     6560.00
02818            1340.00     6560.00
02819            1340.00     6560.00
02820            1340.00     6560.00
02821            1340.00     6560.00
02822            1320.00     6560.00
02823            1320.00     6480.00
02824            1320.00     6400.00
02825            1320.00     6400.00
02826            1320.00     6400.00
02827            1300.00     6400.00
02828            1300.00     6400.00
02829            1300.00     6320.00
02830            1300.00     6320.00
02831            1300.00     6240.00
02832            1300.00     6240.00
02833            1300.00     6240.00
02834            1260.00     6240.00
02835            1260.00     6080.00
02836            1260.00     6240.00
02837            1260.00     6080.00
02838            1260.00     6080.00
02839            1260.00     6000.00
02840            1240.00     6000.00
02841            1240.00     6000.00
02842            1240.00     6000.00
02843            1240.00     6000.00
02844            1220.00     5920.00
02845            1240.00     5920.00
02846            1220.00     5920.00
02847            1220.00     5760.00
02848            1220.00     5840.00
02849            1200.00     5760.00
02850            1200.00     5680.00
02851            1200.00     5680.00
02852            1180.00     5680.00
02853            1180.00     5600.00
02854            1160.00     5600.00
02855            1160.00     5600.00
02856            1160.00     5520.00
02857            1160.00     5520.00
02858            1140.00     5440.00
02859            1140.00     5440.00
02860            1140.00     5440.00
02861            1120.00     5360.00
02862            1140.00     5280.00
02863            1100.00     5360.00
02864            1100.00     5280.00
02865            1100.00     5280.00
02866            1080.00     5200.00
02867            1080.00     5200.00
02868            1080.00     5120.00
02869            1060.00     5120.00
02870            1060.00     5120.00
02871            1040.00     5040.00
02872            1060.00     4960.00
02873            1020.00     4960.00
02874            1020.00     4960.00
02875            1000.00     4960.00
02876            1000.00     4880.00
02877            1000.00     4800.00
02878            1000.00     4800.00
02879            1000.00     4800.00
02880             980.00     4720.00
02881             980.00     4720.00
02882             980.00     4640.00
02883             980.00     4640.00
02884             960.00     4560.00
02885             960.00     4480.00
02886             940.00     4480.00
02887             940.00     4400.00
02888             920.00     4400.00
02889             920.00     4400.00
02890             900.00     4320.00
02891             900.00     4320.00
02892             900.00     4320.00
02893             900.00     4240.00
02894             860.00     4240.00
02895             880.00     4160.00
02896             860.00     4160.00
02897             860.00     4080.00
02898             860.00     4000.00
02899             840.00     4000.00
02900             840.00     4000.00
02901             840.00     4000.00
02902             820.00     3840.00
02903             820.00     3840.00
02904             800.00     3760.00
02905             800.00     3760.00
02906             820.00     3680.00
02907             780.00     3680.00
02908             780.00     3680.00
02909             760.00     3680.00
02910             780.00     3600.00
02911             760.00     3520.00
02912             760.00     3440.00
02913             740.00     3440.00
02914             740.00     3440.00
02915             740.00     3360.00
02916             700.00     3360.00
02917             700.00     3280.00
02918             700.00     3200.00
02919             680.00     3200.00
02920             680.00     3200.00
02921             660.00     3120.00
02922             660.00     3120.00
02923             660.00     3040.00
02924             660.00     2960.00
02925             660.00     2960.00
02926             620.00     2880.00
02927             620.00     2800.00
02928             620.00     2800.00
02929             600.00     2800.00
02930             600.00     2720.00
02931             580.00     2720.00
02932             580.00     2720.00
02933             580.00     2560.00
02934             580.00     2560.00
02935             540.00     2480.00
02936             540.00     2400.00
02937             540.00     2400.00
02938             520.00     2400.00
02939             520.00     2320.00
02940             520.00     2320.00
02941             520.00     2240.00
02942             480.00     2160.00
02943             460.00     2160.00
02944             460.00     2160.00
02945             440.00     2080.00
02946             440.00     2080.00
02947             440.00     1920.00
02948             420.00     1920.00
02949             420.00     1840.00
02950             420.00     1840.00
02951             400.00     1760.00
02952             380.00     1760.00
02953             380.00     1760.00
02954             380.00     1680.00
02955             360.00     1600.00
02956             360.00     1600.00
02957             360.00     1600.00
02958             360.00     1520.00
02959             340.00     1440.00
02960             320.00     1440.00
02961             300.00     1360.00
02962             300.00     1280.00
02963             300.00     1280.00
02964             280.00     1280.00
02965             280.00     1200.00
02966             260.00     1120.00
02967             260.00     1120.00
02968             260.00     1120.00
02969             260.00     1040.00
02970             220.00      960.00
02971             220.00      880.00
02972             220.00      880.00
02973             200.00      800.00
02974             200.00      800.00
02975             200.00      720.00
02976             200.00      720.00
02977             180.00      560.00
02978             180.00      560.00
02979             140.00      560.00
02980             120.00      560.00
02981             120.00      480.00
02982             120.00      400.00
02983             120.00      320.00
02984             120.00      320.00
02985             100.00      240.00
02986              60.00      160.00
02987             100.00      160.00
02988              60.00       80.00
02989              60.00       80.00
02990              60.00        0.00
02991              40.00        0.00
02992              40.00      -80.00
02993              40.00      -80.00
02994              20.00     -160.00
02995              20.00     -160.00
02996               0.00     -240.00
02997             -20.00     -240.00
02998             -40.00     -320.00
02999             -40.00     -320.00
03000             -40.00     -400.00
03001             -40.00     -400.00
03002             -40.00     -400.00
03003             -60.00     -720.00
03004            -140.00     -800.00
03005            -140.00     -720.00
03006             -80.00     -560.00
03007             -40.00     -720.00
03008            -140.00     -960.00
03009            -180.00     -800.00
03010             -80.00     -800.00
03011            -180.00     -960.00
03012            -200.00    -1040.00
03013            -140.00     -960.00
03014            -140.00    -1120.00
03015            -220.00    -1120.00
03016            -200.00    -1120.00
03017            -200.00    -1280.00
03018            -240.00    -1280.00
03019            -220.00    -1280.00
03020            -220.00    -1360.00
03021            -260.00    -1440.00
03022            -280.00    -1440.00
03023            -260.00    -1440.00
03024            -280.00    -1600.00
03025            -280.00    -1520.00
03026            -280.00    -1600.00
03027            -300.00    -1680.00
03028            -300.00    -1680.00
03029            -300.00    -1760.00
03030            -340.00    -1760.00
03031            -340.00    -1760.00
03032            -340.00    -1920.00
03033            -360.00    -2000.00
03034            -380.00    -2000.00
03035            -380.00    -2000.00
03036            -380.00    -2080.00
03037            -380.00    -2080.00
03038            -380.00    -2240.00
03039            -420.00    -2240.00
03040            -420.00    -2240.00
03041            -420.00    -2320.00
03042            -440.00    -2320.00
03043            -440.00    -2400.00
03044            -440.00    -2400.00
03045            -460.00    -2480.00
03046            -460.00    -2560.00
03047            -480.00    -2560.00
03048            -480.00    -2560.00
03049            -500.00    -2640.00
03050            -520.00    -2720.00
03051            -520.00    -2720.00
03052            -520.00    -2720.00
03053            -540.00    -2800.00
03054            -540.00    -2880.00
03055            -540.00    -2880.00
03056            -540.00    -2880.00
03057            -560.00    -2960.00
03058            -580.00    -3040.00
03059            -600.00    -3040.00
03060            -600.00    -3200.00
03061            -600.00    -3200.00
03062            -600.00    -3200.00
03063            -620.00    -3200.00
03064            -620.00    -3280.00
03065            -640.00    -3360.00
03066            -660.00    -3360.00
03067            -680.00    -3440.00
03068            -680.00    -3520.00
03069            -680.00    -3520.00
03070            -700.00    -3520.00
03071            -700.00    -3600.00
03072            -700.00    -3600.00
03073            -700.00    -3680.00
03074            -740.00    -3680.00
03075            -740.00    -3760.00
03076            -760.00    -3760.00
03077            -760.00    -3840.00
03078            -760.00    -3920.00
03079            -760.00    -3920.00
03080            -780.00    -3920.00
03081            -780.00    -4000.00
03082            -780.00    -4000.00
03083            -800.00    -4000.00
03084            -820.00    -4080.00
03085            -820.00    -4240.00
03086            -840.00    -4240.00
03087            -840.00    -4240.00
03088            -840.00    -4320.00
03089            -860.00    -4320.00
03090            -860.00    -4320.00
03091            -860.00    -4320.00
03092            -860.00    -4320.00
03093            -860.00    -4480.00
03094            -860.00    -4480.00
03095            -900.00    -4560.00
03096            -900.00    -4560.00
03097            -920.00    -4640.00
03098            -920.00    -4640.00
03099            -920.00    -4640.00
03100            -940.00    -4800.00
03101            -940.00    -4800.00
03102            -940.00    -4800.00
03103            -940.00    -4800.00
03104            -940.00    -4960.00
03105            -960.00    -4960.00
03106            -980.00    -4960.00
03107            -980.00    -4960.00
03108           -1000.00    -5120.00
03109           -1000.00    -5040.00
03110           -1000.00    -5120.00
03111           -1000.00    -5120.00
03112           -1020.00    -5120.00
03113           -1020.00    -5120.00
03114           -1020.00    -5200.00
03115           -1040.00    -5280.00
03116           -1020.00    -5200.00
03117           -1060.00    -5360.00
03118           -1060.00    -5280.00
03119           -1060.00    -5360.00
03120           -1080.00    -5440.00
03121           -1080.00    -5440.00
03122           -1080.00    -5440.00
03123           -1080.00    -5520.00
03124           -1080.00    -5520.00
03125           -1100.00    -5520.00
03126           -1100.00    -5600.00
03127           -1100.00    -5600.00
03128           -1140.00    -5680.00
03129           -1140.00    -5760.00
03130           -1140.00    -5760.00
03131           -1160.00    -5760.00
03132           -1160.00    -5840.00
03133           -1160.00    -5840.00
03134           -1180.00    -5840.00
03135           -1180.00    -5920.00
03136           -1180.00    -5920.00
03137           -1180.00    -5920.00
03138           -1180.00    -6000.00
03139           -1200.00    -6000.00
03140           -1200.00    -6000.00
03141           -1220.00    -6000.00
03142           -1220.00    -6080.00
03143           -1220.00    -6080.00
03144           -1240.00    -6080.00
03145           -1240.00    -6160.00
03146           -1240.00    -6160.00
03147           -1240.00    -6160.00
03148           -1260.00    -6240.00
03149           -1260.00    -6240.00
03150           -1260.00    -6240.00
03151           -1260.00    -6320.00
03152           -1280.00    -6240.00
03153           -1280.00    -6400.00
03154           -1260.00    -6400.00
03155           -1300.00    -6400.00
03156           -1300.00    -6480.00
03157           -1300.00    -6480.00
03158           -1300.00    -6480.00
03159           -1300.00    -6480.00
03160           -1320.00    -6560.00
03161           -1320.00    -6560.00
03162           -1320.00    -6560.00
03163           -1340.00    -6560.00
03164           -1340.00    -6560.00
03165           -1340.00    -6560.00
03166           -1340.00    -6640.00
03167           -1340.00    -6640.00
03168           -1340.00    -6720.00
03169           -1340.00    -6720.00
03170           -1360.00    -6800.00
03171           -1380.00    -6720.00
03172           -1360.00    -6720.00
03173           -1360.00    -6720.00
03174           -1380.00    -6800.00
03175           -1380.00    -6880.00
03176           -1400.00    -6800.00
03177           -1400.00    -6880.00
03178           -1400.00    -6880.00
03179           -1400.00    -6880.00
03180           -1400.00    -6960.00
03181           -1400.00    -6880.00
03182           -1400.00    -6960.00
03183           -1400.00    -6960.00
03184           -1400.00    -7040.00
03185           -1400.00    -7040.00
03186           -1420.00    -7040.00
03187           -1420.00    -6960.00
03188           -1420.00    -7040.00
03189           -1420.00    -7120.00
03190           -1420.00    -7120.00
03191           -1460.00    -7120.00
03192           -1420.00    -7120.00
03193           -1460.00    -7120.00
03194           -1460.00    -7200.00
03195           -1460.00    -7120.00
03196           -1460.00    -7200.00
03197           -1460.00    -7200.00
03198           -1480.00    -7200.00
03199           -1460.00    -7280.00
03200           -1480.00    -7280.00
03201           -1480.00    -7200.00
03202           -1480.00    -7200.00
03203           -1480.00    -7200.00
03204           -1480.00    -7280.00
03205           -1480.00    -7280.00
03206           -1480.00    -7360.00
03207           -1500.00    -7360.00
03208           -1500.00    -7360.00
03209           -1500.00    -7360.00
03210           -1500.00    -7360.00
03211           -1500.00    -7360.00
03212           -1500.00    -7360.00
03213           -1500.00    -7360.00
03214           -1500.00    -7360.00
03215           -1500.00    -7360.00
03216           -1500.00    -7360.00
03217           -1500.00    -7360.00
03218           -1500.00    -7360.00
03219           -1500.00    -7440.00
03220           -1540.00    -7440.00
03221           -1500.00    -7440.00
03222           -1500.00    -7440.00
03223           -1540.00    -7440.00
03224           -1500.00    -7360.00
03225           -1500.00    -7440.00
03226           -1520.00    -7440.00
03227           -1520.00    -7440.00
03228           -1520.00    -7520.00
03229           -1500.00    -7440.00
03230           -1540.00    -7520.00
03231           -1500.00    -7440.00
03232           -1540.00    -7440.00
03233           -1500.00    -7520.00
03234           -1520.00    -7440.00
03235           -1540.00    -7520.00
03236           -1500.00    -7440.00
03237           -1540.00    -7440.00
03238           -1520.00    -7440.00
03239           -1540.00    -7520.00
03240           -1540.00    -7520.00
03241           -1540.00    -7520.00
03242           -1540.00    -7520.00
03243           -1540.00    -7440.00
03244           -1540.00    -7520.00
03245           -1540.00    -7440.00
03246           -1540.00    -7520.00
03247           -1540.00    -7520.00
03248           -1520.00    -7520.00
03249           -1540.00    -7520.00
03250           -1540.00    -7440.00
03251           -1520.00    -7520.00
03252           -1540.00    -7440.00
03253           -1540.00    -7520.00
03254           -1540.00    -7440.00
03255           -1540.00    -7520.00
03256           -1540.00    -7440.00
03257           -1540.00    -7440.00
03258           -1540.00    -7440.00
03259           -1520.00    -7440.00
03260           -1540.00    -7440.00
03261           -1540.00    -7440.00
03262           -1540.00    -7440.00
03263           -1540.00    -7440.00
03264           -1540.00    -7440.00
03265           -1540.00    -7360.00
03266           -1540.00    -7360.00
03267           -1540.00    -7440.00
03268           -1540.00    -7360.00
03269           -1540.00    -7440.00
03270           -1540.00    -7360.00
03271           -1520.00    -7360.00
03272           -1540.00    -7360.00
03273           -1500.00    -7360.00
03274           -1540.00    -7360.00
03275           -1520.00    -7360.00
03276           -1540.00    -7360.00
03277           -1500.00    -7280.00
03278           -1500.00    -7280.00
03279           -1520.00    -7360.00
03280           -1500.00    -7280.00
03281           -1500.00    -7360.00
03282           -1500.00    -7200.00
03283           -1500.00    -7200.00
03284           -1500.00    -7200.00
03285           -1500.00    -7200.00
03286           -1500.00    -7200.00
03287           -1480.00    -7200.00
03288           -1480.00    -7200.00
03289           -1480.00    -7200.00
03290           -1480.00    -7200.00
03291           -1480.00    -7120.00
03292           -1480.00    -7120.00
03293           -1480.00    -7120.00
03294           -1480.00    -7120.00
03295           -1480.00    -7040.00
03296           -1480.00    -7120.00
03297           -1460.00    -7040.00
03298           -1480.00    -6960.00
03299           -1460.00    -7040.00
03300           -1460.00    -6960.00
03301           -1460.00    -6960.00
03302           -1440.00    -6880.00
03303           -1440.00    -6880.00
03304           -1440.00    -6960.00
03305           -1440.00    -6960.00
03306           -1420.00    -6880.00
03307           -1420.00    -6880.00
03308           -1420.00    -6880.00
03309           -1420.00    -6800.00
03310           -1420.00    -6880.00
03311           -1420.00    -6800.00
03312           -1420.00    -6800.00
03313           -1420.00    -6800.00
03314           -1400.00    -6720.00
03315           -1400.00    -6720.00
03316           -1400.00    -6720.00
03317           -1400.00    -6720.00
03318           -1380.00    -6720.00
03319           -1400.00    -6640.00
03320           -1380.00    -6560.00
03321           -1380.00    -6560.00
03322           -1380.00    -6560.00
03323           -1380.00    -6560.00
03324           -1380.00    -6560.00
03325           -1380.00    -6480.00
03326           -1360.00    -6560.00
03327           -1340.00    -6560.00
03328           -1360.00    -6480.00
03329           -1340.00    -6400.00
03330           -1360.00    -6480.00
03331           -1340.00    -6400.00
03332           -1340.00    -6400.00
03333           -1340.00    -6320.00
03334           -1320.00    -6320.00
03335           -1320.00    -6400.00
03336           -1320.00    -6240.00
03337           -1320.00    -6240.00
03338           -1320.00    -6160.00
03339           -1300.00    -6240.00
03340           -1300.00    -6160.00
03341           -1300.00    -6080.00
03342           -1280.00    -6080.00
03343           -1300.00    -6080.00
03344           -1260.00    -6080.00
03345           -1280.00    -6000.00
03346           -1260.00    -6080.00
03347           -1260.00    -5920.00
03348           -1260.00    -5920.00
03349           -1260.00    -5920.00
03350           -1240.00    -5840.00
03351           -1260.00    -5920.00
03352           -1240.00    -5840.00
03353           -1220.00    -5760.00
03354           -1220.00    -5760.00
03355           -1220.00    -5760.00
03356           -1220.00    -5760.00
03357           -1180.00    -5680.00
03358           -1200.00    -5600.00
03359           -1180.00    -5600.00
03360           -1180.00    -5600.00
03361           -1180.00    -5520.00
03362           -1160.00    -5520.00
03363           -1180.00    -5520.00
03364           -1160.00    -5440.00
03365           -1160.00    -5440.00
03366           -1140.00    -5440.00
03367           -1140.00    -5280.00
03368           -1140.00    -5280.00
03369           -1120.00    -5280.00
03370           -1100.00    -5280.00
03371           -1100.00    -5280.00
03372           -1100.00    -5200.00
03373           -1080.00    -5200.00
03374           -1080.00    -5120.00
03375           -1080.00    -5120.00
03376           -1100.00    -5120.00
03377           -1080.00    -5040.00
03378           -1060.00    -4960.00
03379           -1060.00    -4960.00
03380           -1020.00    -4960.00
03381           -1040.00    -4880.00
03382           -1020.00    -4880.00
03383           -1020.00    -4880.00
03384           -1020.00    -4800.00
03385           -1020.00    -4800.00
03386           -1000.00    -4800.00
03387           -1000.00    -4640.00
03388           -1000.00    -4640.00
03389           -1000.00    -4640.00
03390            -980.00    -4560.00
03391            -980.00    -4560.00
03392           -1000.00    -4400.00
03393            -940.00    -4480.00
03394            -940.00    -4400.00
03395            -940.00    -4480.00
03396            -940.00    -4320.00
03397            -940.00    -4320.00
03398            -920.00    -4240.00
03399            -920.00    -4240.00
03400            -920.00    -4160.00
03401            -900.00    -4160.00
03402            -920.00    -4080.00
03403            -900.00    -4160.00
03404            -880.00    -4000.00
03405            -860.00    -4000.00
03406            -860.00    -3920.00
03407            -860.00    -3920.00
03408            -860.00    -3920.00
03409            -840.00    -3840.00
03410            -860.00    -3840.00
03411            -840.00    -3680.00
03412            -840.00    -3760.00
03413            -820.00    -3680.00
03414            -820.00    -3680.00
03415            -800.00    -3680.00
03416            -780.00    -3520.00
03417            -760.00    -3600.00
03418            -760.00    -3520.00
03419            -760.00    -3360.00
03420            -740.00    -3440.00
03421            -740.00    -3360.00
03422            -740.00    -3360.00
03423            -740.00    -3280.00
03424            -740.00    -3280.00
03425            -720.00    -3200.00
03426            -700.00    -3200.00
03427            -700.00    -3120.00
03428            -700.00    -3040.00
03429            -680.00    -3040.00
03430            -680.00    -2960.00
03431            -660.00    -2960.00
03432            -660.00    -2880.00
03433            -620.00    -2880.00
03434            -640.00    -2880.00
03435            -620.00    -2800.00
03436            -620.00    -2720.00
03437            -600.00    -2720.00
03438            -600.00    -2640.00
03439            -600.00    -2640.00
03440            -580.00    -2640.00
03441            -580.00    -2560.00
03442            -540.00    -2560.00
03443            -540.00    -2480.00
03444            -560.00    -2400.00
03445            -540.00    -2320.00
03446            -540.00    -2320.00
03447            -520.00    -2240.00
03448            -520.00    -2240.00
03449            -500.00    -2240.00
03450            -500.00    -2080.00
03451            -460.00    -2080.00
03452            -500.00    -2000.00
03453            -460.00    -2000.00
03454            -440.00    -1920.00
03455            -440.00    -1840.00
03456            -440.00    -1840.00
03457            -440.00    -1760.00
03458            -420.00    -1760.00
03459            -440.00    -1760.00
03460            -420.00    -1680.00
03461            -420.00    -1680.00
03462            -400.00    -1680.00
03463            -380.00    -1600.00
03464            -380.00    -1600.00
03465            -380.00    -1440.00
03466            -360.00    -1360.00
03467            -340.00    -1360.00
03468            -340.00    -1280.00
03469            -300.00    -1280.00
03470            -340.00    -1200.00
03471            -300.00    -1200.00
03472            -300.00    -1120.00
03473            -300.00    -1120.00
03474            -280.00    -1040.00
03475            -280.00    -1040.00
03476            -280.00     -960.00
03477            -260.00     -960.00
03478            -220.00     -880.00
03479            -240.00     -880.00
03480            -220.00     -800.00
03481            -220.00     -800.00
03482            -200.00     -640.00
03483            -220.00     -720.00
03484            -200.00     -640.00
03485            -200.00     -560.00
03486            -140.00     -480.00
03487            -180.00     -400.00
03488            -140.00     -400.00
03489            -140.00     -400.00
03490            -140.00     -320.00
03491            -140.00     -320.00
03492            -120.00     -240.00
03493            -100.00     -160.00
03494            -100.00     -160.00
03495             -80.00      -80.00
03496             -80.00        0.00
03497             -60.00        0.00
03498             -60.00        0.00
03499             -40.00        0.00
03500             -40.00      160.00
03501             -40.00      160.00
03502             -20.00      240.00
03503               0.00      320.00
03504              20.00      240.00
03505              20.00      320.00
03506              20.00      480.00
03507              40.00      480.00
03508              60.00      560.00
03509             100.00      720.00
03510              60.00      640.00
03511              20.00      560.00
03512              20.00      720.00
03513             100.00      880.00
03514             180.00      880.00
03515              60.00      800.00
03516              60.00      880.00
03517             180.00      960.00
03518             120.00      960.00
03519             100.00      960.00
03520             180.00     1200.00
03521             200.00     1120.00
03522             120.00     1040.00
03523             180.00     1280.00
03524             200.00     1200.00
03525             160.00     1280.00
03526             200.00     1280.00
03527             260.00     1440.00
03528             200.00     1280.00
03529             220.00     1440.00
03530             260.00     1520.00
03531             220.00     1520.00
03532             280.00     1600.00
03533             280.00     1600.00
03534             260.00     1600.00
03535             260.00     1760.00
03536             320.00     1840.00
03537             300.00     1840.00
03538             340.00     1920.00
03539             340.00     1920.00
03540             340.00     1920.00
03541             340.00     2000.00
03542             360.00     2080.00
03543             340.00     2080.00
03544             380.00     2160.00
03545             360.00     2160.00
03546             380.00     2240.00
03547             420.00     2320.00
03548             420.00     2400.00
03549             420.00     2400.00
03550             420.00     2400.00
03551             440.00     2480.00
03552             440.00     2480.00
03553             440.00     2560.00
03554             460.00     2560.00
03555             460.00     2640.00
03556             500.00     2720.00
03557             500.00     2720.00
03558             500.00     2720.00
03559             520.00     2800.00
03560             520.00     2880.00
03561             540.00     2880.00
03562             560.00     3040.00
03563             560.00     3040.00
03564             560.00     3040.00
03565             560.00     3120.00
03566             580.00     3120.00
03567             580.00     3200.00
03568             580.00     3280.00
03569             600.00     3280.00
03570             620.00     3360.00
03571             620.00     3360.00
03572             620.00     3440.00
03573             660.00     3440.00
03574             660.00     3440.00
03575             660.00     3520.00
03576             660.00     3520.00
03577             680.00     3600.00
03578             680.00     3680.00
03579             680.00     3680.00
03580             680.00     3680.00
03581             700.00     3760.00
03582             700.00     3760.00
03583             740.00     3840.00
03584             740.00     3920.00
03585             740.00     3920.00
03586             760.00     4000.00
03587             760.00     4080.00
03588             760.00     4000.00
03589             760.00     4080.00
03590             780.00     4080.00
03591             780.00     4160.00
03592             800.00     4160.00
03593             780.00     4240.00
03594             820.00     4320.00
03595             840.00     4320.00
03596             820.00     4320.00
03597             840.00     4400.00
03598             840.00     4400.00
03599             840.00     4480.00
03600             840.00     4480.00
03601             860.00     4480.00
03602             860.00     4480.00
03603             900.00     4640.00
03604             860.00     4640.00
03605             900.00     4720.00
03606             900.00     4720.00
03607             900.00     4800.00
03608             920.00     4800.00
03609             920.00     4800.00
03610             920.00     4880.00
03611             940.00     4960.00
03612             940.00     4960.00
03613             960.00     4960.00
03614             960.00     5040.00
03615             980.00     5040.00
03616             980.00     5120.00
03617            1000.00     5120.00
03618            1000.00     5120.00
03619            1000.00     5200.00
03620            1020.00     5280.00
03621            1020.00     5280.00
03622            1020.00     5280.00
03623            1020.00     5360.00
03624            1040.00     5360.00
03625            1060.00     5360.00
03626            1060.00     5360.00
03627            1060.00     5440.00
03628            1060.00     5440.00
03629            1060.00     5520.00
03630            1080.00     5600.00
03631            1080.00     5600.00
03632            1100.00     5680.00
03633            1100.00     5680.00
03634            1100.00     5680.00
03635            1100.00     5760.00
03636            1140.00     5760.00
03637            1140.00     5760.00
03638            1140.00     5840.00
03639            1160.00     5840.00
03640            1160.00     5920.00
03641            1160.00     5920.00
03642            1180.00     5920.00
03643            1160.00     6000.00
03644            1180.00     5920.00
03645            1180.00     6000.00
03646            1180.00     6000.00
03647            1180.00     6080.00
03648            1200.00     6080.00
03649            1200.00     6080.00
03650            1180.00     6160.00
03651            1220.00     6160.00
03652            1220.00     6240.00
03653            1220.00     6240.00
03654            1220.00     6240.00
03655            1220.00     6320.00
03656            1220.00     6320.00
03657            1240.00     6400.00
03658            1240.00     6320.00
03659            1240.00     6400.00
03660            1240.00     6400.00
03661            1260.00     6480.00
03662            1260.00     6400.00
03663            1280.00     6480.00
03664            1300.00     6560.00
03665            1300.00     6560.00
03666            1280.00     6560.00
03667            1300.00     6560.00
03668            1300.00     6640.00
03669            1300.00     6640.00
03670            1320.00     6560.00
03671            1300.00     6640.00
03672            1320.00     6720.00
03673            1320.00     6640.00
03674            1320.00     6720.00
03675            1320.00     6720.00
03676            1340.00     6720.00
03677            1340.00     6720.00
03678            1340.00     6800.00
03679            1360.00     6880.00
03680            1380.00     6880.00
03681            1380.00     6880.00
03682            1380.00     6880.00
03683            1380.00     6880.00
03684            1380.00     6960.00
03685            1380.00     6960.00
03686            1400.00     6960.00
03687            1380.00     7040.00
03688            1400.00     6960.00
03689            1400.00     7040.00
03690            1400.00     7040.00
03691            1400.00     7040.00
03692            1400.00     7120.00
03693            1420.00     7120.00
03694            1420.00     7040.00
03695            1420.00     7200.00
03696            1440.00     7120.00
03697            1420.00     7200.00
03698            1440.00     7200.00
03699            1420.00     7200.00
03700            1440.00     7200.00
03701            1460.00     7200.00
03702            1460.00     7280.00
03703            1460.00     7200.00
03704            1460.00     7280.00
03705            1460.00     7280.00
03706            1460.00     7280.00
03707            1480.00     7280.00
03708            1460.00     7280.00
03709            1460.00     7360.00
03710            1480.00     7360.00
03711            1480.00     7360.00
03712            1480.00     7360.00
03713            1480.00     7360.00
03714            1480.00     7360.00
03715            1480.00     7360.00
03716            1480.00     7360.00
03717            1480.00     7440.00
03718            1480.00     7440.00
03719            1500.00     7440.00
03720            1480.00     7440.00
03721            1480.00     7520.00
03722            1500.00     7520.00
03723            1480.00     7440.00
03724            1480.00     7440.00
03725            1500.00     7520.00
03726            1480.00     7520.00
03727            1500.00     7520.00
03728            1500.00     7520.00
03729            1500.00     7520.00
03730            1500.00     7520.00
03731            1500.00     7520.00
03732            1500.00     7520.00
03733            1500.00     7520.00
03734            1500.00     7600.00
03735            1500.00     7520.00
03736            1520.00     7520.00
03737            1500.00     7600.00
03738            1500.00     7520.00
03739            1500.00     7520.00
03740            1540.00     7520.00
03741            1520.00     7520.00
03742            1540.00     7600.00
03743            1520.00     7600.00
03744            1520.00     7600.00
03745            1520.00     7600.00
03746            1540.00     7520.00
03747            1540.00     7600.00
03748            1540.00     7520.00
03749            1540.00     7600.00
03750            1520.00     7520.00
03751            1540.00     7520.00
03752            1540.00     7600.00
03753            1520.00     7600.00
03754            1540.00     7520.00
03755            1540.00     7520.00
03756            1540.00     7600.00
03757            1540.00     7520.00
03758            1540.00     7600.00
03759            1540.00     7600.00
03760            1540.00     7520.00
03761            1540.00     7520.00
03762            1540.00     7600.00
03763            1540.00     7520.00
03764            1540.00     7600.00
03765            1540.00     7520.00
03766            1560.00     7520.00
03767            1540.00     7600.00
03768            1540.00     7520.00
03769            1540.00     7520.00
03770            1540.00     7520.00
03771            1540.00     7520.00
03772            1540.00     7520.00
03773            1540.00     7520.00
03774            1540.00     7520.00
03775            1520.00     7440.00
03776            1540.00     7440.00
03777            1500.00     7520.00
03778            1500.00     7520.00
03779            1540.00     7440.00
03780            1500.00     7360.00
03781            1540.00     7360.00
03782            1500.00     7440.00
03783            1500.00     7360.00
03784            1500.00     7360.00
03785            1500.00     7360.00
03786            1500.00     7360.00
03787            1500.00     7360.00
03788            1480.00     7440.00
03789            1480.00     7360.00
03790            1500.00     7360.00
03791            1480.00     7360.00
03792            1500.00     7280.00
03793            1480.00     7280.00
03794            1480.00     7280.00
03795            1480.00     7280.00
03796            1480.00     7280.00
03797            1480.00     7280.00
03798            1480.00     7280.00
03799            1480.00     7200.00
03800            1460.00     7280.00
03801            1460.00     7200.00
03802            1480.00     7200.00
03803            1460.00     7120.00
03804            1460.00     7120.00
03805            1460.00     7120.00
03806            1440.00     7200.00
03807            1460.00     7040.00
03808            1440.00     7040.00
03809            1460.00     7040.00
03810            1460.00     7040.00
03811            1460.00     7040.00
03812            1440.00     7040.00
03813            1420.00     6960.00
03814            1420.00     6960.00
03815            1420.00     6960.00
03816            1420.00     6960.00
03817            1420.00     6880.00
03818            1420.00     6960.00
03819            1420.00     6880.00
03820            1420.00     6880.00
03821            1400.00     6880.00
03822            1400.00     6880.00
03823            1400.00     6800.00
03824            1400.00     6800.00
03825            1400.00     6800.00
03826            1400.00     6800.00
03827            1380.00     6720.00
03828            1380.00     6720.00
03829            1380.00     6640.00
03830            1380.00     6640.00
03831            1380.00     6640.00
03832            1380.00     6560.00
03833            1380.00     6560.00
03834            1360.00     6560.00
03835            1340.00     6560.00
03836            1340.00     6560.00
03837            1340.00     6560.00
03838            1340.00     6560.00
03839            1320.00     6480.00
03840            1320.00     6400.00
03841            1320.00     6400.00
03842            1320.00     6400.00
03843            1320.00     6320.00
03844            1320.00     6400.00
03845            1320.00     6320.00
03846            1300.00     6320.00
03847            1300.00     6240.00
03848            1300.00     6240.00
03849            1280.00     6160.00
03850            1260.00     6240.00
03851            1260.00     6240.00
03852            1260.00     6080.00
03853            1240.00     6080.00
03854            1240.00     6080.00
03855            1220.00     6080.00
03856            1240.00     6080.00
03857            1220.00     6000.00
03858            1220.00     5920.00
03859            1220.00     5920.00
03860            1220.00     5920.00
03861            1200.00     5920.00
03862            1220.00     5840.00
03863            1220.00     5760.00
03864            1200.00     5840.00
03865            1180.00     5760.00
03866            1180.00     5760.00
03867            1180.00     5680.00
03868            1160.00     5680.00
03869            1160.00     5600.00
03870            1160.00     5600.00
03871            1160.00     5600.00
03872            1160.00     5600.00
03873            1140.00     5520.00
03874            1140.00     5440.00
03875            1140.00     5440.00
03876            1120.00     5440.00
03877            1140.00     5440.00
03878            1100.00     5360.00
03879            1100.00     5280.00
03880            1100.00     5280.00
03881            1080.00     5280.00
03882            1080.00     5200.00
03883            1080.00     5120.00
03884            1080.00     5120.00
03885            1060.00     5120.00
03886            1060.00     5040.00
03887            1060.00     5040.00
03888            1060.00     5040.00
03889            1060.00     5040.00
03890            1060.00     4960.00
03891            1020.00     4960.00
03892            1000.00     4880.00
03893            1020.00     4880.00
03894            1000.00     4800.00
03895            1000.00     4720.00
03896            1000.00     4720.00
03897            1000.00     4720.00
03898             980.00     4640.00
03899             980.00     4560.00
03900             980.00     4560.00
03901             960.00     4480.00
03902             980.00     4480.00
03903             940.00     4400.00
03904             940.00     4400.00
03905             940.00     4400.00
03906             920.00     4320.00
03907             920.00     4320.00
03908             920.00     4320.00
03909             900.00     4320.00
03910             900.00     4160.00
03911             880.00     4080.00
03912             860.00     4080.00
03913             860.00     4080.00
03914             860.00     4080.00
03915             840.00     4000.00
03916             840.00     4000.00
03917             840.00     3920.00
03918             820.00     3920.00
03919             820.00     3840.00
03920             820.00     3760.00
03921             820.00     3760.00
03922             780.00     3680.00
03923             780.00     3680.00
03924             780.00     3680.00
03925             760.00     3600.00
03926             760.00     3520.00
03927             760.00     3520.00
03928             740.00     3520.00
03929             740.00     3440.00
03930             740.00     3440.00
03931             720.00     3360.00
03932             700.00     3360.00
03933             680.00     3280.00
03934             700.00     3280.00
03935             680.00     3200.00
03936             680.00     3200.00
03937             660.00     3120.00
03938             660.00     3040.00
03939             660.00     3040.00
03940             660.00     3040.00
03941             660.00     3040.00
03942             620.00     2880.00
03943             620.00     2880.00
03944             620.00     2880.00
03945             600.00     2800.00
03946             580.00     2720.00
03947             580.00     2720.00
03948             580.00     2720.00
03949             580.00     2560.00
03950             560.00     2640.00
03951             540.00     2480.00
03952             540.00     2480.00
03953             520.00     2400.00
03954             540.00     2400.00
03955             520.00     2400.00
03956             520.00     2240.00
03957             500.00     2240.00
03958             500.00     2240.00
03959             480.00     2160.00
03960             480.00     2160.00
03961             440.00     2080.00
03962             440.00     2080.00
03963             440.00     2000.00
03964             440.00     1920.00
03965             420.00     1840.00
03966             420.00     1840.00
03967             420.00     1760.00
03968             420.00     1760.00
03969             400.00     1760.00
03970             380.00     1680.00
03971             380.00     1600.00
03972             360.00     1600.00
03973             360.00     1520.00
03974             340.00     1440.00
03975             340.00     1440.00
03976             340.00     1440.00
03977             340.00     1360.00
03978             300.00     1280.00
03979             300.00     1200.00
03980             300.00     1200.00
03981             280.00     1200.00
03982             260.00     1200.00
03983             260.00     1120.00
03984             240.00     1120.00
03985             220.00      960.00
03986             240.00      960.00
03987             220.00      960.00
03988             220.00      880.00
03989             200.00      800.00
03990             200.00      800.00
03991             200.00      800.00
03992             180.00      640.00
03993             160.00      640.00
03994             140.00      560.00
03995             140.00      560.00
03996             140.00      480.00
03997             120.00      480.00
03998             120.00      320.00
03999             100.00      400.00
04000             100.00      320.00
04001             100.00      320.00
04002              80.00      160.00
04003              60.00      160.00
04004              60.00      160.00
04005              40.00      160.00
04006              40.00        0.00
04007              40.00        0.00
04008              20.00        0.00
04009              40.00      -80.00
04010              20.00     -160.00
04011              20.00     -160.00
04012             -20.00     -240.00
04013             -20.00     -240.00
04014             -20.00     -320.00
04015             -40.00     -400.00
04016             -40.00     -400.00
04017             -40.00     -400.00
04018             -20.00     -480.00
04019             -60.00     -720.00
04020            -120.00     -720.00
04021            -140.00     -720.00
04022             -60.00     -560.00
04023             -60.00     -720.00
04024            -180.00     -960.00
04025            -160.00     -800.00
04026             -60.00     -800.00
04027            -180.00     -960.00
04028            -200.00    -1040.00
04029            -120.00     -960.00
04030            -180.00    -1120.00
04031            -200.00    -1120.00
04032            -200.00    -1120.00
04033            -200.00    -1280.00
04034            -240.00    -1280.00
04035            -200.00    -1280.00
04036            -220.00    -1360.00
04037            -260.00    -1440.00
04038            -260.00    -1440.00
04039            -260.00    -1440.00
04040            -280.00    -1520.00
04041            -280.00    -1600.00
04042            -280.00    -1680.00
04043            -320.00    -1680.00
04044            -300.00    -1760.00
04045            -320.00    -1760.00
04046            -340.00    -1760.00
04047            -360.00    -1840.00
04048            -340.00    -1920.00
04049            -360.00    -1920.00
04050            -360.00    -2000.00
04051            -380.00    -2000.00
04052            -380.00    -2080.00
04053            -380.00    -2160.00
04054            -420.00    -2160.00
04055            -440.00    -2240.00
04056            -420.00    -2240.00
04057            -440.00    -2240.00
04058            -440.00    -2400.00
04059            -440.00    -2400.00
04060            -460.00    -2400.00
04061            -460.00    -2480.00
04062            -460.00    -2560.00
04063            -480.00    -2560.00
04064            -500.00    -2640.00
04065            -500.00    -2720.00
04066            -520.00    -2720.00
04067            -520.00    -2720.00
04068            -520.00    -2800.00
04069            -540.00    -2880.00
04070            -540.00    -2880.00
04071            -540.00    -2960.00
04072            -560.00    -2960.00
04073            -580.00    -3040.00
04074            -580.00    -3040.00
04075            -600.00    -3120.00
04076            -600.00    -3200.00
04077            -620.00    -3120.00
04078            -600.00    -3200.00
04079            -620.00    -3280.00
04080            -620.00    -3360.00
04081            -660.00    -3360.00
04082            -620.00    -3360.00
04083            -680.00    -3440.00
04084            -660.00    -3520.00
04085            -680.00    -3520.00
04086            -680.00    -3600.00
04087            -700.00    -3600.00
04088            -700.00    -3680.00
04089            -700.00    -3680.00
04090            -720.00    -3680.00
04091            -720.00    -3680.00
04092            -740.00    -3840.00
04093            -760.00    -3840.00
04094            -760.00    -3840.00
04095            -760.00    -3920.00
04096            -760.00    -3920.00
04097            -780.00    -3920.00
04098            -780.00    -4000.00
04099            -800.00    -4080.00
04100            -820.00    -4160.00
04101            -800.00    -4160.00
04102            -840.00    -4240.00
04103            -840.00    -4240.00
04104            -840.00    -4240.00
04105            -840.00    -4320.00
04106            -860.00    -4320.00
04107            -860.00    -4320.00
04108            -860.00    -4400.00
04109            -880.00    -4480.00
04110            -900.00    -4480.00
04111            -900.00    -4560.00
04112            -900.00    -4560.00
04113            -920.00    -4560.00
04114            -920.00    -4640.00
04115            -940.00    -4640.00
04116            -920.00    -4720.00
04117            -940.00    -4800.00
04118            -940.00    -4800.00
04119            -940.00    -4800.00
04120           -1000.00    -4960.00
04121            -960.00    -4880.00
04122            -980.00    -4960.00
04123           -1000.00    -4960.00
04124           -1000.00    -5040.00
04125           -1000.00    -4960.00
04126           -1020.00    -5120.00
04127           -1020.00    -5120.00
04128           -1020.00    -5120.00
04129           -1020.00    -5200.00
04130           -1060.00    -5280.00
04131           -1020.00    -5200.00
04132           -1060.00    -5280.00
04133           -1060.00    -5280.00
04134           -1080.00    -5280.00
04135           -1080.00    -5360.00
04136           -1080.00    -5440.00
04137           -1080.00    -5440.00
04138           -1080.00    -5520.00
04139           -1100.00    -5440.00
04140           -1100.00    -5520.00
04141           -1100.00    -5520.00
04142           -1120.00    -5600.00
04143           -1100.00    -5600.00
04144           -1120.00    -5680.00
04145           -1120.00    -5760.00
04146           -1140.00    -5760.00
04147           -1140.00    -5760.00
04148           -1140.00    -5760.00
04149           -1160.00    -5920.00
04150           -1160.00    -5840.00
04151           -1160.00    -5840.00
04152           -1160.00    -5920.00
04153           -1180.00    -5920.00
04154           -1180.00    -6000.00
04155           -1180.00    -5920.00
04156           -1180.00    -5920.00
04157           -1220.00    -6080.00
04158           -1220.00    -6080.00
04159           -1220.00    -6080.00
04160           -1220.00    -6080.00
04161           -1240.00    -6160.00
04162           -1240.00    -6160.00
04163           -1240.00    -6160.00
04164           -1240.00    -6240.00
04165           -1260.00    -6240.00
04166           -1260.00    -6240.00
04167           -1260.00    -6240.00
04168           -1260.00    -6400.00
04169           -1260.00    -6400.00
04170           -1300.00    -6400.00
04171           -1300.00    -6400.00
04172           -1300.00    -6480.00
04173           -1300.00    -6400.00
04174           -1300.00    -6480.00
04175           -1320.00    -6480.00
04176           -1320.00    -6560.00
04177           -1340.00    -6560.00
04178           -1320.00    -6560.00
04179           -1340.00    -6560.00
04180           -1340.00    -6640.00
04181           -1340.00    -6560.00
04182           -1340.00    -6720.00
04183           -1340.00    -6640.00
04184           -1340.00    -6720.00
04185           -1340.00    -6720.00
04186           -1360.00    -6800.00
04187           -1360.00    -6720.00
04188           -1380.00    -6800.00
04189           -1380.00    -6800.00
04190           -1400.00    -6800.00
04191           -1380.00    -6800.00
04192           -1400.00    -6800.00
04193           -1400.00    -6800.00
04194           -1400.00    -6880.00
04195           -1400.00    -6880.00
04196           -1400.00    -6880.00
04197           -1420.00    -6880.00
04198           -1420.00    -6960.00
04199           -1400.00    -7040.00
04200           -1400.00    -6960.00
04201           -1420.00    -7040.00
04202           -1420.00    -6960.00
04203           -1420.00    -7040.00
04204           -1420.00    -7040.00
04205           -1420.00    -7120.00
04206           -1460.00    -7120.00
04207           -1420.00    -7120.00
04208           -1460.00    -7120.00
04209           -1440.00    -7120.00
04210           -1460.00    -7120.00
04211           -1460.00    -7200.00
04212           -1440.00    -7200.00
04213           -1460.00    -7200.00
04214           -1460.00    -7120.00
04215           -1460.00    -7200.00
04216           -1460.00    -7200.00
04217           -1480.00    -7200.00
04218           -1460.00    -7200.00
04219           -1480.00    -7200.00
04220           -1480.00    -7200.00
04221           -1460.00    -7280.00
04222           -1480.00    -7200.00
04223           -1480.00    -7360.00
04224           -1480.00    -7280.00
04225           -1480.00    -7360.00
04226           -1480.00    -7360.00
04227           -1500.00    -7360.00
04228           -1480.00    -7360.00
04229           -1500.00    -7360.00
04230           -1480.00    -7360.00
04231           -1500.00    -7360.00
04232           -1500.00    -7360.00
04233           -1500.00    -7440.00
04234           -1500.00    -7360.00
04235           -1500.00    -7440.00
04236           -1500.00    -7440.00
04237           -1500.00    -7440.00
04238           -1500.00    -7440.00
04239           -1500.00    -7440.00
04240           -1500.00    -7440.00
04241           -1500.00    -7440.00
04242           -1520.00    -7440.00
04243           -1540.00    -7440.00
04244           -1500.00    -7440.00
04245           -1540.00    -7440.00
04246           -1520.00    -7440.00
04247           -1520.00    -7440.00
04248           -1540.00    -7440.00
04249           -1500.00    -7440.00
04250           -1560.00    -7520.00
04251           -1500.00    -7520.00
04252           -1520.00    -7520.00
04253           -1540.00    -7520.00
04254           -1540.00    -7520.00
04255           -1540.00    -7520.00
04256           -1540.00    -7520.00
04257           -1540.00    -7440.00
04258           -1540.00    -7520.00
04259           -1540.00    -7520.00
04260           -1520.00    -7440.00
04261           -1520.00    -7520.00
04262           -1540.00    -7440.00
04263           -1540.00    -7520.00
04264           -1540.00    -7440.00
04265           -1540.00    -7520.00
04266           -1540.00    -7520.00
04267           -1540.00    -7520.00
04268           -1540.00    -7440.00
04269           -1540.00    -7520.00
04270           -1520.00    -7440.00
04271           -1540.00    -7520.00
04272           -1520.00    -7440.00
04273           -1540.00    -7520.00
04274           -1540.00    -7440.00
04275           -1540.00    -7440.00
04276           -1540.00    -7440.00
04277           -1540.00    -7440.00
04278           -1520.00    -7440.00
04279           -1540.00    -7440.00
04280           -1500.00    -7440.00
04281           -1520.00    -7440.00
04282           -1500.00    -7440.00
04283           -1520.00    -7360.00
04284           -1500.00    -7440.00
04285           -1500.00    -7360.00
04286           -1500.00    -7360.00
04287           -1500.00    -7360.00
04288           -1500.00    -7360.00
04289           -1500.00    -7360.00
04290           -1500.00    -7360.00
04291           -1500.00    -7360.00
04292           -1500.00    -7360.00
04293           -1500.00    -7360.00
04294           -1500.00    -7360.00
04295           -1500.00    -7280.00
04296           -1500.00    -7280.00
04297           -1480.00    -7360.00
04298           -1500.00    -7280.00
04299           -1500.00    -7200.00
04300           -1480.00    -7200.00
04301           -1500.00    -7200.00
04302           -1500.00    -7120.00
04303           -1480.00    -7200.00
04304           -1500.00    -7200.00
04305           -1480.00    -7200.00
04306           -1480.00    -7200.00
04307           -1480.00    -7120.00
04308           -1480.00    -7120.00
04309           -1480.00    -7120.00
04310           -1480.00    -7120.00
04311           -1480.00    -7040.00
04312           -1480.00    -6960.00
04313           -1480.00    -7040.00
04314           -1480.00    -7040.00
04315           -1460.00    -6960.00
04316           -1460.00    -6960.00
04317           -1460.00    -7040.00
04318           -1420.00    -6960.00
04319           -1460.00    -6960.00
04320           -1460.00    -6880.00
04321           -1460.00    -6880.00
04322           -1440.00    -6880.00
04323           -1420.00    -6880.00
04324           -1420.00    -6880.00
04325           -1420.00    -6880.00
04326           -1420.00    -6880.00
04327           -1420.00    -6800.00
04328           -1420.00    -6800.00
04329           -1400.00    -6800.00
04330           -1400.00    -6800.00
04331           -1400.00    -6720.00
04332           -1400.00    -6720.00
04333           -1400.00    -6720.00
04334           -1400.00    -6720.00
04335           -1400.00    -6640.00
04336           -1380.00    -6640.00
04337           -1400.00    -6560.00
04338           -1380.00    -6560.00
04339           -1380.00    -6560.00
04340           -1360.00    -6560.00
04341           -1340.00    -6560.00
04342           -1360.00    -6480.00
04343           -1340.00    -6480.00
04344           -1340.00    -6400.00
04345           -1340.00    -6400.00
04346           -1340.00    -6400.00
04347           -1340.00    -6400.00
04348           -1320.00    -6400.00
04349           -1320.00    -6320.00
04350           -1320.00    -6400.00
04351           -1300.00    -6240.00
04352           -1300.00    -6240.00
04353           -1320.00    -6240.00
04354           -1300.00    -6240.00
04355           -1300.00    -6160.00
04356           -1260.00    -6080.00
04357           -1280.00    -6160.00
04358           -1260.00    -6080.00
04359           -1260.00    -6080.00
04360           -1280.00    -6080.00
04361           -1260.00    -5920.00
04362           -1240.00    -6000.00
04363           -1240.00    -5920.00
04364           -1260.00    -5920.00
04365           -1240.00    -5920.00
04366           -1240.00    -5920.00
04367           -1240.00    -5840.00
04368           -1220.00    -5840.00
04369           -1220.00    -5840.00
04370           -1240.00    -5760.00
04371           -1220.00    -5760.00
04372           -1220.00    -5760.00
04373           -1180.00    -5680.00
04374           -1200.00    -5600.00
04375           -1200.00    -5600.00
04376           -1180.00    -5600.00
04377           -1180.00    -5600.00
04378           -1160.00    -5520.00
04379           -1180.00    -5440.00
04380           -1160.00    -5440.00
04381           -1160.00    -5440.00
04382           -1160.00    -5440.00
04383           -1160.00    -5440.00
04384           -1140.00    -5280.00
04385           -1120.00    -5280.00
04386           -1140.00    -5280.00
04387           -1100.00    -5280.00
04388           -1120.00    -5200.00
04389           -1100.00    -5120.00
04390           -1100.00    -5120.00
04391           -1100.00    -5120.00
04392           -1080.00    -5040.00
04393           -1080.00    -5120.00
04394           -1080.00    -4960.00
04395           -1060.00    -4960.00
04396           -1060.00    -4880.00
04397           -1060.00    -4880.00
04398           -1040.00    -4880.00
04399           -1020.00    -4800.00
04400           -1020.00    -4800.00
04401           -1020.00    -4800.00
04402           -1020.00    -4800.00
04403           -1000.00    -4640.00
04404           -1000.00    -4640.00
04405           -1000.00    -4560.00
04406           -1000.00    -4560.00
04407            -980.00    -4400.00
04408            -980.00    -4480.00
04409            -980.00    -4400.00
04410            -940.00    -4400.00
04411            -940.00    -4320.00
04412            -940.00    -4320.00
04413            -920.00    -4320.00
04414            -920.00    -4240.00
04415            -920.00    -4240.00
04416            -920.00    -4160.00
04417            -920.00    -4160.00
04418            -900.00    -4080.00
04419            -900.00    -4080.00
04420            -880.00    -4000.00
04421            -860.00    -4000.00
04422            -860.00    -4000.00
04423            -860.00    -3920.00
04424            -840.00    -3920.00
04425            -840.00    -3840.00
04426            -840.00    -3840.00
04427            -840.00    -3840.00
04428            -820.00    -3680.00
04429            -800.00    -3680.00
04430            -820.00    -3600.00
04431            -780.00    -3600.00
04432            -760.00    -3600.00
04433            -780.00    -3520.00
04434            -760.00    -3520.00
04435            -760.00    -3520.00
04436            -760.00    -3440.00
04437            -760.00    -3360.00
04438            -740.00    -3360.00
04439            -740.00    -3280.00
04440            -700.00    -3280.00
04441            -740.00    -3200.00
04442            -700.00    -3200.00
04443            -700.00    -3120.00
04444            -680.00    -3120.00
04445            -660.00    -3040.00
04446            -680.00    -3040.00
04447            -660.00    -2960.00
04448            -660.00    -2880.00
04449            -660.00    -2880.00
04450            -620.00    -2800.00
04451            -640.00    -2880.00
04452            -620.00    -2720.00
04453            -600.00    -2720.00
04454            -600.00    -2640.00
04455            -600.00    -2640.00
04456            -580.00    -2560.00
04457            -600.00    -2560.00
04458            -580.00    -2480.00
04459            -560.00    -2400.00
04460            -540.00    -2400.00
04461            -540.00    -2400.00
04462            -520.00    -2320.00
04463            -520.00    -2240.00
04464            -520.00    -2240.00
04465            -500.00    -2160.00
04466            -520.00    -2160.00
04467            -480.00    -2080.00
04468            -480.00    -2000.00
04469            -460.00    -2000.00
04470            -460.00    -1920.00
04471            -440.00    -1920.00
04472            -440.00    -1840.00
04473            -420.00    -1840.00
04474            -420.00    -1760.00
04475            -400.00    -1760.00
04476            -380.00    -1680.00
04477            -380.00    -1680.00
04478            -380.00    -1600.00
04479            -360.00    -1600.00
04480            -380.00    -1440.00
04481            -360.00    -1440.00
04482            -360.00    -1440.00
04483            -360.00    -1360.00
04484            -340.00    -1360.00
04485            -300.00    -1280.00
04486            -300.00    -1280.00
04487            -300.00    -1200.00
04488            -280.00    -1120.00
04489            -280.00    -1120.00
04490            -280.00    -1040.00
04491            -280.00    -1040.00
04492            -260.00     -960.00
04493            -260.00     -960.00
04494            -240.00     -880.00
04495            -220.00     -800.00
04496            -220.00     -800.00
04497            -200.00     -720.00
04498            -200.00     -640.00
04499            -200.00     -720.00
04500            -200.00     -640.00
04501            -180.00     -560.00
04502            -200.00     -480.00
04503            -160.00     -480.00
04504            -180.00     -400.00
04505            -140.00     -400.00
04506            -140.00     -320.00
04507            -120.00     -320.00
04508            -120.00     -160.00
04509            -100.00     -160.00
04510            -120.00     -160.00
04511            -100.00      -80.00
04512             -80.00      -80.00
04513             -60.00        0.00
04514             -60.00       80.00
04515             -60.00       80.00
04516             -40.00      160.00
04517             -40.00      160.00
04518             -20.00      240.00
04519             -20.00      240.00
04520             -20.00      240.00
04521              20.00      320.00
04522              20.00      400.00
04523              20.00      320.00
04524              40.00      560.00
04525              60.00      720.00
04526              60.00      560.00
04527             -20.00      560.00
04528              20.00      640.00
04529             120.00      880.00
04530             180.00      880.00
04531              60.00      720.00
04532             100.00      880.00
04533             200.00      960.00
04534             100.00      880.00
04535             100.00      960.00
04536             200.00     1120.00
04537             200.00     1120.00
04538             120.00     1040.00
04539             180.00     1200.00
04540             220.00     1280.00
04541             180.00     1280.00
04542             220.00     1440.00
04543             240.00     1440.00
04544             220.00     1360.00
04545             240.00     1520.00
04546             260.00     1520.00
04547             240.00     1520.00
04548             280.00     1680.00
04549             300.00     1600.00
04550             260.00     1680.00
04551             300.00     1760.00
04552             320.00     1840.00
04553             300.00     1760.00
04554             340.00     1920.00
04555             340.00     1920.00
04556             340.00     1920.00
04557             340.00     2000.00
04558             360.00     2080.00
04559             360.00     2160.00
04560             400.00     2160.00
04561             380.00     2240.00
04562             380.00     2240.00
04563             420.00     2240.00
04564             420.00     2320.00
04565             420.00     2400.00
04566             420.00     2400.00
04567             440.00     2480.00
04568             440.00     2480.00
04569             460.00     2560.00
04570             460.00     2560.00
04571             460.00     2720.00
04572             480.00     2720.00
04573             500.00     2800.00
04574             500.00     2800.00
04575             520.00     2800.00
04576             520.00     2880.00
04577             520.00     2880.00
04578             540.00     2960.00
04579             540.00     2960.00
04580             540.00     3120.00
04581             580.00     3120.00
04582             580.00     3120.00
04583             580.00     3280.00
04584             600.00     3280.00
04585             600.00     3280.00
04586             600.00     3360.00
04587             620.00     3360.00
04588             620.00     3440.00
04589             620.00     3360.00
04590             620.00     3520.00
04591             660.00     3520.00
04592             680.00     3520.00
04593             660.00     3600.00
04594             680.00     3680.00
04595             680.00     3680.00
04596             700.00     3680.00
04597             700.00     3760.00
04598             740.00     3840.00
04599             720.00     3840.00
04600             740.00     3840.00
04601             760.00     4000.00
04602             740.00     4000.00
04603             760.00     4000.00
04604             780.00     4080.00
04605             780.00     4000.00
04606             780.00     4160.00
04607             800.00     4160.00
04608             820.00     4160.00
04609             820.00     4160.00
04610             820.00     4320.00
04611             820.00     4320.00
04612             840.00     4400.00
04613             840.00     4400.00
04614             860.00     4400.00
04615             840.00     4480.00
04616             860.00     4480.00
04617             860.00     4480.00
04618             860.00     4560.00
04619             900.00     4640.00
04620             900.00     4640.00
04621             900.00     4640.00
04622             920.00     4720.00
04623             920.00     4720.00
04624             920.00     4800.00
04625             940.00     4880.00
04626             940.00     4800.00
04627             940.00     4960.00
04628             980.00     4960.00
04629             980.00     5040.00
04630             980.00     4960.00
04631             980.00     5040.00
04632            1000.00     5120.00
04633             980.00     5120.00
04634            1000.00     5120.00
04635            1000.00     5200.00
04636            1020.00     5280.00
04637            1000.00     5280.00
04638            1020.00     5280.00
04639            1020.00     5280.00
04640            1040.00     5360.00
04641            1060.00     5360.00
04642            1060.00     5440.00
04643            1060.00     5440.00
04644            1060.00     5520.00
04645            1060.00     5440.00
04646            1080.00     5520.00
04647            1080.00     5600.00
04648            1080.00     5680.00
04649            1100.00     5600.00
04650            1100.00     5680.00
04651            1100.00     5760.00
04652            1100.00     5760.00
04653            1140.00     5840.00
04654            1140.00     5840.00
04655            1140.00     5840.00
04656            1160.00     5920.00
04657            1160.00     5920.00
04658            1160.00     5920.00
04659            1160.00     6000.00
04660            1180.00     6000.00
04661            1180.00     6000.00
04662            1180.00     6000.00
04663            1180.00     6080.00
04664            1220.00     6080.00
04665            1220.00     6080.00
04666            1220.00     6160.00
04667            1220.00     6160.00
04668            1220.00     6240.00
04669            1220.00     6240.00
04670            1220.00     6240.00
04671            1240.00     6320.00
04672            1240.00     6320.00
04673            1260.00     6320.00
04674            1260.00     6320.00
04675            1260.00     6400.00
04676            1280.00     6400.00
04677            1300.00     6400.00
04678            1260.00     6400.00
04679            1300.00     6400.00
04680            1300.00     6560.00
04681            1300.00     6480.00
04682            1300.00     6560.00
04683            1300.00     6560.00
04684            1300.00     6640.00
04685            1320.00     6640.00
04686            1320.00     6640.00
04687            1320.00     6640.00
04688            1320.00     6640.00
04689            1320.00     6720.00
04690            1340.00     6720.00
04691            1340.00     6720.00
04692            1340.00     6720.00
04693            1340.00     6800.00
04694            1340.00     6800.00
04695            1340.00     6880.00
04696            1340.00     6800.00
04697            1360.00     6880.00
04698            1380.00     6880.00
04699            1380.00     6880.00
04700            1380.00     6880.00
04701            1380.00     6960.00
04702            1380.00     6960.00
04703            1400.00     6960.00
04704            1380.00     6960.00
04705            1400.00     7040.00
04706            1400.00     7040.00
04707            1400.00     7040.00
04708            1420.00     7040.00
04709            1420.00     7120.00
04710            1420.00     7040.00
04711            1420.00     7120.00
04712            1400.00     7120.00
04713            1420.00     7120.00
04714            1420.00     7200.00
04715            1420.00     7200.00
04716            1460.00     7200.00
04717            1440.00     7280.00
04718            1460.00     7200.00
04719            1420.00     7200.00
04720            1440.00     7280.00
04721            1460.00     7280.00
04722            1460.00     7280.00
04723            1460.00     7360.00
04724            1480.00     7280.00
04725            1480.00     7360.00
04726            1460.00     7280.00
04727            1480.00     7360.00
04728            1480.00     7360.00
04729            1480.00     7360.00
04730            1480.00     7360.00
04731            1480.00     7360.00
04732            1480.00     7440.00
04733            1500.00     7360.00
04734            1480.00     7440.00
04735            1480.00     7360.00
04736            1500.00     7360.00
04737            1500.00     7440.00
04738            1500.00     7440.00
04739            1500.00     7520.00
04740            1500.00     7520.00
04741            1500.00     7520.00
04742            1500.00     7520.00
04743            1540.00     7520.00
04744            1520.00     7520.00
04745            1500.00     7520.00
04746            1500.00     7520.00
04747            1500.00     7520.00
04748            1540.00     7520.00
04749            1540.00     7520.00
04750            1520.00     7520.00
04751            1520.00     7520.00
04752            1540.00     7520.00
04753            1540.00     7520.00
04754            1540.00     7600.00
04755            1540.00     7520.00
04756            1520.00     7520.00
04757            1520.00     7520.00
04758            1540.00     7600.00
04759            1540.00     7600.00
04760            1540.00     7520.00
04761            1540.00     7600.00
04762            1540.00     7600.00
04763            1520.00     7520.00
04764            1540.00     7600.00
04765            1500.00     7600.00
04766            1520.00     7520.00
04767            1540.00     7520.00
04768            1540.00     7600.00
04769            1500.00     7600.00
04770            1520.00     7520.00
04771            1540.00     7600.00
04772            1540.00     7520.00
04773            1540.00     7520.00
04774            1540.00     7520.00
04775            1540.00     7520.00
04776            1540.00     7520.00
04777            1540.00     7600.00
04778            1540.00     7520.00
04779            1500.00     7600.00
04780            1520.00     7520.00
04781            1540.00     7520.00
04782            1520.00     7520.00
04783            1520.00     7520.00
04784            1540.00     7600.00
04785            1500.00     7520.00
04786            1520.00     7520.00
04787            1520.00     7520.00
04788            1500.00     7520.00
04789            1500.00     7520.00
04790            1500.00     7520.00
04791            1520.00     7520.00
04792            1540.00     7520.00
04793            1500.00     7520.00
04794            1500.00     7520.00
04795            1540.00     7520.00
04796            1500.00     7520.00
04797            1520.00     7440.00
04798            1500.00     7360.00
04799            1540.00     7360.00
04800            1500.00     7360.00
04801            1500.00     7440.00
04802            1500.00     7360.00
04803            1500.00     7360.00
04804            1500.00     7360.00
04805            1500.00     7360.00
04806            1500.00     7360.00
04807            1500.00     7280.00
04808            1500.00     7360.00
04809            1480.00     7280.00
04810            1480.00     7280.00
04811            1480.00     7360.00
04812            1480.00     7280.00
04813            1500.00     7280.00
04814            1480.00     7200.00
04815            1480.00     7200.00
04816            1480.00     7200.00
04817            1460.00     7200.00
04818            1480.00     7200.00
04819            1460.00     7200.00
04820            1480.00     7200.00
04821            1460.00     7040.00
04822            1460.00     7120.00
04823            1460.00     7040.00
04824            1420.00     7120.00
04825            1460.00     7040.00
04826            1420.00     7040.00
04827            1460.00     7040.00
04828            1420.00     6960.00
04829            1420.00     6960.00
04830            1420.00     6960.00
04831            1420.00     6960.00
04832            1420.00     6960.00
04833            1420.00     6960.00
04834            1420.00     6960.00
04835            1400.00     6880.00
04836            1400.00     6880.00
04837            1400.00     6880.00
04838            1400.00     6800.00
04839            1400.00     6800.00
04840            1400.00     6720.00
04841            1380.00     6800.00
04842            1400.00     6720.00
04843            1380.00     6720.00
04844            1380.00     6640.00
04845            1380.00     6720.00
04846            1380.00     6720.00
04847            1340.00     6640.00
04848            1340.00     6560.00
04849            1340.00     6640.00
04850            1340.00     6560.00
04851            1360.00     6560.00
04852            1320.00     6560.00
04853            1340.00     6560.00
04854            1340.00     6480.00
04855            1320.00     6480.00
04856            1340.00     6400.00
04857            1320.00     6400.00
04858            1320.00     6400.00
04859            1320.00     6400.00
04860            1300.00     6320.00
04861            1300.00     6320.00
04862            1300.00     6320.00
04863            1300.00     6240.00
04864            1300.00     6240.00
04865            1300.00     6240.00
04866            1280.00     6240.00
04867            1260.00     6160.00
04868            1300.00     6160.00
04869            1260.00     6080.00
04870            1260.00     6080.00
04871            1240.00     6000.00
04872            1240.00     6000.00
04873            1240.00     6000.00
04874            1240.00     6000.00
04875            1240.00     5920.00
04876            1220.00     5920.00
04877            1220.00     5920.00
04878            1220.00     5840.00
04879            1220.00     5840.00
04880            1220.00     5760.00
04881            1200.00     5760.00
04882            1180.00     5680.00
04883            1180.00     5680.00
04884            1180.00     5680.00
04885            1180.00     5680.00
04886            1160.00     5600.00
04887            1160.00     5600.00
04888            1160.00     5520.00
04889            1160.00     5520.00
04890            1140.00     5440.00
04891            1140.00     5440.00
04892            1100.00     5360.00
04893            1120.00     5360.00
04894            1100.00     5360.00
04895            1100.00     5280.00
04896            1100.00     5280.00
04897            1080.00     5280.00
04898            1080.00     5280.00
04899            1060.00     5120.00
04900            1080.00     5120.00
04901            1060.00     5120.00
04902            1060.00     5040.00
04903            1060.00     5040.00
04904            1060.00     4960.00
04905            1020.00     4960.00
04906            1020.00     4960.00
04907            1000.00     4960.00
04908            1020.00     4880.00
04909            1000.00     4800.00
04910            1000.00     4800.00
04911            1000.00     4800.00
04912             980.00     4800.00
04913             980.00     4640.00
04914             980.00     4640.00
04915             980.00     4640.00
04916             940.00     4640.00
04917             980.00     4480.00
04918             940.00     4480.00
04919             940.00     4400.00
04920             920.00     4480.00
04921             940.00     4400.00
04922             920.00     4320.00
04923             900.00     4320.00
04924             920.00     4320.00
04925             900.00     4240.00
04926             900.00     4160.00
04927             860.00     4160.00
04928             860.00     4080.00
04929             880.00     4080.00
04930             860.00     4000.00
04931             840.00     4000.00
04932             840.00     4000.00
04933             840.00     3840.00
04934             840.00     3840.00
04935             820.00     3840.00
04936             820.00     3760.00
04937             820.00     3760.00
04938             780.00     3680.00
04939             780.00     3680.00
04940             780.00     3600.00
04941             760.00     3600.00
04942             760.00     3520.00
04943             760.00     3520.00
04944             760.00     3520.00
04945             740.00     3440.00
04946             740.00     3360.00
04947             740.00     3360.00
04948             720.00     3360.00
04949             700.00     3280.00
04950             700.00     3200.00
04951             680.00     3200.00
04952             680.00     3120.00
04953             680.00     3040.00
04954             660.00     3040.00
04955             660.00     3040.00
04956             660.00     3040.00
04957             620.00     2960.00
04958             620.00     2880.00
04959             600.00     2880.00
04960             600.00     2800.00
04961             600.00     2800.00
04962             600.00     2720.00
04963             580.00     2640.00
04964             580.00     2640.00
04965             580.00     2560.00
04966             580.00     2560.00
04967             540.00     2560.00
04968             540.00     2480.00
04969             520.00     2400.00
04970             520.00     2400.00
04971             500.00     2400.00
04972             500.00     2320.00
04973             460.00     2240.00
04974             500.00     2240.00
04975             460.00     2160.00
04976             460.00     2160.00
04977             440.00     2000.00
04978             440.00     1920.00
04979             440.00     2000.00
04980             420.00     1920.00
04981             420.00     1920.00
04982             420.00     1840.00
04983             420.00     1760.00
04984             380.00     1760.00
04985             400.00     1760.00
04986             380.00     1680.00
04987             360.00     1600.00
04988             360.00     1520.00
04989             360.00     1520.00
04990             340.00     1440.00
04991             340.00     1440.00
04992             340.00     1440.00
04993             300.00     1440.00
04994             300.00     1280.00
04995             300.00     1280.00
04996             280.00     1280.00
04997             280.00     1200.00
04998             280.00     1120.00
04999             260.00     1120.00
05000             260.00     1120.00
