Unit:(mV)
                     CH1         CH2
Frequency              ?  98.382 kHz
00001             340.00    -2320.00
00002             340.00    -2400.00
00003             360.00    -2400.00
00004             360.00    -2400.00
00005             360.00    -2560.00
00006             360.00    -2560.00
00007             380.00    -2560.00
00008             380.00    -2640.00
00009             400.00    -2640.00
00010             380.00    -2640.00
00011             420.00    -2720.00
00012             400.00    -2720.00
00013             420.00    -2720.00
00014             420.00    -2880.00
00015             420.00    -2880.00
00016             440.00    -2880.00
00017             440.00    -2880.00
00018             460.00    -2960.00
00019             440.00    -2960.00
00020             440.00    -3040.00
00021             460.00    -3040.00
00022             480.00    -3120.00
00023             460.00    -3120.00
00024             500.00    -3120.00
00025             500.00    -3200.00
00026             520.00    -3280.00
00027             520.00    -3280.00
00028             520.00    -3280.00
00029             540.00    -3280.00
00030             540.00    -3280.00
00031             540.00    -3360.00
00032             540.00    -3360.00
00033             560.00    -3360.00
00034             540.00    -3520.00
00035             580.00    -3520.00
00036             580.00    -3520.00
00037             580.00    -3520.00
00038             600.00    -3600.00
00039             580.00    -3600.00
00040             600.00    -3680.00
00041             600.00    -3680.00
00042             620.00    -3680.00
00043             620.00    -3760.00
00044             620.00    -3680.00
00045             620.00    -3840.00
00046             660.00    -3840.00
00047             660.00    -3920.00
00048             660.00    -3920.00
00049             660.00    -3920.00
00050             680.00    -3920.00
00051             660.00    -4000.00
00052             660.00    -4000.00
00053             660.00    -4000.00
00054             680.00    -4080.00
00055             680.00    -4080.00
00056             680.00    -4160.00
00057             700.00    -4160.00
00058             700.00    -4160.00
00059             720.00    -4240.00
00060             720.00    -4320.00
00061             720.00    -4240.00
00062             740.00    -4240.00
00063             740.00    -4320.00
00064             740.00    -4320.00
00065             740.00    -4320.00
00066             740.00    -4480.00
00067             760.00    -4400.00
00068             760.00    -4480.00
00069             760.00    -4480.00
00070             760.00    -4560.00
00071             780.00    -4560.00
00072             760.00    -4560.00
00073             780.00    -4560.00
00074             780.00    -4560.00
00075             780.00    -4640.00
00076             780.00    -4640.00
00077             800.00    -4720.00
00078             820.00    -4720.00
00079             820.00    -4800.00
00080             820.00    -4800.00
00081             840.00    -4800.00
00082             840.00    -4800.00
00083             820.00    -4880.00
00084             840.00    -4880.00
00085             840.00    -4880.00
00086             840.00    -4880.00
00087             840.00    -4960.00
00088             840.00    -4960.00
00089             860.00    -4960.00
00090             860.00    -4960.00
00091             860.00    -5040.00
00092             860.00    -5040.00
00093             880.00    -5120.00
00094             860.00    -5120.00
00095             900.00    -5120.00
00096             900.00    -5120.00
00097             900.00    -5120.00
00098             920.00    -5200.00
00099             920.00    -5200.00
00100             920.00    -5200.00
00101             900.00    -5280.00
00102             920.00    -5280.00
00103             920.00    -5280.00
00104             920.00    -5280.00
00105             940.00    -5280.00
00106             920.00    -5280.00
00107             940.00    -5360.00
00108             940.00    -5280.00
00109             940.00    -5440.00
00110             960.00    -5360.00
00111             980.00    -5440.00
00112             980.00    -5520.00
00113             980.00    -5440.00
00114             980.00    -5520.00
00115             980.00    -5440.00
00116             980.00    -5520.00
00117             980.00    -5520.00
00118             980.00    -5520.00
00119            1000.00    -5600.00
00120            1000.00    -5600.00
00121            1000.00    -5600.00
00122            1000.00    -5600.00
00123            1000.00    -5600.00
00124            1000.00    -5600.00
00125            1000.00    -5680.00
00126            1020.00    -5760.00
00127            1020.00    -5680.00
00128            1040.00    -5760.00
00129            1020.00    -5760.00
00130            1020.00    -5760.00
00131            1020.00    -5760.00
00132            1020.00    -5760.00
00133            1020.00    -5840.00
00134            1020.00    -5760.00
00135            1060.00    -5760.00
00136            1040.00    -5840.00
00137            1040.00    -5840.00
00138            1060.00    -5840.00
00139            1060.00    -5840.00
00140            1060.00    -5840.00
00141            1060.00    -5840.00
00142            1060.00    -5920.00
00143            1060.00    -5920.00
00144            1080.00    -5920.00
00145            1060.00    -5920.00
00146            1060.00    -5920.00
00147            1060.00    -5920.00
00148            1080.00    -5920.00
00149            1080.00    -6000.00
00150            1080.00    -5920.00
00151            1080.00    -5920.00
00152            1080.00    -5920.00
00153            1080.00    -5920.00
00154            1080.00    -6080.00
00155            1080.00    -6000.00
00156            1080.00    -6080.00
00157            1080.00    -6000.00
00158            1100.00    -6080.00
00159            1100.00    -6080.00
00160            1100.00    -6080.00
00161            1100.00    -6080.00
00162            1140.00    -6080.00
00163            1100.00    -6080.00
00164            1100.00    -6080.00
00165            1100.00    -6080.00
00166            1100.00    -6080.00
00167            1100.00    -6160.00
00168            1100.00    -6080.00
00169            1120.00    -6080.00
00170            1140.00    -6160.00
00171            1140.00    -6080.00
00172            1140.00    -6160.00
00173            1140.00    -6160.00
00174            1140.00    -6080.00
00175            1140.00    -6160.00
00176            1140.00    -6080.00
00177            1140.00    -6160.00
00178            1140.00    -6160.00
00179            1140.00    -6080.00
00180            1140.00    -6080.00
00181            1140.00    -6160.00
00182            1140.00    -6160.00
00183            1160.00    -6160.00
00184            1160.00    -6160.00
00185            1140.00    -6160.00
00186            1160.00    -6160.00
00187            1160.00    -6160.00
00188            1160.00    -6160.00
00189            1160.00    -6160.00
00190            1160.00    -6160.00
00191            1160.00    -6160.00
00192            1160.00    -6160.00
00193            1140.00    -6160.00
00194            1160.00    -6240.00
00195            1160.00    -6160.00
00196            1160.00    -6240.00
00197            1140.00    -6160.00
00198            1160.00    -6240.00
00199            1160.00    -6160.00
00200            1160.00    -6160.00
00201            1160.00    -6240.00
00202            1160.00    -6160.00
00203            1160.00    -6080.00
00204            1160.00    -6080.00
00205            1160.00    -6080.00
00206            1160.00    -6080.00
00207            1160.00    -6080.00
00208            1140.00    -6160.00
00209            1160.00    -6160.00
00210            1140.00    -6080.00
00211            1160.00    -6080.00
00212            1140.00    -6080.00
00213            1140.00    -6080.00
00214            1160.00    -6080.00
00215            1160.00    -6080.00
00216            1140.00    -6160.00
00217            1160.00    -6080.00
00218            1140.00    -6080.00
00219            1160.00    -6080.00
00220            1160.00    -6080.00
00221            1140.00    -6080.00
00222            1140.00    -6080.00
00223            1160.00    -6000.00
00224            1140.00    -6080.00
00225            1140.00    -6000.00
00226            1140.00    -6000.00
00227            1140.00    -5920.00
00228            1140.00    -6000.00
00229            1140.00    -6000.00
00230            1140.00    -5920.00
00231            1140.00    -5920.00
00232            1140.00    -5920.00
00233            1140.00    -5920.00
00234            1140.00    -5920.00
00235            1140.00    -5920.00
00236            1140.00    -5920.00
00237            1140.00    -5920.00
00238            1120.00    -5920.00
00239            1140.00    -5920.00
00240            1140.00    -5920.00
00241            1100.00    -5840.00
00242            1140.00    -5920.00
00243            1140.00    -5840.00
00244            1140.00    -5920.00
00245            1140.00    -5760.00
00246            1120.00    -5840.00
00247            1100.00    -5760.00
00248            1120.00    -5760.00
00249            1100.00    -5760.00
00250            1100.00    -5760.00
00251            1100.00    -5760.00
00252            1100.00    -5760.00
00253            1100.00    -5600.00
00254            1080.00    -5680.00
00255            1080.00    -5680.00
00256            1100.00    -5600.00
00257            1100.00    -5680.00
00258            1080.00    -5600.00
00259            1080.00    -5600.00
00260            1100.00    -5600.00
00261            1080.00    -5520.00
00262            1080.00    -5520.00
00263            1080.00    -5520.00
00264            1060.00    -5520.00
00265            1080.00    -5520.00
00266            1060.00    -5520.00
00267            1060.00    -5440.00
00268            1060.00    -5440.00
00269            1060.00    -5440.00
00270            1060.00    -5440.00
00271            1060.00    -5440.00
00272            1060.00    -5360.00
00273            1060.00    -5280.00
00274            1040.00    -5360.00
00275            1040.00    -5280.00
00276            1020.00    -5280.00
00277            1040.00    -5280.00
00278            1040.00    -5280.00
00279            1060.00    -5280.00
00280            1020.00    -5200.00
00281            1020.00    -5280.00
00282            1020.00    -5200.00
00283            1020.00    -5200.00
00284            1000.00    -5120.00
00285            1020.00    -5120.00
00286            1000.00    -5120.00
00287            1000.00    -5040.00
00288            1000.00    -5120.00
00289             980.00    -5040.00
00290            1000.00    -4960.00
00291            1000.00    -5040.00
00292            1000.00    -4960.00
00293             980.00    -4960.00
00294             980.00    -4880.00
00295             980.00    -4960.00
00296             980.00    -4880.00
00297             980.00    -4880.00
00298             980.00    -4800.00
00299             980.00    -4800.00
00300             940.00    -4800.00
00301             940.00    -4800.00
00302             960.00    -4720.00
00303             940.00    -4720.00
00304             940.00    -4800.00
00305             920.00    -4640.00
00306             940.00    -4640.00
00307             920.00    -4640.00
00308             940.00    -4560.00
00309             920.00    -4560.00
00310             920.00    -4560.00
00311             900.00    -4480.00
00312             900.00    -4400.00
00313             900.00    -4480.00
00314             900.00    -4400.00
00315             900.00    -4320.00
00316             900.00    -4400.00
00317             900.00    -4320.00
00318             900.00    -4320.00
00319             900.00    -4240.00
00320             860.00    -4240.00
00321             900.00    -4240.00
00322             860.00    -4320.00
00323             860.00    -4160.00
00324             840.00    -4160.00
00325             860.00    -4160.00
00326             860.00    -4080.00
00327             840.00    -4000.00
00328             840.00    -4000.00
00329             840.00    -4000.00
00330             820.00    -4000.00
00331             800.00    -3920.00
00332             820.00    -3920.00
00333             820.00    -3920.00
00334             820.00    -3840.00
00335             820.00    -3840.00
00336             780.00    -3840.00
00337             800.00    -3760.00
00338             760.00    -3760.00
00339             780.00    -3680.00
00340             780.00    -3680.00
00341             760.00    -3680.00
00342             760.00    -3600.00
00343             740.00    -3680.00
00344             760.00    -3600.00
00345             740.00    -3520.00
00346             760.00    -3520.00
00347             740.00    -3520.00
00348             740.00    -3440.00
00349             740.00    -3440.00
00350             700.00    -3360.00
00351             700.00    -3360.00
00352             700.00    -3280.00
00353             700.00    -3360.00
00354             700.00    -3280.00
00355             680.00    -3200.00
00356             680.00    -3200.00
00357             680.00    -3200.00
00358             680.00    -3120.00
00359             680.00    -3200.00
00360             660.00    -3040.00
00361             660.00    -3040.00
00362             680.00    -2960.00
00363             660.00    -2960.00
00364             620.00    -2880.00
00365             620.00    -2880.00
00366             640.00    -2880.00
00367             620.00    -2880.00
00368             620.00    -2720.00
00369             620.00    -2720.00
00370             600.00    -2720.00
00371             600.00    -2720.00
00372             600.00    -2720.00
00373             580.00    -2640.00
00374             600.00    -2560.00
00375             580.00    -2560.00
00376             580.00    -2560.00
00377             580.00    -2480.00
00378             580.00    -2400.00
00379             540.00    -2400.00
00380             540.00    -2400.00
00381             540.00    -2320.00
00382             520.00    -2320.00
00383             520.00    -2320.00
00384             520.00    -2240.00
00385             520.00    -2240.00
00386             520.00    -2240.00
00387             520.00    -2160.00
00388             500.00    -2080.00
00389             500.00    -2080.00
00390             500.00    -2000.00
00391             460.00    -2000.00
00392             460.00    -2000.00
00393             460.00    -1840.00
00394             440.00    -1840.00
00395             440.00    -1840.00
00396             440.00    -1760.00
00397             420.00    -1760.00
00398             420.00    -1760.00
00399             420.00    -1680.00
00400             420.00    -1600.00
00401             420.00    -1680.00
00402             420.00    -1600.00
00403             380.00    -1600.00
00404             380.00    -1520.00
00405             360.00    -1440.00
00406             380.00    -1440.00
00407             360.00    -1440.00
00408             360.00    -1360.00
00409             340.00    -1360.00
00410             360.00    -1280.00
00411             340.00    -1360.00
00412             340.00    -1280.00
00413             340.00    -1280.00
00414             300.00    -1120.00
00415             300.00    -1120.00
00416             300.00    -1040.00
00417             280.00    -1120.00
00418             280.00    -1040.00
00419             280.00     -960.00
00420             280.00     -960.00
00421             280.00     -880.00
00422             280.00     -880.00
00423             260.00     -800.00
00424             260.00     -800.00
00425             260.00     -800.00
00426             240.00     -720.00
00427             260.00     -720.00
00428             220.00     -640.00
00429             220.00     -640.00
00430             220.00     -640.00
00431             200.00     -560.00
00432             200.00     -480.00
00433             200.00     -400.00
00434             200.00     -400.00
00435             180.00     -400.00
00436             180.00     -320.00
00437             180.00     -320.00
00438             160.00     -160.00
00439             160.00     -240.00
00440             140.00     -160.00
00441             140.00     -160.00
00442             140.00      -80.00
00443             120.00      -80.00
00444             120.00      -80.00
00445             120.00        0.00
00446             100.00       80.00
00447             120.00        0.00
00448             100.00       80.00
00449             100.00      160.00
00450              60.00      160.00
00451              80.00      240.00
00452              60.00      240.00
00453              40.00      240.00
00454              40.00      320.00
00455              40.00      320.00
00456              40.00      400.00
00457              60.00      480.00
00458              40.00      560.00
00459               0.00      560.00
00460             -40.00      480.00
00461             -20.00      640.00
00462              20.00      800.00
00463             -20.00      720.00
00464             -60.00      560.00
00465             -40.00      880.00
00466               0.00      880.00
00467             -60.00      800.00
00468             -60.00      880.00
00469             -40.00     1120.00
00470             -60.00      960.00
00471            -100.00      880.00
00472             -80.00     1120.00
00473            -100.00     1120.00
00474            -120.00     1120.00
00475            -120.00     1200.00
00476            -100.00     1200.00
00477            -140.00     1200.00
00478            -120.00     1280.00
00479            -140.00     1280.00
00480            -160.00     1280.00
00481            -140.00     1440.00
00482            -160.00     1360.00
00483            -200.00     1440.00
00484            -140.00     1520.00
00485            -180.00     1520.00
00486            -200.00     1520.00
00487            -200.00     1600.00
00488            -200.00     1600.00
00489            -200.00     1760.00
00490            -200.00     1760.00
00491            -220.00     1760.00
00492            -220.00     1760.00
00493            -220.00     1840.00
00494            -240.00     1840.00
00495            -260.00     1920.00
00496            -260.00     1920.00
00497            -260.00     1920.00
00498            -280.00     2080.00
00499            -260.00     2000.00
00500            -280.00     2080.00
00501            -280.00     2160.00
00502            -300.00     2160.00
00503            -280.00     2160.00
00504            -300.00     2240.00
00505            -300.00     2240.00
00506            -300.00     2400.00
00507            -340.00     2400.00
00508            -320.00     2400.00
00509            -340.00     2400.00
00510            -360.00     2480.00
00511            -360.00     2480.00
00512            -360.00     2560.00
00513            -380.00     2560.00
00514            -380.00     2640.00
00515            -380.00     2560.00
00516            -380.00     2720.00
00517            -380.00     2720.00
00518            -380.00     2720.00
00519            -420.00     2800.00
00520            -420.00     2720.00
00521            -440.00     2800.00
00522            -420.00     2880.00
00523            -440.00     2880.00
00524            -440.00     2880.00
00525            -440.00     2960.00
00526            -460.00     3040.00
00527            -460.00     3120.00
00528            -460.00     3120.00
00529            -460.00     3120.00
00530            -480.00     3120.00
00531            -500.00     3200.00
00532            -500.00     3280.00
00533            -520.00     3280.00
00534            -500.00     3360.00
00535            -520.00     3360.00
00536            -520.00     3360.00
00537            -520.00     3360.00
00538            -540.00     3440.00
00539            -540.00     3440.00
00540            -540.00     3520.00
00541            -560.00     3520.00
00542            -560.00     3520.00
00543            -580.00     3520.00
00544            -600.00     3600.00
00545            -580.00     3680.00
00546            -600.00     3680.00
00547            -600.00     3680.00
00548            -600.00     3680.00
00549            -620.00     3760.00
00550            -600.00     3840.00
00551            -620.00     3840.00
00552            -620.00     3840.00
00553            -620.00     3840.00
00554            -620.00     3920.00
00555            -660.00     3840.00
00556            -660.00     4000.00
00557            -660.00     4000.00
00558            -640.00     4080.00
00559            -680.00     4080.00
00560            -660.00     4160.00
00561            -660.00     4080.00
00562            -680.00     4160.00
00563            -680.00     4160.00
00564            -680.00     4240.00
00565            -680.00     4240.00
00566            -700.00     4320.00
00567            -700.00     4240.00
00568            -700.00     4320.00
00569            -740.00     4320.00
00570            -720.00     4400.00
00571            -740.00     4400.00
00572            -740.00     4480.00
00573            -740.00     4480.00
00574            -740.00     4480.00
00575            -760.00     4480.00
00576            -760.00     4560.00
00577            -760.00     4560.00
00578            -760.00     4640.00
00579            -760.00     4640.00
00580            -780.00     4720.00
00581            -780.00     4720.00
00582            -780.00     4720.00
00583            -780.00     4720.00
00584            -780.00     4800.00
00585            -800.00     4800.00
00586            -820.00     4800.00
00587            -820.00     4800.00
00588            -840.00     4880.00
00589            -840.00     4880.00
00590            -840.00     4880.00
00591            -860.00     4960.00
00592            -860.00     4960.00
00593            -860.00     4960.00
00594            -860.00     4960.00
00595            -860.00     5040.00
00596            -860.00     5040.00
00597            -860.00     5040.00
00598            -860.00     5120.00
00599            -880.00     5040.00
00600            -880.00     5120.00
00601            -900.00     5120.00
00602            -900.00     5200.00
00603            -900.00     5120.00
00604            -900.00     5200.00
00605            -920.00     5280.00
00606            -920.00     5280.00
00607            -920.00     5280.00
00608            -920.00     5280.00
00609            -920.00     5280.00
00610            -920.00     5280.00
00611            -920.00     5360.00
00612            -940.00     5440.00
00613            -920.00     5440.00
00614            -940.00     5360.00
00615            -940.00     5440.00
00616            -940.00     5440.00
00617            -960.00     5440.00
00618            -940.00     5520.00
00619            -940.00     5600.00
00620            -980.00     5520.00
00621            -960.00     5600.00
00622            -980.00     5520.00
00623            -980.00     5600.00
00624           -1000.00     5600.00
00625            -980.00     5600.00
00626            -980.00     5680.00
00627           -1000.00     5600.00
00628           -1000.00     5680.00
00629           -1000.00     5680.00
00630           -1000.00     5760.00
00631           -1000.00     5680.00
00632           -1000.00     5760.00
00633           -1000.00     5760.00
00634           -1020.00     5760.00
00635           -1020.00     5840.00
00636           -1020.00     5840.00
00637           -1020.00     5920.00
00638           -1020.00     5840.00
00639           -1020.00     5920.00
00640           -1020.00     5840.00
00641           -1020.00     5920.00
00642           -1040.00     5920.00
00643           -1020.00     5920.00
00644           -1020.00     5920.00
00645           -1040.00     6000.00
00646           -1040.00     5920.00
00647           -1060.00     5920.00
00648           -1060.00     6000.00
00649           -1060.00     5920.00
00650           -1060.00     6000.00
00651           -1060.00     6000.00
00652           -1060.00     6000.00
00653           -1080.00     6080.00
00654           -1080.00     6000.00
00655           -1080.00     6000.00
00656           -1080.00     6080.00
00657           -1100.00     6080.00
00658           -1080.00     6080.00
00659           -1080.00     6080.00
00660           -1080.00     6080.00
00661           -1080.00     6080.00
00662           -1100.00     6080.00
00663           -1100.00     6080.00
00664           -1100.00     6160.00
00665           -1100.00     6080.00
00666           -1100.00     6080.00
00667           -1100.00     6080.00
00668           -1100.00     6240.00
00669           -1100.00     6160.00
00670           -1140.00     6240.00
00671           -1120.00     6160.00
00672           -1120.00     6080.00
00673           -1100.00     6160.00
00674           -1120.00     6240.00
00675           -1140.00     6240.00
00676           -1120.00     6240.00
00677           -1140.00     6240.00
00678           -1120.00     6240.00
00679           -1140.00     6240.00
00680           -1120.00     6240.00
00681           -1140.00     6240.00
00682           -1140.00     6240.00
00683           -1140.00     6240.00
00684           -1120.00     6240.00
00685           -1140.00     6240.00
00686           -1140.00     6240.00
00687           -1140.00     6320.00
00688           -1160.00     6240.00
00689           -1140.00     6240.00
00690           -1140.00     6320.00
00691           -1140.00     6240.00
00692           -1140.00     6320.00
00693           -1140.00     6240.00
00694           -1140.00     6320.00
00695           -1140.00     6240.00
00696           -1140.00     6240.00
00697           -1140.00     6240.00
00698           -1140.00     6240.00
00699           -1160.00     6240.00
00700           -1140.00     6240.00
00701           -1140.00     6240.00
00702           -1140.00     6320.00
00703           -1140.00     6240.00
00704           -1160.00     6320.00
00705           -1140.00     6240.00
00706           -1140.00     6240.00
00707           -1140.00     6240.00
00708           -1140.00     6240.00
00709           -1140.00     6240.00
00710           -1160.00     6240.00
00711           -1160.00     6240.00
00712           -1140.00     6240.00
00713           -1160.00     6240.00
00714           -1160.00     6240.00
00715           -1140.00     6240.00
00716           -1140.00     6240.00
00717           -1160.00     6240.00
00718           -1140.00     6240.00
00719           -1140.00     6240.00
00720           -1160.00     6240.00
00721           -1160.00     6240.00
00722           -1160.00     6240.00
00723           -1160.00     6240.00
00724           -1160.00     6160.00
00725           -1160.00     6240.00
00726           -1140.00     6240.00
00727           -1160.00     6160.00
00728           -1140.00     6160.00
00729           -1140.00     6160.00
00730           -1140.00     6160.00
00731           -1140.00     6080.00
00732           -1160.00     6160.00
00733           -1140.00     6080.00
00734           -1160.00     6080.00
00735           -1140.00     6080.00
00736           -1140.00     6080.00
00737           -1140.00     6080.00
00738           -1140.00     6080.00
00739           -1140.00     6080.00
00740           -1140.00     6000.00
00741           -1140.00     6000.00
00742           -1140.00     6000.00
00743           -1140.00     6080.00
00744           -1140.00     6000.00
00745           -1120.00     6000.00
00746           -1140.00     6000.00
00747           -1100.00     5920.00
00748           -1140.00     5920.00
00749           -1120.00     5920.00
00750           -1100.00     5920.00
00751           -1100.00     5920.00
00752           -1100.00     5920.00
00753           -1100.00     5920.00
00754           -1120.00     5920.00
00755           -1100.00     5920.00
00756           -1100.00     5920.00
00757           -1100.00     5840.00
00758           -1100.00     5760.00
00759           -1100.00     5840.00
00760           -1100.00     5840.00
00761           -1100.00     5840.00
00762           -1080.00     5760.00
00763           -1100.00     5760.00
00764           -1080.00     5760.00
00765           -1080.00     5680.00
00766           -1080.00     5680.00
00767           -1080.00     5680.00
00768           -1080.00     5760.00
00769           -1080.00     5680.00
00770           -1080.00     5680.00
00771           -1080.00     5600.00
00772           -1060.00     5600.00
00773           -1080.00     5600.00
00774           -1060.00     5600.00
00775           -1080.00     5600.00
00776           -1060.00     5600.00
00777           -1060.00     5520.00
00778           -1060.00     5440.00
00779           -1060.00     5440.00
00780           -1040.00     5440.00
00781           -1040.00     5440.00
00782           -1040.00     5360.00
00783           -1060.00     5440.00
00784           -1060.00     5360.00
00785           -1040.00     5360.00
00786           -1040.00     5360.00
00787           -1020.00     5280.00
00788           -1020.00     5280.00
00789           -1020.00     5280.00
00790           -1020.00     5280.00
00791           -1020.00     5280.00
00792           -1020.00     5280.00
00793           -1020.00     5280.00
00794           -1020.00     5120.00
00795           -1000.00     5200.00
00796           -1000.00     5120.00
00797           -1000.00     5120.00
00798           -1020.00     5120.00
00799           -1000.00     5040.00
00800           -1000.00     5040.00
00801            -980.00     5040.00
00802           -1000.00     5040.00
00803           -1000.00     4960.00
00804            -980.00     4960.00
00805            -980.00     4960.00
00806            -980.00     4960.00
00807            -980.00     4960.00
00808            -940.00     4960.00
00809            -980.00     4880.00
00810            -960.00     4880.00
00811            -940.00     4800.00
00812            -940.00     4800.00
00813            -940.00     4720.00
00814            -940.00     4800.00
00815            -920.00     4720.00
00816            -920.00     4720.00
00817            -920.00     4720.00
00818            -920.00     4640.00
00819            -920.00     4640.00
00820            -920.00     4480.00
00821            -920.00     4560.00
00822            -900.00     4560.00
00823            -900.00     4480.00
00824            -900.00     4480.00
00825            -880.00     4400.00
00826            -860.00     4400.00
00827            -900.00     4400.00
00828            -860.00     4320.00
00829            -860.00     4320.00
00830            -860.00     4320.00
00831            -860.00     4320.00
00832            -860.00     4240.00
00833            -840.00     4160.00
00834            -840.00     4240.00
00835            -840.00     4160.00
00836            -860.00     4080.00
00837            -840.00     4080.00
00838            -840.00     4080.00
00839            -820.00     4080.00
00840            -820.00     4080.00
00841            -820.00     4000.00
00842            -800.00     4000.00
00843            -800.00     3920.00
00844            -820.00     3840.00
00845            -780.00     3920.00
00846            -780.00     3840.00
00847            -780.00     3760.00
00848            -760.00     3840.00
00849            -760.00     3760.00
00850            -760.00     3760.00
00851            -760.00     3680.00
00852            -760.00     3680.00
00853            -760.00     3680.00
00854            -760.00     3600.00
00855            -760.00     3520.00
00856            -740.00     3520.00
00857            -740.00     3520.00
00858            -740.00     3440.00
00859            -740.00     3440.00
00860            -740.00     3360.00
00861            -700.00     3440.00
00862            -700.00     3360.00
00863            -700.00     3360.00
00864            -700.00     3360.00
00865            -680.00     3200.00
00866            -680.00     3280.00
00867            -680.00     3200.00
00868            -680.00     3200.00
00869            -680.00     3120.00
00870            -680.00     3120.00
00871            -660.00     3040.00
00872            -660.00     3040.00
00873            -660.00     3040.00
00874            -620.00     2960.00
00875            -640.00     2880.00
00876            -620.00     2880.00
00877            -620.00     2880.00
00878            -620.00     2800.00
00879            -620.00     2800.00
00880            -600.00     2720.00
00881            -580.00     2800.00
00882            -580.00     2720.00
00883            -580.00     2720.00
00884            -580.00     2560.00
00885            -580.00     2560.00
00886            -580.00     2560.00
00887            -540.00     2480.00
00888            -540.00     2560.00
00889            -540.00     2400.00
00890            -540.00     2480.00
00891            -520.00     2400.00
00892            -520.00     2400.00
00893            -520.00     2240.00
00894            -500.00     2240.00
00895            -500.00     2240.00
00896            -500.00     2240.00
00897            -500.00     2160.00
00898            -500.00     2160.00
00899            -480.00     2080.00
00900            -440.00     2080.00
00901            -460.00     2000.00
00902            -440.00     1920.00
00903            -440.00     1920.00
00904            -440.00     1920.00
00905            -440.00     1840.00
00906            -440.00     1840.00
00907            -420.00     1760.00
00908            -420.00     1760.00
00909            -420.00     1600.00
00910            -400.00     1680.00
00911            -420.00     1600.00
00912            -380.00     1600.00
00913            -380.00     1600.00
00914            -380.00     1520.00
00915            -380.00     1520.00
00916            -380.00     1440.00
00917            -360.00     1440.00
00918            -360.00     1440.00
00919            -360.00     1360.00
00920            -360.00     1280.00
00921            -340.00     1280.00
00922            -300.00     1200.00
00923            -340.00     1200.00
00924            -320.00     1200.00
00925            -300.00     1120.00
00926            -300.00     1120.00
00927            -280.00     1040.00
00928            -300.00     1040.00
00929            -280.00      960.00
00930            -280.00      960.00
00931            -280.00      880.00
00932            -260.00      880.00
00933            -260.00      800.00
00934            -260.00      800.00
00935            -240.00      800.00
00936            -220.00      720.00
00937            -220.00      640.00
00938            -220.00      720.00
00939            -200.00      560.00
00940            -220.00      640.00
00941            -200.00      560.00
00942            -180.00      480.00
00943            -180.00      480.00
00944            -180.00      320.00
00945            -160.00      400.00
00946            -160.00      320.00
00947            -140.00      320.00
00948            -140.00      240.00
00949            -140.00      240.00
00950            -120.00      240.00
00951            -120.00      160.00
00952            -120.00       80.00
00953            -120.00        0.00
00954            -120.00       80.00
00955            -100.00        0.00
00956            -100.00        0.00
00957            -100.00        0.00
00958             -80.00      -80.00
00959             -60.00     -160.00
00960             -60.00     -160.00
00961             -60.00     -160.00
00962             -40.00     -320.00
00963             -40.00     -320.00
00964             -40.00     -320.00
00965             -20.00     -400.00
00966             -20.00     -320.00
00967               0.00     -480.00
00968             -20.00     -640.00
00969             -40.00     -640.00
00970              20.00     -640.00
00971              40.00     -480.00
00972              20.00     -640.00
00973              20.00     -800.00
00974              40.00     -640.00
00975              60.00     -720.00
00976              20.00     -800.00
00977              40.00     -800.00
00978              60.00     -800.00
00979              60.00     -960.00
00980              60.00     -960.00
00981              80.00     -960.00
00982             100.00    -1040.00
00983              60.00    -1120.00
00984             120.00    -1040.00
00985             120.00    -1120.00
00986             100.00    -1280.00
00987             120.00    -1200.00
00988             140.00    -1280.00
00989             120.00    -1280.00
00990             140.00    -1360.00
00991             140.00    -1360.00
00992             140.00    -1440.00
00993             180.00    -1360.00
00994             180.00    -1520.00
00995             160.00    -1520.00
00996             180.00    -1600.00
00997             200.00    -1600.00
00998             200.00    -1680.00
00999             200.00    -1680.00
01000             200.00    -1680.00
01001             220.00    -1760.00
01002             240.00    -1760.00
01003             260.00    -1760.00
01004             240.00    -1840.00
01005             260.00    -1920.00
01006             260.00    -1920.00
01007             260.00    -1920.00
01008             260.00    -2000.00
01009             280.00    -2000.00
01010             280.00    -2080.00
01011             300.00    -2080.00
01012             300.00    -2240.00
01013             320.00    -2240.00
01014             300.00    -2240.00
01015             320.00    -2320.00
01016             340.00    -2320.00
01017             340.00    -2320.00
01018             360.00    -2400.00
01019             360.00    -2400.00
01020             360.00    -2400.00
01021             360.00    -2480.00
01022             380.00    -2480.00
01023             380.00    -2560.00
01024             380.00    -2560.00
01025             380.00    -2560.00
01026             400.00    -2640.00
01027             420.00    -2720.00
01028             420.00    -2720.00
01029             420.00    -2720.00
01030             420.00    -2720.00
01031             440.00    -2880.00
01032             440.00    -2800.00
01033             440.00    -2880.00
01034             460.00    -2960.00
01035             460.00    -2960.00
01036             460.00    -2960.00
01037             460.00    -3040.00
01038             500.00    -3040.00
01039             500.00    -3040.00
01040             500.00    -3200.00
01041             500.00    -3200.00
01042             520.00    -3200.00
01043             520.00    -3200.00
01044             520.00    -3280.00
01045             520.00    -3280.00
01046             540.00    -3360.00
01047             520.00    -3360.00
01048             540.00    -3360.00
01049             540.00    -3360.00
01050             540.00    -3440.00
01051             560.00    -3520.00
01052             560.00    -3520.00
01053             580.00    -3520.00
01054             580.00    -3600.00
01055             580.00    -3600.00
01056             580.00    -3680.00
01057             600.00    -3680.00
01058             600.00    -3680.00
01059             580.00    -3680.00
01060             600.00    -3760.00
01061             620.00    -3760.00
01062             620.00    -3840.00
01063             620.00    -3840.00
01064             620.00    -3920.00
01065             640.00    -3920.00
01066             660.00    -3920.00
01067             640.00    -3920.00
01068             660.00    -4000.00
01069             660.00    -4000.00
01070             680.00    -4160.00
01071             680.00    -4080.00
01072             700.00    -4160.00
01073             700.00    -4080.00
01074             720.00    -4160.00
01075             700.00    -4240.00
01076             700.00    -4240.00
01077             700.00    -4240.00
01078             740.00    -4320.00
01079             720.00    -4320.00
01080             740.00    -4320.00
01081             740.00    -4320.00
01082             760.00    -4320.00
01083             740.00    -4480.00
01084             760.00    -4400.00
01085             760.00    -4400.00
01086             760.00    -4480.00
01087             760.00    -4560.00
01088             780.00    -4560.00
01089             800.00    -4560.00
01090             780.00    -4640.00
01091             780.00    -4640.00
01092             800.00    -4640.00
01093             820.00    -4720.00
01094             820.00    -4720.00
01095             820.00    -4720.00
01096             820.00    -4800.00
01097             840.00    -4720.00
01098             840.00    -4800.00
01099             840.00    -4880.00
01100             840.00    -4880.00
01101             840.00    -4880.00
01102             840.00    -4960.00
01103             860.00    -4880.00
01104             860.00    -4960.00
01105             860.00    -4960.00
01106             880.00    -5040.00
01107             900.00    -4960.00
01108             860.00    -5040.00
01109             880.00    -5040.00
01110             900.00    -5120.00
01111             900.00    -5120.00
01112             900.00    -5120.00
01113             900.00    -5200.00
01114             900.00    -5200.00
01115             900.00    -5200.00
01116             920.00    -5200.00
01117             920.00    -5280.00
01118             900.00    -5280.00
01119             920.00    -5280.00
01120             920.00    -5280.00
01121             920.00    -5280.00
01122             940.00    -5280.00
01123             940.00    -5280.00
01124             940.00    -5440.00
01125             940.00    -5360.00
01126             940.00    -5440.00
01127             940.00    -5440.00
01128             960.00    -5440.00
01129             960.00    -5440.00
01130             980.00    -5440.00
01131             980.00    -5440.00
01132             980.00    -5440.00
01133             980.00    -5520.00
01134             980.00    -5520.00
01135             980.00    -5520.00
01136             980.00    -5520.00
01137             980.00    -5600.00
01138            1000.00    -5600.00
01139             980.00    -5680.00
01140            1000.00    -5600.00
01141            1000.00    -5600.00
01142            1020.00    -5680.00
01143            1000.00    -5680.00
01144            1020.00    -5760.00
01145            1040.00    -5760.00
01146            1000.00    -5760.00
01147            1020.00    -5760.00
01148            1020.00    -5760.00
01149            1020.00    -5840.00
01150            1020.00    -5840.00
01151            1060.00    -5760.00
01152            1060.00    -5760.00
01153            1060.00    -5840.00
01154            1060.00    -5840.00
01155            1060.00    -5840.00
01156            1060.00    -5840.00
01157            1060.00    -5920.00
01158            1060.00    -5920.00
01159            1060.00    -5920.00
01160            1060.00    -5920.00
01161            1080.00    -5920.00
01162            1080.00    -5920.00
01163            1060.00    -5920.00
01164            1080.00    -5920.00
01165            1080.00    -5920.00
01166            1080.00    -6000.00
01167            1100.00    -5920.00
01168            1080.00    -5920.00
01169            1080.00    -6000.00
01170            1100.00    -6000.00
01171            1100.00    -6000.00
01172            1080.00    -6000.00
01173            1100.00    -6000.00
01174            1100.00    -6080.00
01175            1100.00    -6080.00
01176            1100.00    -6080.00
01177            1100.00    -6080.00
01178            1100.00    -6080.00
01179            1100.00    -6000.00
01180            1100.00    -6080.00
01181            1100.00    -6080.00
01182            1100.00    -6080.00
01183            1100.00    -6080.00
01184            1100.00    -6160.00
01185            1100.00    -6080.00
01186            1100.00    -6080.00
01187            1100.00    -6080.00
01188            1120.00    -6080.00
01189            1140.00    -6080.00
01190            1100.00    -6080.00
01191            1140.00    -6160.00
01192            1140.00    -6080.00
01193            1140.00    -6160.00
01194            1140.00    -6160.00
01195            1120.00    -6080.00
01196            1160.00    -6160.00
01197            1140.00    -6160.00
01198            1140.00    -6160.00
01199            1140.00    -6160.00
01200            1140.00    -6160.00
01201            1140.00    -6160.00
01202            1140.00    -6160.00
01203            1160.00    -6160.00
01204            1140.00    -6160.00
01205            1140.00    -6160.00
01206            1160.00    -6160.00
01207            1140.00    -6160.00
01208            1160.00    -6160.00
01209            1160.00    -6160.00
01210            1140.00    -6160.00
01211            1160.00    -6160.00
01212            1160.00    -6080.00
01213            1160.00    -6160.00
01214            1160.00    -6160.00
01215            1160.00    -6160.00
01216            1160.00    -6160.00
01217            1160.00    -6160.00
01218            1160.00    -6160.00
01219            1160.00    -6080.00
01220            1160.00    -6080.00
01221            1160.00    -6080.00
01222            1160.00    -6080.00
01223            1160.00    -6160.00
01224            1160.00    -6080.00
01225            1160.00    -6160.00
01226            1160.00    -6160.00
01227            1160.00    -6080.00
01228            1160.00    -6160.00
01229            1160.00    -6080.00
01230            1160.00    -6080.00
01231            1160.00    -6080.00
01232            1160.00    -6080.00
01233            1160.00    -6080.00
01234            1160.00    -6080.00
01235            1140.00    -6080.00
01236            1160.00    -6080.00
01237            1160.00    -6080.00
01238            1160.00    -6080.00
01239            1140.00    -6080.00
01240            1160.00    -6080.00
01241            1140.00    -6080.00
01242            1140.00    -6080.00
01243            1140.00    -6080.00
01244            1140.00    -6000.00
01245            1140.00    -6000.00
01246            1140.00    -5920.00
01247            1140.00    -5920.00
01248            1140.00    -5920.00
01249            1120.00    -5920.00
01250            1140.00    -5920.00
01251            1140.00    -5920.00
01252            1140.00    -5920.00
01253            1140.00    -5920.00
01254            1120.00    -5920.00
01255            1140.00    -5920.00
01256            1100.00    -5920.00
01257            1120.00    -5840.00
01258            1100.00    -5840.00
01259            1100.00    -5840.00
01260            1100.00    -5840.00
01261            1100.00    -5840.00
01262            1100.00    -5840.00
01263            1100.00    -5840.00
01264            1100.00    -5840.00
01265            1100.00    -5760.00
01266            1100.00    -5760.00
01267            1080.00    -5760.00
01268            1100.00    -5760.00
01269            1100.00    -5760.00
01270            1100.00    -5760.00
01271            1080.00    -5680.00
01272            1100.00    -5600.00
01273            1100.00    -5600.00
01274            1100.00    -5600.00
01275            1100.00    -5600.00
01276            1080.00    -5600.00
01277            1080.00    -5600.00
01278            1060.00    -5520.00
01279            1080.00    -5600.00
01280            1080.00    -5520.00
01281            1080.00    -5520.00
01282            1060.00    -5520.00
01283            1060.00    -5440.00
01284            1060.00    -5440.00
01285            1060.00    -5440.00
01286            1060.00    -5440.00
01287            1060.00    -5440.00
01288            1060.00    -5440.00
01289            1060.00    -5360.00
01290            1060.00    -5440.00
01291            1060.00    -5360.00
01292            1040.00    -5280.00
01293            1060.00    -5280.00
01294            1060.00    -5280.00
01295            1020.00    -5200.00
01296            1040.00    -5200.00
01297            1020.00    -5280.00
01298            1020.00    -5200.00
01299            1020.00    -5200.00
01300            1020.00    -5200.00
01301            1020.00    -5200.00
01302            1020.00    -5120.00
01303            1000.00    -5120.00
01304            1000.00    -5040.00
01305            1000.00    -5120.00
01306            1000.00    -5040.00
01307             980.00    -5040.00
01308            1000.00    -4960.00
01309             980.00    -4960.00
01310             980.00    -4960.00
01311             980.00    -4960.00
01312             980.00    -4960.00
01313             980.00    -4880.00
01314             980.00    -4960.00
01315             980.00    -4880.00
01316             940.00    -4800.00
01317             960.00    -4800.00
01318             940.00    -4800.00
01319             940.00    -4720.00
01320             940.00    -4800.00
01321             940.00    -4640.00
01322             940.00    -4640.00
01323             920.00    -4640.00
01324             920.00    -4560.00
01325             920.00    -4560.00
01326             920.00    -4560.00
01327             900.00    -4480.00
01328             900.00    -4560.00
01329             900.00    -4400.00
01330             900.00    -4400.00
01331             900.00    -4480.00
01332             900.00    -4400.00
01333             900.00    -4320.00
01334             880.00    -4400.00
01335             860.00    -4320.00
01336             880.00    -4320.00
01337             860.00    -4240.00
01338             860.00    -4240.00
01339             840.00    -4240.00
01340             840.00    -4240.00
01341             860.00    -4160.00
01342             840.00    -4160.00
01343             840.00    -4080.00
01344             840.00    -4000.00
01345             840.00    -4080.00
01346             820.00    -4000.00
01347             840.00    -4000.00
01348             820.00    -3920.00
01349             820.00    -3920.00
01350             820.00    -3920.00
01351             820.00    -3840.00
01352             820.00    -3840.00
01353             800.00    -3840.00
01354             820.00    -3840.00
01355             780.00    -3760.00
01356             780.00    -3680.00
01357             780.00    -3680.00
01358             760.00    -3680.00
01359             760.00    -3600.00
01360             760.00    -3600.00
01361             760.00    -3520.00
01362             740.00    -3520.00
01363             740.00    -3520.00
01364             740.00    -3440.00
01365             740.00    -3440.00
01366             740.00    -3360.00
01367             740.00    -3360.00
01368             700.00    -3360.00
01369             700.00    -3360.00
01370             700.00    -3280.00
01371             680.00    -3280.00
01372             680.00    -3200.00
01373             680.00    -3200.00
01374             660.00    -3200.00
01375             660.00    -3200.00
01376             660.00    -3120.00
01377             660.00    -3040.00
01378             660.00    -3040.00
01379             660.00    -2960.00
01380             620.00    -2960.00
01381             640.00    -2880.00
01382             640.00    -2880.00
01383             620.00    -2880.00
01384             620.00    -2800.00
01385             620.00    -2800.00
01386             600.00    -2720.00
01387             600.00    -2720.00
01388             580.00    -2720.00
01389             580.00    -2640.00
01390             580.00    -2640.00
01391             580.00    -2560.00
01392             580.00    -2560.00
01393             560.00    -2560.00
01394             540.00    -2400.00
01395             560.00    -2480.00
01396             540.00    -2400.00
01397             540.00    -2400.00
01398             520.00    -2400.00
01399             520.00    -2240.00
01400             520.00    -2320.00
01401             520.00    -2240.00
01402             520.00    -2240.00
01403             500.00    -2080.00
01404             520.00    -2160.00
01405             500.00    -2080.00
01406             500.00    -2000.00
01407             460.00    -2000.00
01408             500.00    -2000.00
01409             460.00    -1920.00
01410             460.00    -1920.00
01411             460.00    -1840.00
01412             440.00    -1760.00
01413             440.00    -1760.00
01414             440.00    -1760.00
01415             420.00    -1760.00
01416             420.00    -1680.00
01417             420.00    -1680.00
01418             420.00    -1680.00
01419             400.00    -1600.00
01420             380.00    -1600.00
01421             380.00    -1520.00
01422             360.00    -1440.00
01423             380.00    -1440.00
01424             360.00    -1440.00
01425             360.00    -1360.00
01426             360.00    -1360.00
01427             340.00    -1280.00
01428             340.00    -1280.00
01429             340.00    -1200.00
01430             340.00    -1120.00
01431             300.00    -1120.00
01432             300.00    -1120.00
01433             300.00    -1040.00
01434             300.00    -1040.00
01435             280.00     -960.00
01436             280.00     -960.00
01437             260.00     -960.00
01438             280.00     -880.00
01439             260.00     -800.00
01440             260.00     -800.00
01441             260.00     -720.00
01442             240.00     -720.00
01443             220.00     -720.00
01444             220.00     -720.00
01445             220.00     -640.00
01446             200.00     -560.00
01447             220.00     -560.00
01448             200.00     -480.00
01449             200.00     -480.00
01450             180.00     -400.00
01451             180.00     -320.00
01452             180.00     -400.00
01453             140.00     -320.00
01454             180.00     -320.00
01455             140.00     -240.00
01456             140.00     -160.00
01457             120.00     -160.00
01458             120.00      -80.00
01459             120.00      -80.00
01460             120.00      -80.00
01461             100.00        0.00
01462             100.00        0.00
01463             100.00        0.00
01464             100.00      160.00
01465              60.00      160.00
01466              80.00      160.00
01467             100.00      160.00
01468              60.00      240.00
01469              60.00      240.00
01470              40.00      320.00
01471              40.00      320.00
01472              40.00      400.00
01473              40.00      480.00
01474              40.00      560.00
01475              40.00      560.00
01476             -20.00      480.00
01477             -20.00      480.00
01478              20.00      720.00
01479              20.00      880.00
01480             -40.00      560.00
01481             -40.00      800.00
01482             -20.00      880.00
01483             -40.00      800.00
01484             -60.00      720.00
01485             -60.00     1040.00
01486             -40.00      960.00
01487             -60.00      880.00
01488             -60.00     1040.00
01489             -60.00     1120.00
01490            -100.00     1040.00
01491            -100.00     1120.00
01492            -100.00     1200.00
01493            -120.00     1120.00
01494            -120.00     1200.00
01495            -120.00     1360.00
01496            -120.00     1280.00
01497            -140.00     1360.00
01498            -140.00     1440.00
01499            -160.00     1360.00
01500            -180.00     1440.00
01501            -160.00     1520.00
01502            -200.00     1520.00
01503            -200.00     1600.00
01504            -180.00     1600.00
01505            -200.00     1680.00
01506            -220.00     1760.00
01507            -220.00     1760.00
01508            -220.00     1760.00
01509            -220.00     1840.00
01510            -240.00     1840.00
01511            -260.00     1840.00
01512            -260.00     1920.00
01513            -280.00     1920.00
01514            -280.00     2000.00
01515            -280.00     2080.00
01516            -300.00     2080.00
01517            -280.00     2160.00
01518            -300.00     2160.00
01519            -300.00     2240.00
01520            -300.00     2240.00
01521            -320.00     2240.00
01522            -340.00     2320.00
01523            -340.00     2400.00
01524            -360.00     2400.00
01525            -360.00     2480.00
01526            -360.00     2480.00
01527            -380.00     2480.00
01528            -380.00     2480.00
01529            -360.00     2560.00
01530            -380.00     2560.00
01531            -380.00     2640.00
01532            -380.00     2640.00
01533            -380.00     2720.00
01534            -380.00     2720.00
01535            -380.00     2720.00
01536            -420.00     2800.00
01537            -440.00     2800.00
01538            -440.00     2880.00
01539            -440.00     2880.00
01540            -440.00     2880.00
01541            -440.00     3040.00
01542            -460.00     2960.00
01543            -460.00     3040.00
01544            -440.00     3120.00
01545            -460.00     3120.00
01546            -460.00     3120.00
01547            -460.00     3200.00
01548            -500.00     3200.00
01549            -500.00     3280.00
01550            -480.00     3360.00
01551            -500.00     3280.00
01552            -520.00     3360.00
01553            -520.00     3360.00
01554            -520.00     3360.00
01555            -520.00     3440.00
01556            -540.00     3520.00
01557            -540.00     3520.00
01558            -540.00     3520.00
01559            -580.00     3520.00
01560            -560.00     3600.00
01561            -580.00     3600.00
01562            -580.00     3680.00
01563            -600.00     3680.00
01564            -600.00     3760.00
01565            -600.00     3760.00
01566            -600.00     3760.00
01567            -600.00     3760.00
01568            -620.00     3840.00
01569            -620.00     3840.00
01570            -660.00     3840.00
01571            -640.00     4000.00
01572            -660.00     4000.00
01573            -660.00     4000.00
01574            -660.00     4000.00
01575            -660.00     4080.00
01576            -680.00     4080.00
01577            -660.00     4080.00
01578            -700.00     4160.00
01579            -700.00     4160.00
01580            -680.00     4240.00
01581            -700.00     4160.00
01582            -700.00     4320.00
01583            -700.00     4320.00
01584            -720.00     4320.00
01585            -700.00     4320.00
01586            -740.00     4400.00
01587            -740.00     4400.00
01588            -740.00     4480.00
01589            -760.00     4480.00
01590            -760.00     4480.00
01591            -760.00     4480.00
01592            -760.00     4480.00
01593            -760.00     4560.00
01594            -760.00     4480.00
01595            -780.00     4640.00
01596            -760.00     4640.00
01597            -780.00     4720.00
01598            -780.00     4640.00
01599            -780.00     4720.00
01600            -780.00     4720.00
01601            -820.00     4800.00
01602            -820.00     4800.00
01603            -820.00     4800.00
01604            -820.00     4800.00
01605            -820.00     4880.00
01606            -820.00     4800.00
01607            -820.00     4960.00
01608            -840.00     4960.00
01609            -840.00     5040.00
01610            -840.00     4960.00
01611            -860.00     5040.00
01612            -860.00     5040.00
01613            -840.00     5040.00
01614            -860.00     5120.00
01615            -860.00     5040.00
01616            -860.00     5120.00
01617            -880.00     5120.00
01618            -900.00     5200.00
01619            -900.00     5200.00
01620            -900.00     5120.00
01621            -900.00     5200.00
01622            -920.00     5280.00
01623            -900.00     5280.00
01624            -920.00     5360.00
01625            -900.00     5280.00
01626            -920.00     5280.00
01627            -900.00     5360.00
01628            -920.00     5440.00
01629            -920.00     5440.00
01630            -920.00     5360.00
01631            -920.00     5440.00
01632            -940.00     5520.00
01633            -940.00     5440.00
01634            -940.00     5440.00
01635            -980.00     5520.00
01636            -980.00     5440.00
01637            -980.00     5520.00
01638            -980.00     5600.00
01639            -980.00     5600.00
01640            -960.00     5600.00
01641            -980.00     5600.00
01642           -1000.00     5600.00
01643           -1000.00     5680.00
01644           -1000.00     5680.00
01645           -1000.00     5680.00
01646           -1000.00     5680.00
01647           -1020.00     5680.00
01648           -1020.00     5760.00
01649           -1000.00     5680.00
01650           -1020.00     5840.00
01651           -1020.00     5840.00
01652           -1020.00     5760.00
01653           -1020.00     5760.00
01654           -1020.00     5840.00
01655           -1040.00     5840.00
01656           -1020.00     5840.00
01657           -1020.00     5840.00
01658           -1060.00     5920.00
01659           -1060.00     5920.00
01660           -1060.00     5920.00
01661           -1060.00     5920.00
01662           -1060.00     5920.00
01663           -1040.00     5920.00
01664           -1060.00     5920.00
01665           -1020.00     5920.00
01666           -1060.00     6000.00
01667           -1080.00     6000.00
01668           -1080.00     6080.00
01669           -1060.00     6000.00
01670           -1080.00     6000.00
01671           -1060.00     6000.00
01672           -1080.00     6080.00
01673           -1080.00     6000.00
01674           -1080.00     6080.00
01675           -1080.00     6000.00
01676           -1080.00     6080.00
01677           -1080.00     6160.00
01678           -1080.00     6080.00
01679           -1100.00     6080.00
01680           -1100.00     6080.00
01681           -1100.00     6160.00
01682           -1100.00     6080.00
01683           -1100.00     6160.00
01684           -1100.00     6160.00
01685           -1100.00     6160.00
01686           -1100.00     6240.00
01687           -1100.00     6240.00
01688           -1100.00     6240.00
01689           -1100.00     6160.00
01690           -1120.00     6240.00
01691           -1100.00     6240.00
01692           -1100.00     6240.00
01693           -1100.00     6240.00
01694           -1140.00     6240.00
01695           -1140.00     6240.00
01696           -1120.00     6240.00
01697           -1140.00     6240.00
01698           -1140.00     6240.00
01699           -1140.00     6240.00
01700           -1140.00     6240.00
01701           -1140.00     6240.00
01702           -1140.00     6240.00
01703           -1140.00     6240.00
01704           -1160.00     6240.00
01705           -1140.00     6240.00
01706           -1140.00     6240.00
01707           -1160.00     6240.00
01708           -1140.00     6240.00
01709           -1160.00     6240.00
01710           -1140.00     6240.00
01711           -1180.00     6240.00
01712           -1140.00     6240.00
01713           -1160.00     6240.00
01714           -1160.00     6240.00
01715           -1160.00     6240.00
01716           -1140.00     6240.00
01717           -1160.00     6240.00
01718           -1160.00     6240.00
01719           -1140.00     6320.00
01720           -1160.00     6240.00
01721           -1160.00     6240.00
01722           -1140.00     6320.00
01723           -1160.00     6240.00
01724           -1160.00     6240.00
01725           -1140.00     6240.00
01726           -1160.00     6240.00
01727           -1140.00     6240.00
01728           -1160.00     6240.00
01729           -1160.00     6240.00
01730           -1160.00     6240.00
01731           -1140.00     6240.00
01732           -1160.00     6240.00
01733           -1160.00     6240.00
01734           -1140.00     6240.00
01735           -1160.00     6240.00
01736           -1160.00     6240.00
01737           -1140.00     6240.00
01738           -1160.00     6240.00
01739           -1140.00     6160.00
01740           -1140.00     6240.00
01741           -1140.00     6240.00
01742           -1160.00     6240.00
01743           -1140.00     6240.00
01744           -1140.00     6160.00
01745           -1140.00     6160.00
01746           -1140.00     6160.00
01747           -1120.00     6160.00
01748           -1140.00     6080.00
01749           -1140.00     6080.00
01750           -1140.00     6080.00
01751           -1160.00     6080.00
01752           -1140.00     6080.00
01753           -1140.00     6160.00
01754           -1140.00     6080.00
01755           -1100.00     6080.00
01756           -1140.00     6080.00
01757           -1140.00     6080.00
01758           -1140.00     6000.00
01759           -1140.00     6080.00
01760           -1140.00     6000.00
01761           -1120.00     6000.00
01762           -1120.00     6000.00
01763           -1120.00     6000.00
01764           -1140.00     6000.00
01765           -1100.00     6000.00
01766           -1140.00     5920.00
01767           -1140.00     5920.00
01768           -1100.00     5920.00
01769           -1140.00     5920.00
01770           -1100.00     5920.00
01771           -1140.00     5920.00
01772           -1120.00     5840.00
01773           -1100.00     5920.00
01774           -1100.00     5760.00
01775           -1100.00     5840.00
01776           -1100.00     5760.00
01777           -1100.00     5840.00
01778           -1100.00     5840.00
01779           -1080.00     5760.00
01780           -1100.00     5760.00
01781           -1080.00     5680.00
01782           -1100.00     5760.00
01783           -1080.00     5760.00
01784           -1080.00     5680.00
01785           -1080.00     5680.00
01786           -1080.00     5680.00
01787           -1080.00     5680.00
01788           -1080.00     5680.00
01789           -1080.00     5600.00
01790           -1080.00     5600.00
01791           -1080.00     5600.00
01792           -1060.00     5600.00
01793           -1060.00     5520.00
01794           -1040.00     5440.00
01795           -1060.00     5440.00
01796           -1080.00     5520.00
01797           -1060.00     5440.00
01798           -1060.00     5440.00
01799           -1040.00     5440.00
01800           -1060.00     5440.00
01801           -1060.00     5360.00
01802           -1020.00     5360.00
01803           -1020.00     5360.00
01804           -1020.00     5360.00
01805           -1020.00     5360.00
01806           -1020.00     5280.00
01807           -1020.00     5280.00
01808           -1020.00     5280.00
01809           -1000.00     5280.00
01810           -1000.00     5200.00
01811           -1000.00     5200.00
01812           -1000.00     5120.00
01813           -1000.00     5120.00
01814           -1000.00     5120.00
01815           -1000.00     5120.00
01816            -980.00     5120.00
01817            -980.00     5040.00
01818           -1000.00     5040.00
01819            -980.00     4960.00
01820            -960.00     5040.00
01821            -980.00     4960.00
01822            -960.00     4960.00
01823            -960.00     4960.00
01824            -960.00     4960.00
01825            -940.00     4880.00
01826            -960.00     4800.00
01827            -940.00     4800.00
01828            -940.00     4880.00
01829            -940.00     4800.00
01830            -940.00     4720.00
01831            -940.00     4800.00
01832            -920.00     4720.00
01833            -920.00     4720.00
01834            -920.00     4640.00
01835            -920.00     4640.00
01836            -920.00     4560.00
01837            -920.00     4560.00
01838            -920.00     4560.00
01839            -920.00     4560.00
01840            -900.00     4480.00
01841            -900.00     4480.00
01842            -900.00     4480.00
01843            -860.00     4400.00
01844            -860.00     4320.00
01845            -860.00     4400.00
01846            -860.00     4320.00
01847            -860.00     4320.00
01848            -860.00     4320.00
01849            -860.00     4240.00
01850            -860.00     4160.00
01851            -860.00     4160.00
01852            -840.00     4160.00
01853            -840.00     4160.00
01854            -840.00     4080.00
01855            -820.00     4080.00
01856            -840.00     4080.00
01857            -820.00     4000.00
01858            -820.00     4000.00
01859            -820.00     3920.00
01860            -820.00     3920.00
01861            -780.00     3840.00
01862            -800.00     3840.00
01863            -780.00     3760.00
01864            -780.00     3760.00
01865            -760.00     3760.00
01866            -760.00     3760.00
01867            -760.00     3680.00
01868            -760.00     3680.00
01869            -760.00     3680.00
01870            -760.00     3680.00
01871            -760.00     3520.00
01872            -740.00     3600.00
01873            -740.00     3520.00
01874            -740.00     3440.00
01875            -700.00     3440.00
01876            -700.00     3440.00
01877            -700.00     3360.00
01878            -700.00     3440.00
01879            -700.00     3360.00
01880            -700.00     3360.00
01881            -700.00     3280.00
01882            -680.00     3200.00
01883            -680.00     3200.00
01884            -660.00     3200.00
01885            -660.00     3280.00
01886            -660.00     3120.00
01887            -660.00     3120.00
01888            -660.00     3040.00
01889            -620.00     2960.00
01890            -620.00     3040.00
01891            -620.00     2960.00
01892            -620.00     2880.00
01893            -620.00     2880.00
01894            -620.00     2800.00
01895            -600.00     2800.00
01896            -600.00     2800.00
01897            -600.00     2720.00
01898            -600.00     2720.00
01899            -600.00     2720.00
01900            -600.00     2640.00
01901            -560.00     2560.00
01902            -580.00     2560.00
01903            -540.00     2560.00
01904            -540.00     2560.00
01905            -580.00     2480.00
01906            -540.00     2400.00
01907            -540.00     2400.00
01908            -540.00     2400.00
01909            -520.00     2320.00
01910            -520.00     2320.00
01911            -520.00     2240.00
01912            -520.00     2240.00
01913            -500.00     2160.00
01914            -500.00     2160.00
01915            -480.00     2160.00
01916            -460.00     2080.00
01917            -460.00     2080.00
01918            -460.00     1920.00
01919            -460.00     2000.00
01920            -440.00     1920.00
01921            -440.00     1840.00
01922            -440.00     1840.00
01923            -440.00     1840.00
01924            -440.00     1760.00
01925            -420.00     1760.00
01926            -420.00     1760.00
01927            -380.00     1680.00
01928            -420.00     1600.00
01929            -380.00     1520.00
01930            -400.00     1520.00
01931            -380.00     1520.00
01932            -360.00     1520.00
01933            -360.00     1440.00
01934            -360.00     1440.00
01935            -360.00     1360.00
01936            -340.00     1280.00
01937            -340.00     1280.00
01938            -340.00     1280.00
01939            -300.00     1200.00
01940            -300.00     1200.00
01941            -300.00     1200.00
01942            -300.00     1120.00
01943            -280.00     1120.00
01944            -280.00     1040.00
01945            -280.00     1040.00
01946            -260.00      960.00
01947            -280.00      960.00
01948            -260.00      960.00
01949            -260.00      880.00
01950            -260.00      800.00
01951            -240.00      800.00
01952            -220.00      800.00
01953            -220.00      800.00
01954            -220.00      720.00
01955            -220.00      640.00
01956            -220.00      560.00
01957            -200.00      560.00
01958            -200.00      560.00
01959            -200.00      480.00
01960            -200.00      400.00
01961            -200.00      400.00
01962            -160.00      400.00
01963            -180.00      320.00
01964            -140.00      240.00
01965            -140.00      240.00
01966            -140.00      240.00
01967            -140.00      160.00
01968            -120.00      160.00
01969            -120.00       80.00
01970            -100.00       80.00
01971            -120.00        0.00
01972            -100.00        0.00
01973            -100.00        0.00
01974             -60.00     -160.00
01975             -80.00     -160.00
01976             -60.00     -160.00
01977             -60.00     -240.00
01978             -60.00     -240.00
01979             -60.00     -160.00
01980             -40.00     -320.00
01981             -40.00     -320.00
01982             -20.00     -400.00
01983               0.00     -400.00
01984             -20.00     -480.00
01985             -20.00     -720.00
01986             -20.00     -640.00
01987              20.00     -480.00
01988              40.00     -480.00
01989              20.00     -800.00
01990              20.00     -720.00
01991              60.00     -640.00
01992              40.00     -800.00
01993              40.00     -880.00
01994              60.00     -800.00
01995              80.00     -800.00
01996              60.00    -1040.00
01997              80.00     -960.00
01998             100.00    -1040.00
01999             100.00    -1120.00
02000             120.00    -1040.00
02001             120.00    -1040.00
02002             100.00    -1280.00
02003             120.00    -1280.00
02004             140.00    -1200.00
02005             140.00    -1280.00
02006             120.00    -1280.00
02007             160.00    -1360.00
02008             180.00    -1440.00
02009             180.00    -1440.00
02010             180.00    -1440.00
02011             180.00    -1520.00
02012             180.00    -1600.00
02013             200.00    -1600.00
02014             200.00    -1600.00
02015             200.00    -1680.00
02016             220.00    -1680.00
02017             220.00    -1760.00
02018             220.00    -1760.00
02019             260.00    -1760.00
02020             260.00    -1840.00
02021             260.00    -1920.00
02022             260.00    -1920.00
02023             260.00    -2000.00
02024             260.00    -2000.00
02025             260.00    -2000.00
02026             280.00    -2000.00
02027             280.00    -2080.00
02028             300.00    -2160.00
02029             280.00    -2240.00
02030             300.00    -2240.00
02031             300.00    -2240.00
02032             320.00    -2240.00
02033             340.00    -2320.00
02034             340.00    -2320.00
02035             340.00    -2400.00
02036             360.00    -2400.00
02037             360.00    -2480.00
02038             360.00    -2480.00
02039             360.00    -2560.00
02040             380.00    -2560.00
02041             380.00    -2640.00
02042             380.00    -2640.00
02043             380.00    -2640.00
02044             420.00    -2720.00
02045             420.00    -2800.00
02046             420.00    -2720.00
02047             420.00    -2720.00
02048             420.00    -2880.00
02049             440.00    -2880.00
02050             440.00    -2880.00
02051             440.00    -2960.00
02052             440.00    -3040.00
02053             460.00    -3040.00
02054             500.00    -3040.00
02055             500.00    -3040.00
02056             500.00    -3120.00
02057             500.00    -3200.00
02058             500.00    -3200.00
02059             500.00    -3200.00
02060             520.00    -3200.00
02061             520.00    -3280.00
02062             520.00    -3280.00
02063             540.00    -3360.00
02064             540.00    -3360.00
02065             540.00    -3360.00
02066             540.00    -3360.00
02067             580.00    -3440.00
02068             580.00    -3520.00
02069             580.00    -3520.00
02070             580.00    -3600.00
02071             600.00    -3600.00
02072             600.00    -3600.00
02073             600.00    -3600.00
02074             600.00    -3680.00
02075             600.00    -3680.00
02076             620.00    -3680.00
02077             620.00    -3760.00
02078             620.00    -3840.00
02079             640.00    -3840.00
02080             660.00    -3840.00
02081             660.00    -3840.00
02082             660.00    -3920.00
02083             660.00    -4000.00
02084             660.00    -3920.00
02085             680.00    -4000.00
02086             660.00    -4000.00
02087             680.00    -4080.00
02088             680.00    -4160.00
02089             680.00    -4080.00
02090             680.00    -4160.00
02091             700.00    -4160.00
02092             700.00    -4240.00
02093             700.00    -4240.00
02094             720.00    -4240.00
02095             700.00    -4320.00
02096             740.00    -4320.00
02097             740.00    -4320.00
02098             740.00    -4320.00
02099             740.00    -4400.00
02100             740.00    -4400.00
02101             760.00    -4480.00
02102             760.00    -4480.00
02103             760.00    -4480.00
02104             760.00    -4560.00
02105             760.00    -4560.00
02106             760.00    -4640.00
02107             780.00    -4560.00
02108             780.00    -4640.00
02109             780.00    -4640.00
02110             800.00    -4720.00
02111             820.00    -4720.00
02112             820.00    -4800.00
02113             820.00    -4800.00
02114             840.00    -4800.00
02115             840.00    -4800.00
02116             840.00    -4880.00
02117             840.00    -4800.00
02118             840.00    -4880.00
02119             860.00    -4960.00
02120             840.00    -4880.00
02121             840.00    -4960.00
02122             860.00    -4960.00
02123             860.00    -5040.00
02124             860.00    -4960.00
02125             860.00    -5040.00
02126             880.00    -5040.00
02127             900.00    -5120.00
02128             900.00    -5120.00
02129             900.00    -5120.00
02130             900.00    -5120.00
02131             920.00    -5200.00
02132             920.00    -5200.00
02133             920.00    -5200.00
02134             920.00    -5280.00
02135             940.00    -5280.00
02136             920.00    -5280.00
02137             940.00    -5280.00
02138             940.00    -5280.00
02139             940.00    -5440.00
02140             940.00    -5440.00
02141             960.00    -5440.00
02142             960.00    -5440.00
02143             960.00    -5440.00
02144             980.00    -5440.00
02145             980.00    -5440.00
02146             980.00    -5440.00
02147             980.00    -5520.00
02148             980.00    -5440.00
02149             980.00    -5520.00
02150             980.00    -5520.00
02151            1000.00    -5520.00
02152            1000.00    -5520.00
02153            1000.00    -5600.00
02154            1000.00    -5520.00
02155            1000.00    -5600.00
02156            1000.00    -5600.00
02157            1000.00    -5680.00
02158            1000.00    -5680.00
02159            1000.00    -5680.00
02160            1000.00    -5680.00
02161            1000.00    -5760.00
02162            1020.00    -5760.00
02163            1000.00    -5760.00
02164            1020.00    -5760.00
02165            1020.00    -5760.00
02166            1020.00    -5840.00
02167            1020.00    -5760.00
02168            1020.00    -5840.00
02169            1060.00    -5840.00
02170            1040.00    -5840.00
02171            1060.00    -5840.00
02172            1060.00    -5840.00
02173            1060.00    -5920.00
02174            1060.00    -5920.00
02175            1060.00    -5920.00
02176            1060.00    -5840.00
02177            1060.00    -5920.00
02178            1060.00    -5920.00
02179            1060.00    -5920.00
02180            1080.00    -5920.00
02181            1080.00    -5920.00
02182            1060.00    -6000.00
02183            1080.00    -5920.00
02184            1080.00    -5920.00
02185            1080.00    -6080.00
02186            1080.00    -6080.00
02187            1080.00    -5920.00
02188            1100.00    -6080.00
02189            1100.00    -6080.00
02190            1080.00    -6080.00
02191            1100.00    -6080.00
02192            1100.00    -6080.00
02193            1140.00    -6080.00
02194            1120.00    -6080.00
02195            1100.00    -6080.00
02196            1120.00    -6080.00
02197            1100.00    -6080.00
02198            1140.00    -6080.00
02199            1100.00    -6080.00
02200            1120.00    -6160.00
02201            1100.00    -6080.00
02202            1140.00    -6160.00
02203            1140.00    -6160.00
02204            1140.00    -6080.00
02205            1140.00    -6160.00
02206            1120.00    -6160.00
02207            1140.00    -6160.00
02208            1140.00    -6080.00
02209            1140.00    -6080.00
02210            1140.00    -6160.00
02211            1140.00    -6160.00
02212            1140.00    -6160.00
02213            1140.00    -6160.00
02214            1140.00    -6160.00
02215            1160.00    -6160.00
02216            1140.00    -6160.00
02217            1140.00    -6160.00
02218            1140.00    -6160.00
02219            1140.00    -6080.00
02220            1140.00    -6160.00
02221            1140.00    -6160.00
02222            1140.00    -6160.00
02223            1140.00    -6160.00
02224            1140.00    -6160.00
02225            1160.00    -6160.00
02226            1140.00    -6160.00
02227            1140.00    -6160.00
02228            1140.00    -6160.00
02229            1160.00    -6160.00
02230            1140.00    -6240.00
02231            1140.00    -6160.00
02232            1140.00    -6160.00
02233            1140.00    -6160.00
02234            1160.00    -6160.00
02235            1140.00    -6160.00
02236            1140.00    -6080.00
02237            1160.00    -6080.00
02238            1140.00    -6080.00
02239            1160.00    -6160.00
02240            1160.00    -6080.00
02241            1140.00    -6080.00
02242            1160.00    -6160.00
02243            1140.00    -6160.00
02244            1140.00    -6080.00
02245            1160.00    -6080.00
02246            1160.00    -6080.00
02247            1160.00    -6160.00
02248            1140.00    -6080.00
02249            1160.00    -6080.00
02250            1160.00    -6080.00
02251            1140.00    -6080.00
02252            1140.00    -6080.00
02253            1140.00    -6080.00
02254            1160.00    -6080.00
02255            1140.00    -6000.00
02256            1140.00    -6080.00
02257            1140.00    -6080.00
02258            1160.00    -6080.00
02259            1160.00    -6000.00
02260            1160.00    -5920.00
02261            1140.00    -5920.00
02262            1140.00    -5920.00
02263            1160.00    -5920.00
02264            1140.00    -5920.00
02265            1140.00    -5920.00
02266            1140.00    -6000.00
02267            1140.00    -5920.00
02268            1140.00    -5920.00
02269            1140.00    -5920.00
02270            1140.00    -5920.00
02271            1140.00    -5920.00
02272            1140.00    -5920.00
02273            1100.00    -5920.00
02274            1140.00    -5840.00
02275            1100.00    -5840.00
02276            1140.00    -5840.00
02277            1120.00    -5840.00
02278            1120.00    -5840.00
02279            1120.00    -5760.00
02280            1140.00    -5840.00
02281            1100.00    -5760.00
02282            1100.00    -5760.00
02283            1120.00    -5760.00
02284            1080.00    -5760.00
02285            1100.00    -5760.00
02286            1080.00    -5680.00
02287            1080.00    -5600.00
02288            1080.00    -5680.00
02289            1080.00    -5600.00
02290            1080.00    -5600.00
02291            1100.00    -5680.00
02292            1060.00    -5600.00
02293            1080.00    -5600.00
02294            1080.00    -5600.00
02295            1060.00    -5520.00
02296            1060.00    -5520.00
02297            1080.00    -5440.00
02298            1060.00    -5520.00
02299            1060.00    -5440.00
02300            1060.00    -5440.00
02301            1060.00    -5440.00
02302            1060.00    -5440.00
02303            1060.00    -5440.00
02304            1060.00    -5440.00
02305            1060.00    -5360.00
02306            1040.00    -5440.00
02307            1060.00    -5440.00
02308            1040.00    -5280.00
02309            1040.00    -5280.00
02310            1020.00    -5280.00
02311            1020.00    -5280.00
02312            1020.00    -5280.00
02313            1020.00    -5200.00
02314            1020.00    -5200.00
02315            1020.00    -5200.00
02316            1000.00    -5200.00
02317            1000.00    -5120.00
02318            1000.00    -5120.00
02319            1000.00    -5120.00
02320            1000.00    -5120.00
02321            1000.00    -5120.00
02322            1000.00    -4960.00
02323            1000.00    -4960.00
02324             980.00    -5040.00
02325            1000.00    -4960.00
02326             980.00    -4960.00
02327             980.00    -4880.00
02328            1000.00    -4960.00
02329             980.00    -4880.00
02330             980.00    -4880.00
02331             980.00    -4800.00
02332             980.00    -4800.00
02333             960.00    -4800.00
02334             940.00    -4800.00
02335             940.00    -4720.00
02336             940.00    -4800.00
02337             940.00    -4640.00
02338             940.00    -4640.00
02339             960.00    -4640.00
02340             940.00    -4640.00
02341             920.00    -4560.00
02342             920.00    -4560.00
02343             920.00    -4560.00
02344             920.00    -4560.00
02345             920.00    -4400.00
02346             900.00    -4480.00
02347             900.00    -4400.00
02348             900.00    -4400.00
02349             880.00    -4320.00
02350             880.00    -4320.00
02351             860.00    -4320.00
02352             860.00    -4240.00
02353             860.00    -4320.00
02354             860.00    -4240.00
02355             860.00    -4240.00
02356             860.00    -4160.00
02357             840.00    -4160.00
02358             840.00    -4080.00
02359             840.00    -4080.00
02360             840.00    -4160.00
02361             840.00    -4000.00
02362             840.00    -4000.00
02363             820.00    -3920.00
02364             820.00    -3920.00
02365             820.00    -3920.00
02366             820.00    -3920.00
02367             780.00    -3920.00
02368             820.00    -3840.00
02369             780.00    -3760.00
02370             780.00    -3840.00
02371             780.00    -3840.00
02372             760.00    -3760.00
02373             760.00    -3680.00
02374             760.00    -3680.00
02375             760.00    -3600.00
02376             760.00    -3520.00
02377             760.00    -3600.00
02378             740.00    -3520.00
02379             760.00    -3520.00
02380             760.00    -3440.00
02381             740.00    -3440.00
02382             740.00    -3360.00
02383             700.00    -3440.00
02384             720.00    -3360.00
02385             700.00    -3360.00
02386             700.00    -3280.00
02387             680.00    -3280.00
02388             700.00    -3200.00
02389             680.00    -3200.00
02390             680.00    -3200.00
02391             680.00    -3200.00
02392             680.00    -3040.00
02393             660.00    -3040.00
02394             660.00    -3120.00
02395             660.00    -3040.00
02396             660.00    -2960.00
02397             660.00    -2960.00
02398             660.00    -2880.00
02399             620.00    -2880.00
02400             620.00    -2880.00
02401             620.00    -2800.00
02402             600.00    -2720.00
02403             600.00    -2720.00
02404             600.00    -2720.00
02405             600.00    -2640.00
02406             600.00    -2640.00
02407             580.00    -2560.00
02408             580.00    -2560.00
02409             580.00    -2480.00
02410             580.00    -2480.00
02411             580.00    -2480.00
02412             560.00    -2480.00
02413             540.00    -2400.00
02414             520.00    -2400.00
02415             520.00    -2320.00
02416             520.00    -2320.00
02417             520.00    -2240.00
02418             520.00    -2160.00
02419             500.00    -2240.00
02420             500.00    -2080.00
02421             480.00    -2080.00
02422             500.00    -2080.00
02423             460.00    -2000.00
02424             460.00    -2000.00
02425             460.00    -1920.00
02426             440.00    -1920.00
02427             460.00    -1840.00
02428             420.00    -1840.00
02429             420.00    -1760.00
02430             420.00    -1760.00
02431             420.00    -1760.00
02432             420.00    -1680.00
02433             420.00    -1680.00
02434             400.00    -1680.00
02435             400.00    -1600.00
02436             380.00    -1600.00
02437             380.00    -1520.00
02438             360.00    -1440.00
02439             360.00    -1440.00
02440             360.00    -1440.00
02441             360.00    -1360.00
02442             360.00    -1360.00
02443             340.00    -1360.00
02444             340.00    -1280.00
02445             340.00    -1200.00
02446             340.00    -1200.00
02447             340.00    -1200.00
02448             320.00    -1120.00
02449             300.00    -1120.00
02450             300.00    -1040.00
02451             300.00    -1040.00
02452             280.00     -960.00
02453             280.00     -960.00
02454             280.00     -960.00
02455             280.00     -800.00
02456             260.00     -800.00
02457             260.00     -800.00
02458             260.00     -720.00
02459             260.00     -640.00
02460             220.00     -640.00
02461             240.00     -640.00
02462             220.00     -640.00
02463             220.00     -560.00
02464             200.00     -560.00
02465             200.00     -480.00
02466             200.00     -400.00
02467             180.00     -400.00
02468             180.00     -320.00
02469             180.00     -320.00
02470             180.00     -320.00
02471             160.00     -160.00
02472             180.00     -160.00
02473             140.00     -160.00
02474             140.00     -160.00
02475             120.00      -80.00
02476             120.00      -80.00
02477             120.00      -80.00
02478             100.00        0.00
02479             100.00        0.00
02480             100.00      160.00
02481              60.00       80.00
02482              80.00      160.00
02483              60.00      240.00
02484              60.00      240.00
02485              60.00      240.00
02486              40.00      320.00
02487              40.00      320.00
02488              40.00      320.00
02489              20.00      480.00
02490              40.00      560.00
02491              20.00      560.00
02492             -20.00      560.00
02493             -40.00      480.00
02494             -20.00      640.00
02495              20.00      800.00
02496             -20.00      720.00
02497             -40.00      560.00
02498             -40.00      880.00
02499             -20.00      880.00
02500             -80.00      720.00
02501             -60.00      880.00
02502             -40.00     1120.00
02503             -60.00      960.00
02504             -80.00      960.00
02505             -60.00     1120.00
02506             -60.00     1120.00
02507            -100.00     1120.00
02508             -60.00     1280.00
02509            -120.00     1200.00
02510            -120.00     1280.00
02511            -120.00     1280.00
02512            -120.00     1360.00
02513            -140.00     1280.00
02514            -140.00     1440.00
02515            -140.00     1440.00
02516            -180.00     1440.00
02517            -140.00     1600.00
02518            -140.00     1520.00
02519            -200.00     1520.00
02520            -180.00     1600.00
02521            -200.00     1600.00
02522            -220.00     1600.00
02523            -200.00     1760.00
02524            -220.00     1760.00
02525            -220.00     1760.00
02526            -220.00     1840.00
02527            -220.00     1840.00
02528            -260.00     1920.00
02529            -240.00     1920.00
02530            -260.00     1920.00
02531            -280.00     2080.00
02532            -280.00     2080.00
02533            -280.00     2160.00
02534            -280.00     2160.00
02535            -300.00     2160.00
02536            -280.00     2160.00
02537            -300.00     2240.00
02538            -300.00     2320.00
02539            -300.00     2320.00
02540            -340.00     2400.00
02541            -340.00     2400.00
02542            -340.00     2400.00
02543            -360.00     2480.00
02544            -360.00     2480.00
02545            -360.00     2560.00
02546            -360.00     2560.00
02547            -380.00     2560.00
02548            -380.00     2640.00
02549            -380.00     2720.00
02550            -420.00     2720.00
02551            -400.00     2720.00
02552            -420.00     2800.00
02553            -440.00     2800.00
02554            -440.00     2800.00
02555            -440.00     2880.00
02556            -440.00     2880.00
02557            -440.00     3040.00
02558            -460.00     3040.00
02559            -460.00     3040.00
02560            -460.00     3040.00
02561            -480.00     3120.00
02562            -460.00     3120.00
02563            -500.00     3120.00
02564            -500.00     3280.00
02565            -500.00     3280.00
02566            -500.00     3280.00
02567            -520.00     3360.00
02568            -520.00     3360.00
02569            -520.00     3360.00
02570            -540.00     3360.00
02571            -540.00     3440.00
02572            -540.00     3440.00
02573            -540.00     3520.00
02574            -560.00     3520.00
02575            -580.00     3520.00
02576            -580.00     3600.00
02577            -580.00     3680.00
02578            -580.00     3680.00
02579            -600.00     3680.00
02580            -600.00     3680.00
02581            -600.00     3680.00
02582            -600.00     3760.00
02583            -620.00     3760.00
02584            -600.00     3840.00
02585            -620.00     3840.00
02586            -620.00     3840.00
02587            -620.00     4000.00
02588            -620.00     4000.00
02589            -660.00     4000.00
02590            -660.00     4000.00
02591            -660.00     4000.00
02592            -660.00     4080.00
02593            -660.00     4080.00
02594            -680.00     4160.00
02595            -680.00     4160.00
02596            -680.00     4160.00
02597            -700.00     4160.00
02598            -700.00     4240.00
02599            -700.00     4240.00
02600            -700.00     4320.00
02601            -700.00     4320.00
02602            -720.00     4400.00
02603            -720.00     4400.00
02604            -740.00     4400.00
02605            -720.00     4400.00
02606            -760.00     4400.00
02607            -740.00     4480.00
02608            -740.00     4480.00
02609            -780.00     4480.00
02610            -760.00     4560.00
02611            -760.00     4640.00
02612            -760.00     4640.00
02613            -780.00     4640.00
02614            -800.00     4720.00
02615            -800.00     4720.00
02616            -780.00     4720.00
02617            -820.00     4800.00
02618            -820.00     4800.00
02619            -820.00     4800.00
02620            -840.00     4800.00
02621            -840.00     4880.00
02622            -840.00     4880.00
02623            -840.00     4880.00
02624            -840.00     4960.00
02625            -840.00     4960.00
02626            -860.00     4960.00
02627            -860.00     4960.00
02628            -860.00     5040.00
02629            -860.00     5040.00
02630            -880.00     5040.00
02631            -880.00     5120.00
02632            -880.00     5120.00
02633            -900.00     5120.00
02634            -900.00     5120.00
02635            -900.00     5200.00
02636            -900.00     5200.00
02637            -900.00     5200.00
02638            -900.00     5280.00
02639            -920.00     5280.00
02640            -900.00     5280.00
02641            -920.00     5280.00
02642            -920.00     5280.00
02643            -920.00     5360.00
02644            -920.00     5440.00
02645            -920.00     5360.00
02646            -920.00     5440.00
02647            -940.00     5440.00
02648            -940.00     5360.00
02649            -940.00     5440.00
02650            -940.00     5520.00
02651            -980.00     5440.00
02652            -940.00     5520.00
02653            -980.00     5600.00
02654            -980.00     5520.00
02655            -980.00     5600.00
02656            -980.00     5600.00
02657            -960.00     5600.00
02658            -980.00     5600.00
02659            -980.00     5680.00
02660           -1000.00     5680.00
02661            -980.00     5680.00
02662           -1000.00     5680.00
02663           -1000.00     5680.00
02664           -1000.00     5680.00
02665           -1000.00     5760.00
02666           -1020.00     5840.00
02667           -1020.00     5840.00
02668           -1000.00     5760.00
02669           -1020.00     5840.00
02670           -1020.00     5840.00
02671           -1020.00     5840.00
02672           -1020.00     5840.00
02673           -1020.00     5920.00
02674           -1020.00     5840.00
02675           -1040.00     5920.00
02676           -1020.00     5920.00
02677           -1060.00     5920.00
02678           -1060.00     5920.00
02679           -1060.00     5920.00
02680           -1060.00     5920.00
02681           -1080.00     6000.00
02682           -1060.00     6000.00
02683           -1080.00     5920.00
02684           -1080.00     6000.00
02685           -1080.00     6080.00
02686           -1080.00     6000.00
02687           -1060.00     6000.00
02688           -1100.00     6000.00
02689           -1080.00     6000.00
02690           -1080.00     6080.00
02691           -1080.00     6080.00
02692           -1100.00     6080.00
02693           -1100.00     6080.00
02694           -1080.00     6080.00
02695           -1080.00     6080.00
02696           -1100.00     6080.00
02697           -1100.00     6080.00
02698           -1100.00     6080.00
02699           -1080.00     6160.00
02700           -1100.00     6080.00
02701           -1100.00     6160.00
02702           -1100.00     6240.00
02703           -1100.00     6160.00
02704           -1140.00     6160.00
02705           -1100.00     6160.00
02706           -1100.00     6160.00
02707           -1100.00     6240.00
02708           -1120.00     6240.00
02709           -1100.00     6240.00
02710           -1100.00     6240.00
02711           -1120.00     6240.00
02712           -1100.00     6240.00
02713           -1120.00     6240.00
02714           -1120.00     6240.00
02715           -1140.00     6240.00
02716           -1100.00     6240.00
02717           -1140.00     6240.00
02718           -1140.00     6240.00
02719           -1140.00     6240.00
02720           -1140.00     6240.00
02721           -1120.00     6320.00
02722           -1140.00     6240.00
02723           -1140.00     6240.00
02724           -1140.00     6240.00
02725           -1140.00     6240.00
02726           -1140.00     6240.00
02727           -1140.00     6240.00
02728           -1140.00     6240.00
02729           -1140.00     6320.00
02730           -1160.00     6240.00
02731           -1140.00     6320.00
02732           -1140.00     6240.00
02733           -1140.00     6240.00
02734           -1140.00     6240.00
02735           -1140.00     6240.00
02736           -1140.00     6240.00
02737           -1140.00     6240.00
02738           -1140.00     6240.00
02739           -1160.00     6320.00
02740           -1140.00     6240.00
02741           -1160.00     6240.00
02742           -1160.00     6240.00
02743           -1160.00     6240.00
02744           -1160.00     6240.00
02745           -1160.00     6240.00
02746           -1160.00     6240.00
02747           -1160.00     6240.00
02748           -1160.00     6240.00
02749           -1160.00     6240.00
02750           -1160.00     6240.00
02751           -1140.00     6240.00
02752           -1140.00     6240.00
02753           -1160.00     6240.00
02754           -1160.00     6240.00
02755           -1160.00     6240.00
02756           -1160.00     6240.00
02757           -1160.00     6240.00
02758           -1160.00     6160.00
02759           -1160.00     6240.00
02760           -1160.00     6160.00
02761           -1160.00     6160.00
02762           -1160.00     6080.00
02763           -1160.00     6160.00
02764           -1160.00     6080.00
02765           -1160.00     6080.00
02766           -1140.00     6080.00
02767           -1140.00     6080.00
02768           -1140.00     6080.00
02769           -1140.00     6080.00
02770           -1140.00     6080.00
02771           -1140.00     6080.00
02772           -1160.00     6000.00
02773           -1140.00     6000.00
02774           -1140.00     6080.00
02775           -1140.00     6000.00
02776           -1140.00     6000.00
02777           -1140.00     6000.00
02778           -1140.00     6000.00
02779           -1100.00     6000.00
02780           -1100.00     6000.00
02781           -1120.00     6000.00
02782           -1100.00     6000.00
02783           -1140.00     5920.00
02784           -1120.00     5920.00
02785           -1120.00     5920.00
02786           -1100.00     5920.00
02787           -1100.00     5920.00
02788           -1100.00     5920.00
02789           -1100.00     5840.00
02790           -1100.00     5840.00
02791           -1100.00     5840.00
02792           -1100.00     5840.00
02793           -1080.00     5840.00
02794           -1100.00     5840.00
02795           -1100.00     5840.00
02796           -1080.00     5760.00
02797           -1080.00     5760.00
02798           -1080.00     5760.00
02799           -1080.00     5680.00
02800           -1080.00     5680.00
02801           -1080.00     5680.00
02802           -1080.00     5680.00
02803           -1080.00     5680.00
02804           -1080.00     5600.00
02805           -1080.00     5600.00
02806           -1080.00     5600.00
02807           -1080.00     5600.00
02808           -1080.00     5600.00
02809           -1060.00     5600.00
02810           -1060.00     5520.00
02811           -1060.00     5520.00
02812           -1060.00     5440.00
02813           -1060.00     5440.00
02814           -1080.00     5440.00
02815           -1020.00     5440.00
02816           -1060.00     5360.00
02817           -1060.00     5360.00
02818           -1060.00     5360.00
02819           -1060.00     5360.00
02820           -1020.00     5360.00
02821           -1020.00     5360.00
02822           -1020.00     5280.00
02823           -1020.00     5280.00
02824           -1020.00     5280.00
02825           -1020.00     5280.00
02826           -1020.00     5280.00
02827           -1020.00     5200.00
02828           -1020.00     5200.00
02829           -1000.00     5120.00
02830           -1020.00     5120.00
02831           -1000.00     5120.00
02832           -1000.00     5040.00
02833           -1000.00     5040.00
02834           -1000.00     5040.00
02835            -980.00     5040.00
02836            -980.00     5040.00
02837            -980.00     4960.00
02838            -980.00     4960.00
02839            -980.00     4960.00
02840            -980.00     4960.00
02841            -940.00     4800.00
02842            -960.00     4880.00
02843            -980.00     4800.00
02844            -940.00     4800.00
02845            -940.00     4800.00
02846            -940.00     4800.00
02847            -920.00     4720.00
02848            -920.00     4720.00
02849            -920.00     4640.00
02850            -920.00     4640.00
02851            -920.00     4640.00
02852            -920.00     4640.00
02853            -900.00     4560.00
02854            -900.00     4560.00
02855            -900.00     4480.00
02856            -900.00     4480.00
02857            -880.00     4480.00
02858            -900.00     4400.00
02859            -860.00     4400.00
02860            -900.00     4400.00
02861            -880.00     4320.00
02862            -860.00     4400.00
02863            -860.00     4320.00
02864            -860.00     4320.00
02865            -860.00     4240.00
02866            -840.00     4240.00
02867            -840.00     4240.00
02868            -840.00     4160.00
02869            -860.00     4080.00
02870            -840.00     4080.00
02871            -840.00     4080.00
02872            -840.00     4080.00
02873            -840.00     4000.00
02874            -840.00     4000.00
02875            -820.00     3920.00
02876            -820.00     3920.00
02877            -820.00     3840.00
02878            -820.00     3840.00
02879            -780.00     3840.00
02880            -780.00     3760.00
02881            -780.00     3760.00
02882            -780.00     3760.00
02883            -780.00     3760.00
02884            -760.00     3680.00
02885            -760.00     3680.00
02886            -760.00     3680.00
02887            -760.00     3600.00
02888            -740.00     3520.00
02889            -740.00     3520.00
02890            -740.00     3520.00
02891            -720.00     3440.00
02892            -740.00     3520.00
02893            -700.00     3440.00
02894            -700.00     3360.00
02895            -700.00     3360.00
02896            -700.00     3360.00
02897            -700.00     3280.00
02898            -680.00     3280.00
02899            -680.00     3280.00
02900            -680.00     3200.00
02901            -660.00     3200.00
02902            -680.00     3120.00
02903            -660.00     3120.00
02904            -640.00     3040.00
02905            -660.00     3040.00
02906            -620.00     3040.00
02907            -620.00     2880.00
02908            -620.00     2880.00
02909            -600.00     2880.00
02910            -600.00     2880.00
02911            -600.00     2800.00
02912            -600.00     2720.00
02913            -600.00     2720.00
02914            -580.00     2720.00
02915            -580.00     2720.00
02916            -580.00     2720.00
02917            -560.00     2560.00
02918            -580.00     2560.00
02919            -580.00     2560.00
02920            -560.00     2480.00
02921            -540.00     2560.00
02922            -540.00     2400.00
02923            -520.00     2400.00
02924            -520.00     2400.00
02925            -520.00     2400.00
02926            -520.00     2240.00
02927            -520.00     2240.00
02928            -500.00     2240.00
02929            -500.00     2160.00
02930            -460.00     2160.00
02931            -500.00     2160.00
02932            -460.00     2080.00
02933            -460.00     2080.00
02934            -460.00     2000.00
02935            -460.00     2000.00
02936            -460.00     1920.00
02937            -460.00     1920.00
02938            -440.00     1840.00
02939            -440.00     1840.00
02940            -440.00     1760.00
02941            -420.00     1760.00
02942            -440.00     1760.00
02943            -420.00     1680.00
02944            -420.00     1680.00
02945            -400.00     1600.00
02946            -380.00     1520.00
02947            -380.00     1520.00
02948            -380.00     1440.00
02949            -380.00     1440.00
02950            -360.00     1440.00
02951            -380.00     1440.00
02952            -360.00     1440.00
02953            -340.00     1360.00
02954            -360.00     1280.00
02955            -340.00     1280.00
02956            -320.00     1200.00
02957            -340.00     1120.00
02958            -300.00     1120.00
02959            -300.00     1120.00
02960            -280.00     1120.00
02961            -300.00     1040.00
02962            -280.00      960.00
02963            -280.00      960.00
02964            -260.00      880.00
02965            -260.00      880.00
02966            -280.00      800.00
02967            -240.00      800.00
02968            -240.00      800.00
02969            -220.00      720.00
02970            -220.00      720.00
02971            -220.00      640.00
02972            -220.00      560.00
02973            -200.00      560.00
02974            -200.00      560.00
02975            -200.00      480.00
02976            -180.00      480.00
02977            -180.00      400.00
02978            -180.00      320.00
02979            -140.00      320.00
02980            -140.00      320.00
02981            -120.00      240.00
02982            -140.00      160.00
02983            -120.00      240.00
02984            -120.00      160.00
02985            -120.00      160.00
02986            -120.00       80.00
02987            -100.00        0.00
02988            -120.00        0.00
02989             -60.00      -80.00
02990            -100.00      -80.00
02991             -60.00      -80.00
02992             -60.00     -160.00
02993             -60.00     -160.00
02994             -40.00     -240.00
02995             -40.00     -320.00
02996             -40.00     -320.00
02997             -40.00     -320.00
02998             -20.00     -320.00
02999             -20.00     -400.00
03000              20.00     -400.00
03001             -40.00     -640.00
03002             -40.00     -640.00
03003             -20.00     -560.00
03004              40.00     -480.00
03005              20.00     -720.00
03006               0.00     -800.00
03007              20.00     -640.00
03008              40.00     -720.00
03009              20.00     -880.00
03010              40.00     -800.00
03011              60.00     -800.00
03012              40.00     -960.00
03013              60.00    -1040.00
03014              80.00     -960.00
03015             100.00    -1120.00
03016              80.00    -1120.00
03017             100.00    -1040.00
03018             120.00    -1200.00
03019             100.00    -1280.00
03020             120.00    -1200.00
03021             140.00    -1280.00
03022             120.00    -1280.00
03023             140.00    -1360.00
03024             120.00    -1440.00
03025             140.00    -1440.00
03026             180.00    -1440.00
03027             180.00    -1520.00
03028             180.00    -1600.00
03029             200.00    -1600.00
03030             200.00    -1600.00
03031             200.00    -1600.00
03032             200.00    -1680.00
03033             220.00    -1680.00
03034             220.00    -1760.00
03035             240.00    -1760.00
03036             260.00    -1840.00
03037             220.00    -1840.00
03038             260.00    -1920.00
03039             260.00    -1840.00
03040             260.00    -1920.00
03041             280.00    -2000.00
03042             300.00    -2080.00
03043             300.00    -2080.00
03044             300.00    -2080.00
03045             300.00    -2160.00
03046             300.00    -2240.00
03047             340.00    -2240.00
03048             320.00    -2240.00
03049             340.00    -2320.00
03050             360.00    -2320.00
03051             360.00    -2400.00
03052             360.00    -2400.00
03053             360.00    -2480.00
03054             360.00    -2480.00
03055             360.00    -2560.00
03056             380.00    -2560.00
03057             400.00    -2640.00
03058             400.00    -2640.00
03059             420.00    -2640.00
03060             400.00    -2640.00
03061             420.00    -2720.00
03062             420.00    -2720.00
03063             420.00    -2720.00
03064             440.00    -2800.00
03065             440.00    -2800.00
03066             460.00    -2880.00
03067             440.00    -2880.00
03068             440.00    -2960.00
03069             460.00    -2960.00
03070             460.00    -3040.00
03071             500.00    -3040.00
03072             460.00    -3040.00
03073             500.00    -3120.00
03074             520.00    -3200.00
03075             500.00    -3200.00
03076             520.00    -3200.00
03077             520.00    -3280.00
03078             520.00    -3360.00
03079             520.00    -3360.00
03080             520.00    -3360.00
03081             540.00    -3360.00
03082             540.00    -3360.00
03083             540.00    -3520.00
03084             560.00    -3520.00
03085             560.00    -3520.00
03086             580.00    -3600.00
03087             580.00    -3600.00
03088             580.00    -3600.00
03089             600.00    -3680.00
03090             600.00    -3680.00
03091             600.00    -3680.00
03092             600.00    -3760.00
03093             600.00    -3760.00
03094             620.00    -3840.00
03095             620.00    -3840.00
03096             620.00    -3840.00
03097             640.00    -3920.00
03098             660.00    -3920.00
03099             660.00    -3920.00
03100             680.00    -3920.00
03101             660.00    -4000.00
03102             660.00    -4000.00
03103             680.00    -4080.00
03104             680.00    -4080.00
03105             680.00    -4160.00
03106             680.00    -4160.00
03107             700.00    -4160.00
03108             700.00    -4160.00
03109             700.00    -4320.00
03110             720.00    -4240.00
03111             740.00    -4320.00
03112             740.00    -4320.00
03113             740.00    -4320.00
03114             740.00    -4320.00
03115             760.00    -4400.00
03116             740.00    -4400.00
03117             760.00    -4480.00
03118             760.00    -4480.00
03119             760.00    -4480.00
03120             760.00    -4480.00
03121             780.00    -4560.00
03122             780.00    -4560.00
03123             780.00    -4640.00
03124             800.00    -4640.00
03125             820.00    -4640.00
03126             820.00    -4640.00
03127             820.00    -4720.00
03128             820.00    -4800.00
03129             820.00    -4720.00
03130             820.00    -4800.00
03131             820.00    -4800.00
03132             840.00    -4800.00
03133             840.00    -4800.00
03134             840.00    -4880.00
03135             840.00    -4880.00
03136             840.00    -4960.00
03137             840.00    -4960.00
03138             860.00    -4960.00
03139             840.00    -5040.00
03140             880.00    -4960.00
03141             860.00    -5040.00
03142             880.00    -5040.00
03143             900.00    -5120.00
03144             900.00    -5120.00
03145             900.00    -5120.00
03146             900.00    -5200.00
03147             900.00    -5200.00
03148             900.00    -5200.00
03149             900.00    -5200.00
03150             900.00    -5280.00
03151             920.00    -5200.00
03152             920.00    -5280.00
03153             920.00    -5280.00
03154             920.00    -5280.00
03155             940.00    -5280.00
03156             940.00    -5360.00
03157             940.00    -5360.00
03158             940.00    -5440.00
03159             940.00    -5440.00
03160             940.00    -5440.00
03161             980.00    -5440.00
03162             980.00    -5440.00
03163             980.00    -5520.00
03164             960.00    -5520.00
03165             980.00    -5520.00
03166            1000.00    -5520.00
03167             980.00    -5600.00
03168             980.00    -5520.00
03169             980.00    -5600.00
03170            1000.00    -5600.00
03171            1000.00    -5600.00
03172            1000.00    -5600.00
03173            1000.00    -5680.00
03174            1000.00    -5680.00
03175            1000.00    -5680.00
03176            1020.00    -5680.00
03177            1020.00    -5760.00
03178            1000.00    -5760.00
03179            1020.00    -5760.00
03180            1020.00    -5760.00
03181            1020.00    -5760.00
03182            1060.00    -5760.00
03183            1040.00    -5760.00
03184            1060.00    -5840.00
03185            1060.00    -5760.00
03186            1060.00    -5840.00
03187            1060.00    -5840.00
03188            1060.00    -5840.00
03189            1060.00    -5920.00
03190            1060.00    -5840.00
03191            1060.00    -5920.00
03192            1060.00    -5920.00
03193            1060.00    -5920.00
03194            1060.00    -5920.00
03195            1080.00    -5920.00
03196            1080.00    -5920.00
03197            1080.00    -5920.00
03198            1080.00    -5920.00
03199            1060.00    -5920.00
03200            1080.00    -6000.00
03201            1080.00    -5920.00
03202            1080.00    -6000.00
03203            1080.00    -6000.00
03204            1080.00    -6080.00
03205            1080.00    -6080.00
03206            1080.00    -6080.00
03207            1080.00    -6080.00
03208            1100.00    -6080.00
03209            1080.00    -6080.00
03210            1080.00    -6080.00
03211            1100.00    -6080.00
03212            1100.00    -6080.00
03213            1100.00    -6160.00
03214            1100.00    -6080.00
03215            1100.00    -6080.00
03216            1100.00    -6080.00
03217            1100.00    -6160.00
03218            1100.00    -6080.00
03219            1100.00    -6160.00
03220            1140.00    -6080.00
03221            1100.00    -6160.00
03222            1140.00    -6160.00
03223            1100.00    -6080.00
03224            1140.00    -6160.00
03225            1140.00    -6160.00
03226            1120.00    -6080.00
03227            1140.00    -6240.00
03228            1140.00    -6080.00
03229            1140.00    -6160.00
03230            1140.00    -6160.00
03231            1140.00    -6160.00
03232            1140.00    -6160.00
03233            1140.00    -6160.00
03234            1140.00    -6160.00
03235            1140.00    -6160.00
03236            1160.00    -6160.00
03237            1160.00    -6160.00
03238            1160.00    -6160.00
03239            1140.00    -6240.00
03240            1160.00    -6160.00
03241            1160.00    -6160.00
03242            1160.00    -6160.00
03243            1160.00    -6160.00
03244            1160.00    -6160.00
03245            1160.00    -6160.00
03246            1160.00    -6160.00
03247            1160.00    -6160.00
03248            1160.00    -6160.00
03249            1140.00    -6160.00
03250            1160.00    -6160.00
03251            1160.00    -6160.00
03252            1160.00    -6160.00
03253            1160.00    -6080.00
03254            1160.00    -6160.00
03255            1160.00    -6160.00
03256            1140.00    -6160.00
03257            1160.00    -6080.00
03258            1140.00    -6080.00
03259            1160.00    -6160.00
03260            1160.00    -6080.00
03261            1140.00    -6080.00
03262            1160.00    -6080.00
03263            1160.00    -6080.00
03264            1160.00    -6160.00
03265            1160.00    -6080.00
03266            1140.00    -6080.00
03267            1160.00    -6080.00
03268            1140.00    -6080.00
03269            1140.00    -6080.00
03270            1140.00    -6080.00
03271            1140.00    -6080.00
03272            1140.00    -6000.00
03273            1140.00    -6080.00
03274            1140.00    -6080.00
03275            1140.00    -6000.00
03276            1140.00    -6000.00
03277            1140.00    -6000.00
03278            1140.00    -5920.00
03279            1140.00    -5920.00
03280            1140.00    -6000.00
03281            1140.00    -6000.00
03282            1140.00    -6000.00
03283            1140.00    -5920.00
03284            1120.00    -5920.00
03285            1140.00    -5920.00
03286            1140.00    -5920.00
03287            1120.00    -5920.00
03288            1120.00    -5920.00
03289            1140.00    -5840.00
03290            1120.00    -5920.00
03291            1140.00    -5840.00
03292            1140.00    -5920.00
03293            1100.00    -5840.00
03294            1100.00    -5840.00
03295            1100.00    -5840.00
03296            1120.00    -5840.00
03297            1100.00    -5760.00
03298            1100.00    -5760.00
03299            1120.00    -5760.00
03300            1100.00    -5760.00
03301            1100.00    -5760.00
03302            1080.00    -5680.00
03303            1100.00    -5760.00
03304            1100.00    -5600.00
03305            1080.00    -5680.00
03306            1100.00    -5680.00
03307            1100.00    -5600.00
03308            1080.00    -5600.00
03309            1080.00    -5600.00
03310            1080.00    -5600.00
03311            1080.00    -5520.00
03312            1080.00    -5520.00
03313            1060.00    -5520.00
03314            1080.00    -5520.00
03315            1060.00    -5440.00
03316            1080.00    -5440.00
03317            1060.00    -5440.00
03318            1060.00    -5440.00
03319            1080.00    -5440.00
03320            1060.00    -5440.00
03321            1060.00    -5440.00
03322            1060.00    -5360.00
03323            1060.00    -5360.00
03324            1060.00    -5280.00
03325            1040.00    -5280.00
03326            1060.00    -5280.00
03327            1060.00    -5280.00
03328            1020.00    -5280.00
03329            1020.00    -5280.00
03330            1020.00    -5200.00
03331            1020.00    -5200.00
03332            1000.00    -5200.00
03333            1000.00    -5120.00
03334            1000.00    -5120.00
03335            1000.00    -5120.00
03336            1000.00    -5120.00
03337            1000.00    -5120.00
03338            1000.00    -5120.00
03339            1000.00    -5040.00
03340            1000.00    -5040.00
03341             980.00    -4960.00
03342             980.00    -4960.00
03343            1000.00    -4960.00
03344             980.00    -4960.00
03345             980.00    -4880.00
03346             960.00    -4960.00
03347             960.00    -4880.00
03348             960.00    -4880.00
03349             940.00    -4800.00
03350             940.00    -4800.00
03351             940.00    -4800.00
03352             920.00    -4720.00
03353             940.00    -4800.00
03354             940.00    -4640.00
03355             920.00    -4640.00
03356             920.00    -4640.00
03357             900.00    -4560.00
03358             920.00    -4560.00
03359             920.00    -4560.00
03360             900.00    -4480.00
03361             900.00    -4400.00
03362             900.00    -4480.00
03363             900.00    -4400.00
03364             900.00    -4400.00
03365             900.00    -4320.00
03366             860.00    -4320.00
03367             900.00    -4320.00
03368             880.00    -4320.00
03369             860.00    -4320.00
03370             880.00    -4240.00
03371             860.00    -4240.00
03372             860.00    -4160.00
03373             860.00    -4160.00
03374             860.00    -4160.00
03375             840.00    -4160.00
03376             840.00    -4080.00
03377             840.00    -4160.00
03378             840.00    -4000.00
03379             840.00    -4000.00
03380             840.00    -3920.00
03381             820.00    -3920.00
03382             820.00    -3920.00
03383             820.00    -3920.00
03384             820.00    -3840.00
03385             820.00    -3840.00
03386             780.00    -3760.00
03387             780.00    -3840.00
03388             780.00    -3760.00
03389             780.00    -3760.00
03390             760.00    -3680.00
03391             760.00    -3680.00
03392             760.00    -3600.00
03393             760.00    -3600.00
03394             740.00    -3600.00
03395             740.00    -3520.00
03396             740.00    -3440.00
03397             740.00    -3440.00
03398             740.00    -3520.00
03399             720.00    -3360.00
03400             700.00    -3360.00
03401             720.00    -3280.00
03402             700.00    -3280.00
03403             680.00    -3280.00
03404             680.00    -3280.00
03405             680.00    -3200.00
03406             660.00    -3200.00
03407             660.00    -3200.00
03408             660.00    -3040.00
03409             680.00    -3120.00
03410             660.00    -3040.00
03411             660.00    -3040.00
03412             660.00    -2960.00
03413             660.00    -2960.00
03414             620.00    -2960.00
03415             620.00    -2880.00
03416             620.00    -2880.00
03417             600.00    -2880.00
03418             620.00    -2800.00
03419             600.00    -2720.00
03420             600.00    -2720.00
03421             600.00    -2640.00
03422             600.00    -2640.00
03423             580.00    -2560.00
03424             580.00    -2560.00
03425             580.00    -2560.00
03426             580.00    -2480.00
03427             560.00    -2480.00
03428             520.00    -2480.00
03429             540.00    -2400.00
03430             540.00    -2320.00
03431             520.00    -2320.00
03432             520.00    -2320.00
03433             520.00    -2240.00
03434             520.00    -2240.00
03435             520.00    -2240.00
03436             520.00    -2080.00
03437             500.00    -2080.00
03438             500.00    -2080.00
03439             480.00    -2080.00
03440             460.00    -2000.00
03441             480.00    -1920.00
03442             460.00    -1920.00
03443             460.00    -1840.00
03444             460.00    -1840.00
03445             440.00    -1840.00
03446             440.00    -1760.00
03447             420.00    -1840.00
03448             420.00    -1680.00
03449             420.00    -1680.00
03450             420.00    -1680.00
03451             420.00    -1600.00
03452             420.00    -1600.00
03453             420.00    -1600.00
03454             380.00    -1520.00
03455             380.00    -1440.00
03456             380.00    -1360.00
03457             360.00    -1440.00
03458             360.00    -1360.00
03459             340.00    -1360.00
03460             360.00    -1280.00
03461             340.00    -1280.00
03462             340.00    -1120.00
03463             300.00    -1280.00
03464             320.00    -1120.00
03465             300.00    -1120.00
03466             280.00    -1040.00
03467             280.00    -1040.00
03468             260.00    -1040.00
03469             280.00     -880.00
03470             260.00     -960.00
03471             260.00     -880.00
03472             260.00     -880.00
03473             240.00     -800.00
03474             260.00     -720.00
03475             220.00     -800.00
03476             220.00     -640.00
03477             220.00     -640.00
03478             220.00     -640.00
03479             200.00     -560.00
03480             200.00     -640.00
03481             200.00     -480.00
03482             200.00     -480.00
03483             180.00     -400.00
03484             180.00     -400.00
03485             180.00     -400.00
03486             180.00     -240.00
03487             140.00     -320.00
03488             140.00     -160.00
03489             140.00     -160.00
03490             140.00     -160.00
03491             120.00     -160.00
03492             120.00      -80.00
03493             120.00      -80.00
03494             100.00        0.00
03495             100.00        0.00
03496             100.00        0.00
03497             100.00       80.00
03498             100.00      160.00
03499              80.00      160.00
03500              80.00      160.00
03501              60.00      240.00
03502              40.00      320.00
03503              40.00      320.00
03504              40.00      320.00
03505              40.00      400.00
03506              40.00      480.00
03507              40.00      560.00
03508              20.00      560.00
03509             -20.00      480.00
03510             -20.00      560.00
03511              20.00      800.00
03512              20.00      800.00
03513             -40.00      640.00
03514             -40.00      720.00
03515              20.00      880.00
03516             -60.00      800.00
03517             -40.00      800.00
03518             -40.00     1120.00
03519             -40.00      960.00
03520             -80.00      880.00
03521             -60.00     1120.00
03522             -60.00     1120.00
03523            -100.00      960.00
03524            -100.00     1200.00
03525            -100.00     1200.00
03526            -120.00     1200.00
03527            -120.00     1280.00
03528            -120.00     1360.00
03529            -140.00     1280.00
03530            -120.00     1360.00
03531            -140.00     1440.00
03532            -180.00     1440.00
03533            -160.00     1520.00
03534            -180.00     1520.00
03535            -200.00     1520.00
03536            -200.00     1600.00
03537            -200.00     1600.00
03538            -220.00     1600.00
03539            -220.00     1760.00
03540            -220.00     1760.00
03541            -240.00     1760.00
03542            -220.00     1840.00
03543            -260.00     1840.00
03544            -260.00     1920.00
03545            -260.00     1920.00
03546            -260.00     1920.00
03547            -280.00     2000.00
03548            -280.00     2080.00
03549            -280.00     2080.00
03550            -280.00     2160.00
03551            -300.00     2160.00
03552            -280.00     2240.00
03553            -300.00     2240.00
03554            -320.00     2240.00
03555            -300.00     2320.00
03556            -340.00     2400.00
03557            -360.00     2400.00
03558            -340.00     2400.00
03559            -360.00     2480.00
03560            -360.00     2480.00
03561            -360.00     2560.00
03562            -360.00     2560.00
03563            -380.00     2560.00
03564            -380.00     2640.00
03565            -380.00     2720.00
03566            -420.00     2720.00
03567            -400.00     2720.00
03568            -420.00     2720.00
03569            -420.00     2800.00
03570            -420.00     2800.00
03571            -440.00     2880.00
03572            -440.00     2880.00
03573            -440.00     2880.00
03574            -440.00     2960.00
03575            -460.00     3040.00
03576            -440.00     3040.00
03577            -460.00     3120.00
03578            -480.00     3120.00
03579            -460.00     3120.00
03580            -480.00     3280.00
03581            -500.00     3200.00
03582            -460.00     3280.00
03583            -500.00     3280.00
03584            -520.00     3360.00
03585            -520.00     3360.00
03586            -540.00     3360.00
03587            -520.00     3360.00
03588            -540.00     3440.00
03589            -540.00     3440.00
03590            -580.00     3440.00
03591            -560.00     3520.00
03592            -580.00     3520.00
03593            -600.00     3520.00
03594            -580.00     3600.00
03595            -580.00     3680.00
03596            -600.00     3760.00
03597            -600.00     3680.00
03598            -620.00     3760.00
03599            -600.00     3760.00
03600            -620.00     3840.00
03601            -620.00     3840.00
03602            -620.00     3840.00
03603            -620.00     3840.00
03604            -640.00     4000.00
03605            -660.00     4000.00
03606            -660.00     4000.00
03607            -660.00     4000.00
03608            -680.00     4000.00
03609            -680.00     4080.00
03610            -680.00     4160.00
03611            -680.00     4080.00
03612            -700.00     4160.00
03613            -700.00     4160.00
03614            -700.00     4240.00
03615            -700.00     4240.00
03616            -700.00     4320.00
03617            -700.00     4320.00
03618            -720.00     4320.00
03619            -700.00     4320.00
03620            -740.00     4400.00
03621            -740.00     4400.00
03622            -740.00     4480.00
03623            -760.00     4480.00
03624            -740.00     4480.00
03625            -760.00     4480.00
03626            -760.00     4560.00
03627            -760.00     4640.00
03628            -760.00     4640.00
03629            -760.00     4720.00
03630            -780.00     4640.00
03631            -780.00     4720.00
03632            -800.00     4720.00
03633            -780.00     4720.00
03634            -800.00     4800.00
03635            -800.00     4720.00
03636            -820.00     4800.00
03637            -820.00     4880.00
03638            -820.00     4800.00
03639            -840.00     4960.00
03640            -840.00     4960.00
03641            -840.00     4960.00
03642            -860.00     4960.00
03643            -840.00     5040.00
03644            -860.00     5040.00
03645            -860.00     5040.00
03646            -860.00     5120.00
03647            -860.00     5120.00
03648            -860.00     5120.00
03649            -860.00     5120.00
03650            -900.00     5200.00
03651            -900.00     5120.00
03652            -900.00     5120.00
03653            -900.00     5280.00
03654            -920.00     5280.00
03655            -920.00     5280.00
03656            -920.00     5280.00
03657            -920.00     5280.00
03658            -920.00     5360.00
03659            -920.00     5280.00
03660            -920.00     5360.00
03661            -940.00     5360.00
03662            -940.00     5360.00
03663            -940.00     5440.00
03664            -940.00     5440.00
03665            -940.00     5440.00
03666            -940.00     5440.00
03667            -940.00     5440.00
03668            -980.00     5520.00
03669            -980.00     5440.00
03670            -980.00     5600.00
03671            -980.00     5520.00
03672            -980.00     5600.00
03673           -1000.00     5600.00
03674            -980.00     5680.00
03675           -1000.00     5600.00
03676           -1000.00     5680.00
03677           -1000.00     5600.00
03678           -1020.00     5680.00
03679           -1020.00     5680.00
03680           -1000.00     5680.00
03681           -1020.00     5760.00
03682           -1020.00     5680.00
03683           -1020.00     5840.00
03684           -1000.00     5760.00
03685           -1020.00     5840.00
03686           -1020.00     5840.00
03687           -1020.00     5760.00
03688           -1040.00     5920.00
03689           -1020.00     5840.00
03690           -1040.00     5920.00
03691           -1060.00     5920.00
03692           -1020.00     5920.00
03693           -1060.00     5920.00
03694           -1040.00     5920.00
03695           -1060.00     5920.00
03696           -1060.00     5920.00
03697           -1060.00     5920.00
03698           -1060.00     6000.00
03699           -1060.00     6000.00
03700           -1080.00     6000.00
03701           -1080.00     6000.00
03702           -1060.00     6000.00
03703           -1080.00     6000.00
03704           -1080.00     6080.00
03705           -1080.00     6000.00
03706           -1080.00     6000.00
03707           -1080.00     6080.00
03708           -1080.00     6080.00
03709           -1080.00     6080.00
03710           -1080.00     6080.00
03711           -1080.00     6080.00
03712           -1100.00     6080.00
03713           -1080.00     6080.00
03714           -1100.00     6080.00
03715           -1080.00     6160.00
03716           -1100.00     6080.00
03717           -1100.00     6080.00
03718           -1100.00     6160.00
03719           -1100.00     6160.00
03720           -1120.00     6240.00
03721           -1120.00     6160.00
03722           -1140.00     6240.00
03723           -1100.00     6240.00
03724           -1140.00     6240.00
03725           -1100.00     6240.00
03726           -1140.00     6240.00
03727           -1140.00     6240.00
03728           -1140.00     6240.00
03729           -1120.00     6240.00
03730           -1140.00     6240.00
03731           -1140.00     6240.00
03732           -1140.00     6240.00
03733           -1140.00     6320.00
03734           -1140.00     6240.00
03735           -1140.00     6240.00
03736           -1160.00     6240.00
03737           -1140.00     6240.00
03738           -1140.00     6240.00
03739           -1160.00     6240.00
03740           -1140.00     6240.00
03741           -1160.00     6240.00
03742           -1140.00     6240.00
03743           -1160.00     6320.00
03744           -1140.00     6240.00
03745           -1160.00     6240.00
03746           -1140.00     6320.00
03747           -1160.00     6240.00
03748           -1160.00     6320.00
03749           -1160.00     6320.00
03750           -1140.00     6240.00
03751           -1160.00     6320.00
03752           -1140.00     6320.00
03753           -1160.00     6240.00
03754           -1140.00     6240.00
03755           -1160.00     6320.00
03756           -1160.00     6240.00
03757           -1140.00     6240.00
03758           -1160.00     6240.00
03759           -1140.00     6240.00
03760           -1160.00     6240.00
03761           -1140.00     6240.00
03762           -1160.00     6240.00
03763           -1140.00     6240.00
03764           -1140.00     6240.00
03765           -1160.00     6240.00
03766           -1140.00     6240.00
03767           -1160.00     6240.00
03768           -1160.00     6240.00
03769           -1140.00     6240.00
03770           -1160.00     6240.00
03771           -1140.00     6240.00
03772           -1140.00     6240.00
03773           -1140.00     6240.00
03774           -1140.00     6240.00
03775           -1160.00     6240.00
03776           -1140.00     6160.00
03777           -1160.00     6240.00
03778           -1160.00     6080.00
03779           -1140.00     6080.00
03780           -1140.00     6080.00
03781           -1140.00     6240.00
03782           -1140.00     6080.00
03783           -1160.00     6080.00
03784           -1140.00     6160.00
03785           -1140.00     6080.00
03786           -1160.00     6080.00
03787           -1140.00     6080.00
03788           -1160.00     6080.00
03789           -1140.00     6000.00
03790           -1140.00     6080.00
03791           -1140.00     6000.00
03792           -1140.00     6000.00
03793           -1140.00     6080.00
03794           -1140.00     6080.00
03795           -1140.00     6000.00
03796           -1140.00     6000.00
03797           -1140.00     6000.00
03798           -1140.00     5920.00
03799           -1120.00     6000.00
03800           -1100.00     5920.00
03801           -1140.00     5920.00
03802           -1140.00     5920.00
03803           -1140.00     5920.00
03804           -1140.00     5920.00
03805           -1100.00     5840.00
03806           -1100.00     5920.00
03807           -1100.00     5840.00
03808           -1100.00     5840.00
03809           -1100.00     5840.00
03810           -1100.00     5760.00
03811           -1100.00     5760.00
03812           -1100.00     5840.00
03813           -1100.00     5760.00
03814           -1080.00     5760.00
03815           -1100.00     5680.00
03816           -1100.00     5680.00
03817           -1080.00     5680.00
03818           -1080.00     5760.00
03819           -1080.00     5600.00
03820           -1100.00     5680.00
03821           -1080.00     5600.00
03822           -1080.00     5680.00
03823           -1080.00     5520.00
03824           -1080.00     5600.00
03825           -1060.00     5600.00
03826           -1080.00     5600.00
03827           -1060.00     5600.00
03828           -1060.00     5440.00
03829           -1060.00     5440.00
03830           -1060.00     5440.00
03831           -1020.00     5440.00
03832           -1060.00     5440.00
03833           -1020.00     5440.00
03834           -1040.00     5360.00
03835           -1020.00     5360.00
03836           -1020.00     5360.00
03837           -1020.00     5280.00
03838           -1020.00     5280.00
03839           -1020.00     5280.00
03840           -1020.00     5280.00
03841           -1000.00     5280.00
03842           -1020.00     5280.00
03843           -1020.00     5200.00
03844           -1000.00     5120.00
03845           -1000.00     5120.00
03846           -1000.00     5120.00
03847           -1000.00     5120.00
03848           -1000.00     5120.00
03849            -980.00     5120.00
03850            -980.00     5040.00
03851           -1000.00     5040.00
03852            -980.00     5040.00
03853            -980.00     4960.00
03854            -980.00     4960.00
03855            -980.00     4960.00
03856            -960.00     4960.00
03857            -980.00     4880.00
03858            -940.00     4880.00
03859            -940.00     4800.00
03860            -980.00     4800.00
03861            -940.00     4800.00
03862            -940.00     4800.00
03863            -940.00     4720.00
03864            -940.00     4720.00
03865            -940.00     4720.00
03866            -940.00     4640.00
03867            -920.00     4640.00
03868            -920.00     4640.00
03869            -920.00     4640.00
03870            -920.00     4480.00
03871            -920.00     4480.00
03872            -920.00     4480.00
03873            -920.00     4480.00
03874            -900.00     4400.00
03875            -900.00     4400.00
03876            -900.00     4400.00
03877            -900.00     4400.00
03878            -880.00     4320.00
03879            -860.00     4320.00
03880            -860.00     4320.00
03881            -860.00     4240.00
03882            -860.00     4320.00
03883            -860.00     4160.00
03884            -860.00     4240.00
03885            -860.00     4080.00
03886            -840.00     4160.00
03887            -840.00     4160.00
03888            -820.00     4000.00
03889            -840.00     4000.00
03890            -840.00     4000.00
03891            -820.00     4000.00
03892            -820.00     3920.00
03893            -780.00     4000.00
03894            -800.00     3840.00
03895            -780.00     3840.00
03896            -820.00     3760.00
03897            -780.00     3840.00
03898            -760.00     3760.00
03899            -760.00     3760.00
03900            -760.00     3760.00
03901            -760.00     3680.00
03902            -760.00     3680.00
03903            -740.00     3600.00
03904            -760.00     3520.00
03905            -740.00     3520.00
03906            -740.00     3520.00
03907            -740.00     3440.00
03908            -720.00     3440.00
03909            -720.00     3440.00
03910            -700.00     3360.00
03911            -700.00     3360.00
03912            -700.00     3360.00
03913            -700.00     3360.00
03914            -700.00     3200.00
03915            -700.00     3280.00
03916            -700.00     3200.00
03917            -680.00     3280.00
03918            -680.00     3120.00
03919            -680.00     3120.00
03920            -660.00     3040.00
03921            -660.00     3040.00
03922            -660.00     2960.00
03923            -640.00     3040.00
03924            -620.00     2880.00
03925            -620.00     2880.00
03926            -620.00     2880.00
03927            -620.00     2880.00
03928            -620.00     2800.00
03929            -600.00     2800.00
03930            -600.00     2720.00
03931            -600.00     2720.00
03932            -600.00     2640.00
03933            -580.00     2560.00
03934            -600.00     2560.00
03935            -580.00     2560.00
03936            -580.00     2560.00
03937            -560.00     2480.00
03938            -540.00     2480.00
03939            -540.00     2400.00
03940            -520.00     2400.00
03941            -520.00     2320.00
03942            -520.00     2400.00
03943            -520.00     2240.00
03944            -500.00     2240.00
03945            -500.00     2240.00
03946            -500.00     2160.00
03947            -500.00     2160.00
03948            -500.00     2080.00
03949            -460.00     2080.00
03950            -460.00     2000.00
03951            -460.00     2000.00
03952            -440.00     2000.00
03953            -440.00     1920.00
03954            -440.00     1840.00
03955            -440.00     1840.00
03956            -440.00     1840.00
03957            -420.00     1760.00
03958            -420.00     1760.00
03959            -380.00     1760.00
03960            -400.00     1680.00
03961            -400.00     1600.00
03962            -380.00     1600.00
03963            -380.00     1520.00
03964            -380.00     1520.00
03965            -360.00     1440.00
03966            -340.00     1440.00
03967            -360.00     1440.00
03968            -360.00     1360.00
03969            -340.00     1360.00
03970            -340.00     1280.00
03971            -340.00     1280.00
03972            -300.00     1280.00
03973            -300.00     1200.00
03974            -300.00     1200.00
03975            -300.00     1120.00
03976            -300.00     1040.00
03977            -280.00     1040.00
03978            -280.00      960.00
03979            -280.00      960.00
03980            -260.00      880.00
03981            -280.00      880.00
03982            -260.00      800.00
03983            -260.00      800.00
03984            -260.00      800.00
03985            -260.00      800.00
03986            -220.00      640.00
03987            -220.00      720.00
03988            -220.00      640.00
03989            -220.00      560.00
03990            -220.00      560.00
03991            -200.00      560.00
03992            -200.00      480.00
03993            -200.00      480.00
03994            -200.00      320.00
03995            -180.00      320.00
03996            -180.00      320.00
03997            -140.00      320.00
03998            -140.00      240.00
03999            -140.00      160.00
04000            -140.00      160.00
04001            -120.00      160.00
04002            -120.00       80.00
04003            -120.00        0.00
04004            -120.00        0.00
04005            -100.00        0.00
04006            -100.00      -80.00
04007            -100.00      -80.00
04008            -100.00     -160.00
04009             -60.00     -160.00
04010             -60.00     -160.00
04011             -60.00     -240.00
04012             -60.00     -320.00
04013             -40.00     -320.00
04014             -40.00     -320.00
04015             -40.00     -320.00
04016             -20.00     -400.00
04017             -20.00     -480.00
04018             -40.00     -640.00
04019             -20.00     -640.00
04020              20.00     -480.00
04021              40.00     -560.00
04022              20.00     -800.00
04023              20.00     -720.00
04024              60.00     -640.00
04025              40.00     -800.00
04026              40.00     -960.00
04027              60.00     -800.00
04028              60.00     -880.00
04029              60.00    -1040.00
04030              60.00     -960.00
04031             100.00     -960.00
04032              80.00    -1120.00
04033             100.00    -1040.00
04034             120.00    -1120.00
04035             100.00    -1280.00
04036             120.00    -1120.00
04037             140.00    -1200.00
04038             140.00    -1280.00
04039             120.00    -1280.00
04040             180.00    -1360.00
04041             160.00    -1440.00
04042             180.00    -1360.00
04043             180.00    -1440.00
04044             180.00    -1600.00
04045             180.00    -1600.00
04046             200.00    -1600.00
04047             200.00    -1600.00
04048             200.00    -1680.00
04049             200.00    -1680.00
04050             200.00    -1760.00
04051             220.00    -1760.00
04052             220.00    -1760.00
04053             220.00    -1840.00
04054             260.00    -1840.00
04055             260.00    -1920.00
04056             260.00    -1920.00
04057             260.00    -2000.00
04058             280.00    -2000.00
04059             280.00    -2080.00
04060             300.00    -2080.00
04061             280.00    -2160.00
04062             280.00    -2160.00
04063             300.00    -2240.00
04064             320.00    -2320.00
04065             340.00    -2240.00
04066             340.00    -2240.00
04067             340.00    -2400.00
04068             340.00    -2400.00
04069             340.00    -2400.00
04070             360.00    -2400.00
04071             360.00    -2480.00
04072             360.00    -2560.00
04073             360.00    -2560.00
04074             380.00    -2640.00
04075             400.00    -2640.00
04076             420.00    -2720.00
04077             420.00    -2720.00
04078             420.00    -2720.00
04079             420.00    -2720.00
04080             420.00    -2880.00
04081             440.00    -2880.00
04082             440.00    -2880.00
04083             440.00    -2880.00
04084             460.00    -2880.00
04085             460.00    -2960.00
04086             460.00    -2960.00
04087             480.00    -3040.00
04088             460.00    -3040.00
04089             500.00    -3200.00
04090             500.00    -3200.00
04091             520.00    -3200.00
04092             520.00    -3200.00
04093             520.00    -3200.00
04094             520.00    -3280.00
04095             520.00    -3280.00
04096             520.00    -3360.00
04097             540.00    -3360.00
04098             540.00    -3360.00
04099             540.00    -3520.00
04100             580.00    -3520.00
04101             580.00    -3520.00
04102             580.00    -3520.00
04103             580.00    -3600.00
04104             580.00    -3600.00
04105             600.00    -3600.00
04106             600.00    -3600.00
04107             600.00    -3680.00
04108             600.00    -3680.00
04109             600.00    -3760.00
04110             620.00    -3760.00
04111             620.00    -3840.00
04112             620.00    -3840.00
04113             620.00    -3920.00
04114             620.00    -3920.00
04115             620.00    -3920.00
04116             660.00    -4000.00
04117             660.00    -3920.00
04118             680.00    -4000.00
04119             680.00    -4000.00
04120             680.00    -4160.00
04121             680.00    -4160.00
04122             680.00    -4160.00
04123             700.00    -4240.00
04124             680.00    -4160.00
04125             700.00    -4240.00
04126             700.00    -4240.00
04127             700.00    -4240.00
04128             740.00    -4320.00
04129             720.00    -4320.00
04130             740.00    -4320.00
04131             740.00    -4400.00
04132             760.00    -4480.00
04133             740.00    -4400.00
04134             760.00    -4480.00
04135             760.00    -4480.00
04136             740.00    -4560.00
04137             760.00    -4560.00
04138             780.00    -4560.00
04139             780.00    -4640.00
04140             780.00    -4640.00
04141             780.00    -4640.00
04142             820.00    -4720.00
04143             820.00    -4640.00
04144             800.00    -4800.00
04145             820.00    -4800.00
04146             820.00    -4800.00
04147             820.00    -4800.00
04148             840.00    -4880.00
04149             840.00    -4800.00
04150             840.00    -4960.00
04151             840.00    -4880.00
04152             860.00    -4960.00
04153             860.00    -4960.00
04154             860.00    -4960.00
04155             860.00    -4960.00
04156             860.00    -4960.00
04157             880.00    -5040.00
04158             900.00    -5040.00
04159             900.00    -5120.00
04160             880.00    -5040.00
04161             900.00    -5120.00
04162             900.00    -5120.00
04163             920.00    -5200.00
04164             900.00    -5200.00
04165             920.00    -5120.00
04166             920.00    -5280.00
04167             920.00    -5280.00
04168             920.00    -5200.00
04169             940.00    -5280.00
04170             940.00    -5280.00
04171             920.00    -5280.00
04172             940.00    -5280.00
04173             940.00    -5280.00
04174             940.00    -5440.00
04175             960.00    -5440.00
04176             960.00    -5440.00
04177             980.00    -5440.00
04178             960.00    -5440.00
04179             980.00    -5440.00
04180             980.00    -5440.00
04181             980.00    -5520.00
04182             980.00    -5520.00
04183             980.00    -5520.00
04184             980.00    -5600.00
04185            1000.00    -5600.00
04186             980.00    -5600.00
04187            1000.00    -5600.00
04188            1000.00    -5680.00
04189            1000.00    -5600.00
04190            1000.00    -5600.00
04191            1000.00    -5680.00
04192            1000.00    -5760.00
04193            1020.00    -5760.00
04194            1000.00    -5760.00
04195            1020.00    -5840.00
04196            1020.00    -5760.00
04197            1040.00    -5760.00
04198            1020.00    -5760.00
04199            1060.00    -5840.00
04200            1020.00    -5760.00
04201            1040.00    -5840.00
04202            1060.00    -5840.00
04203            1060.00    -5840.00
04204            1060.00    -5840.00
04205            1060.00    -5920.00
04206            1060.00    -5840.00
04207            1060.00    -5840.00
04208            1060.00    -5920.00
04209            1060.00    -5920.00
04210            1060.00    -5920.00
04211            1060.00    -5920.00
04212            1080.00    -5920.00
04213            1080.00    -5920.00
04214            1080.00    -5920.00
04215            1060.00    -5920.00
04216            1100.00    -6000.00
04217            1080.00    -5920.00
04218            1100.00    -6000.00
04219            1080.00    -6000.00
04220            1100.00    -6000.00
04221            1100.00    -6000.00
04222            1100.00    -6080.00
04223            1100.00    -6080.00
04224            1100.00    -5920.00
04225            1100.00    -6080.00
04226            1140.00    -6080.00
04227            1100.00    -6080.00
04228            1100.00    -6080.00
04229            1100.00    -6080.00
04230            1140.00    -6080.00
04231            1140.00    -6160.00
04232            1120.00    -6080.00
04233            1100.00    -6080.00
04234            1120.00    -6080.00
04235            1120.00    -6160.00
04236            1100.00    -6160.00
04237            1140.00    -6160.00
04238            1140.00    -6160.00
04239            1140.00    -6080.00
04240            1140.00    -6160.00
04241            1140.00    -6080.00
04242            1140.00    -6160.00
04243            1140.00    -6160.00
04244            1100.00    -6160.00
04245            1140.00    -6160.00
04246            1140.00    -6080.00
04247            1140.00    -6160.00
04248            1140.00    -6160.00
04249            1140.00    -6160.00
04250            1140.00    -6160.00
04251            1160.00    -6160.00
04252            1140.00    -6160.00
04253            1140.00    -6160.00
04254            1140.00    -6160.00
04255            1140.00    -6160.00
04256            1140.00    -6240.00
04257            1140.00    -6160.00
04258            1140.00    -6160.00
04259            1160.00    -6160.00
04260            1160.00    -6160.00
04261            1160.00    -6160.00
04262            1160.00    -6160.00
04263            1140.00    -6240.00
04264            1160.00    -6160.00
04265            1160.00    -6080.00
04266            1140.00    -6160.00
04267            1140.00    -6160.00
04268            1160.00    -6160.00
04269            1160.00    -6160.00
04270            1160.00    -6160.00
04271            1160.00    -6080.00
04272            1160.00    -6080.00
04273            1160.00    -6160.00
04274            1140.00    -6160.00
04275            1160.00    -6160.00
04276            1160.00    -6080.00
04277            1160.00    -6080.00
04278            1160.00    -6080.00
04279            1160.00    -6080.00
04280            1160.00    -6080.00
04281            1140.00    -6080.00
04282            1160.00    -6160.00
04283            1160.00    -6080.00
04284            1160.00    -6080.00
04285            1160.00    -6080.00
04286            1160.00    -6080.00
04287            1140.00    -6080.00
04288            1140.00    -6080.00
04289            1160.00    -6080.00
04290            1140.00    -6000.00
04291            1160.00    -6080.00
04292            1160.00    -6080.00
04293            1140.00    -6000.00
04294            1140.00    -6080.00
04295            1160.00    -6000.00
04296            1140.00    -6000.00
04297            1140.00    -5920.00
04298            1160.00    -6080.00
04299            1140.00    -5920.00
04300            1140.00    -5920.00
04301            1140.00    -5920.00
04302            1140.00    -5920.00
04303            1140.00    -5920.00
04304            1140.00    -5920.00
04305            1120.00    -5920.00
04306            1140.00    -5840.00
04307            1140.00    -5840.00
04308            1100.00    -5840.00
04309            1120.00    -5840.00
04310            1100.00    -5840.00
04311            1100.00    -5840.00
04312            1100.00    -5760.00
04313            1100.00    -5840.00
04314            1100.00    -5760.00
04315            1100.00    -5760.00
04316            1100.00    -5760.00
04317            1080.00    -5760.00
04318            1100.00    -5760.00
04319            1080.00    -5760.00
04320            1080.00    -5680.00
04321            1100.00    -5760.00
04322            1080.00    -5600.00
04323            1080.00    -5760.00
04324            1080.00    -5600.00
04325            1080.00    -5600.00
04326            1060.00    -5600.00
04327            1080.00    -5520.00
04328            1060.00    -5600.00
04329            1080.00    -5520.00
04330            1060.00    -5520.00
04331            1080.00    -5520.00
04332            1060.00    -5440.00
04333            1080.00    -5520.00
04334            1060.00    -5440.00
04335            1060.00    -5440.00
04336            1060.00    -5440.00
04337            1060.00    -5360.00
04338            1060.00    -5440.00
04339            1060.00    -5360.00
04340            1060.00    -5440.00
04341            1060.00    -5280.00
04342            1020.00    -5280.00
04343            1060.00    -5280.00
04344            1060.00    -5280.00
04345            1020.00    -5200.00
04346            1020.00    -5280.00
04347            1020.00    -5200.00
04348            1020.00    -5200.00
04349            1020.00    -5200.00
04350            1020.00    -5120.00
04351            1020.00    -5120.00
04352            1020.00    -5120.00
04353            1000.00    -5120.00
04354            1000.00    -5120.00
04355            1000.00    -5120.00
04356            1000.00    -5040.00
04357            1000.00    -4960.00
04358            1000.00    -4960.00
04359            1000.00    -4960.00
04360             980.00    -4960.00
04361             980.00    -4880.00
04362             980.00    -4960.00
04363             980.00    -4880.00
04364             980.00    -4880.00
04365             980.00    -4800.00
04366             980.00    -4800.00
04367             980.00    -4800.00
04368             960.00    -4800.00
04369             940.00    -4720.00
04370             940.00    -4720.00
04371             940.00    -4640.00
04372             920.00    -4640.00
04373             920.00    -4640.00
04374             900.00    -4560.00
04375             920.00    -4560.00
04376             920.00    -4560.00
04377             900.00    -4560.00
04378             900.00    -4560.00
04379             900.00    -4480.00
04380             900.00    -4400.00
04381             900.00    -4400.00
04382             900.00    -4320.00
04383             860.00    -4320.00
04384             860.00    -4320.00
04385             880.00    -4240.00
04386             860.00    -4320.00
04387             860.00    -4240.00
04388             860.00    -4160.00
04389             840.00    -4160.00
04390             840.00    -4240.00
04391             840.00    -4160.00
04392             840.00    -4080.00
04393             840.00    -4080.00
04394             840.00    -4080.00
04395             820.00    -4000.00
04396             820.00    -4000.00
04397             820.00    -3920.00
04398             800.00    -3920.00
04399             820.00    -3920.00
04400             800.00    -3840.00
04401             820.00    -3840.00
04402             780.00    -3840.00
04403             800.00    -3840.00
04404             780.00    -3760.00
04405             780.00    -3680.00
04406             760.00    -3680.00
04407             760.00    -3680.00
04408             760.00    -3680.00
04409             760.00    -3600.00
04410             760.00    -3520.00
04411             740.00    -3520.00
04412             740.00    -3520.00
04413             740.00    -3520.00
04414             740.00    -3440.00
04415             740.00    -3360.00
04416             700.00    -3360.00
04417             700.00    -3360.00
04418             700.00    -3360.00
04419             680.00    -3280.00
04420             700.00    -3280.00
04421             700.00    -3200.00
04422             680.00    -3200.00
04423             680.00    -3200.00
04424             660.00    -3120.00
04425             680.00    -3200.00
04426             660.00    -3120.00
04427             680.00    -3040.00
04428             660.00    -2960.00
04429             660.00    -2960.00
04430             660.00    -2960.00
04431             660.00    -2880.00
04432             620.00    -2880.00
04433             620.00    -2880.00
04434             600.00    -2800.00
04435             600.00    -2720.00
04436             580.00    -2720.00
04437             600.00    -2640.00
04438             580.00    -2640.00
04439             580.00    -2640.00
04440             580.00    -2640.00
04441             580.00    -2560.00
04442             540.00    -2560.00
04443             560.00    -2480.00
04444             560.00    -2400.00
04445             540.00    -2400.00
04446             540.00    -2400.00
04447             520.00    -2400.00
04448             520.00    -2320.00
04449             520.00    -2320.00
04450             520.00    -2240.00
04451             520.00    -2240.00
04452             500.00    -2160.00
04453             500.00    -2160.00
04454             500.00    -2080.00
04455             500.00    -2080.00
04456             460.00    -2080.00
04457             460.00    -2000.00
04458             440.00    -2000.00
04459             440.00    -1840.00
04460             460.00    -1840.00
04461             440.00    -1840.00
04462             420.00    -1840.00
04463             420.00    -1760.00
04464             420.00    -1760.00
04465             420.00    -1760.00
04466             420.00    -1680.00
04467             420.00    -1600.00
04468             420.00    -1600.00
04469             380.00    -1600.00
04470             380.00    -1520.00
04471             380.00    -1520.00
04472             380.00    -1440.00
04473             360.00    -1440.00
04474             360.00    -1360.00
04475             360.00    -1360.00
04476             360.00    -1360.00
04477             340.00    -1280.00
04478             340.00    -1280.00
04479             340.00    -1120.00
04480             320.00    -1120.00
04481             320.00    -1120.00
04482             300.00    -1120.00
04483             280.00    -1040.00
04484             300.00    -1040.00
04485             280.00     -960.00
04486             280.00     -960.00
04487             280.00     -880.00
04488             260.00     -800.00
04489             260.00     -800.00
04490             260.00     -800.00
04491             240.00     -800.00
04492             240.00     -720.00
04493             260.00     -640.00
04494             220.00     -640.00
04495             240.00     -640.00
04496             200.00     -560.00
04497             200.00     -480.00
04498             200.00     -480.00
04499             200.00     -400.00
04500             180.00     -400.00
04501             180.00     -400.00
04502             180.00     -320.00
04503             180.00     -320.00
04504             140.00     -240.00
04505             160.00     -160.00
04506             140.00     -160.00
04507             120.00     -160.00
04508             120.00      -80.00
04509             100.00      -80.00
04510             120.00        0.00
04511             120.00        0.00
04512             100.00        0.00
04513             100.00        0.00
04514              60.00      160.00
04515              60.00      160.00
04516              80.00      240.00
04517              60.00      240.00
04518              40.00      240.00
04519              40.00      320.00
04520              40.00      320.00
04521              40.00      400.00
04522              40.00      480.00
04523              40.00      560.00
04524              20.00      560.00
04525             -20.00      480.00
04526             -40.00      480.00
04527             -20.00      720.00
04528              20.00      800.00
04529             -40.00      640.00
04530             -60.00      720.00
04531             -20.00      960.00
04532             -40.00      880.00
04533             -60.00      720.00
04534             -40.00      960.00
04535             -40.00     1040.00
04536             -60.00      880.00
04537            -100.00      960.00
04538             -60.00     1120.00
04539             -80.00     1120.00
04540            -100.00     1120.00
04541            -100.00     1280.00
04542            -100.00     1120.00
04543            -140.00     1200.00
04544            -120.00     1280.00
04545            -120.00     1280.00
04546            -120.00     1280.00
04547            -120.00     1440.00
04548            -140.00     1440.00
04549            -180.00     1440.00
04550            -140.00     1520.00
04551            -200.00     1600.00
04552            -180.00     1600.00
04553            -180.00     1600.00
04554            -200.00     1600.00
04555            -200.00     1680.00
04556            -200.00     1760.00
04557            -220.00     1760.00
04558            -220.00     1760.00
04559            -220.00     1840.00
04560            -240.00     1840.00
04561            -220.00     1920.00
04562            -260.00     1920.00
04563            -280.00     2000.00
04564            -280.00     2000.00
04565            -280.00     2080.00
04566            -280.00     2080.00
04567            -280.00     2160.00
04568            -280.00     2160.00
04569            -300.00     2160.00
04570            -320.00     2320.00
04571            -300.00     2240.00
04572            -340.00     2400.00
04573            -340.00     2400.00
04574            -340.00     2400.00
04575            -360.00     2480.00
04576            -360.00     2480.00
04577            -380.00     2480.00
04578            -360.00     2560.00
04579            -380.00     2560.00
04580            -380.00     2560.00
04581            -380.00     2720.00
04582            -420.00     2720.00
04583            -400.00     2720.00
04584            -400.00     2720.00
04585            -440.00     2720.00
04586            -440.00     2800.00
04587            -440.00     2880.00
04588            -440.00     2880.00
04589            -440.00     2880.00
04590            -460.00     2960.00
04591            -440.00     2960.00
04592            -460.00     3040.00
04593            -460.00     3120.00
04594            -460.00     3120.00
04595            -460.00     3120.00
04596            -500.00     3120.00
04597            -500.00     3280.00
04598            -500.00     3280.00
04599            -500.00     3200.00
04600            -520.00     3280.00
04601            -500.00     3360.00
04602            -520.00     3360.00
04603            -520.00     3440.00
04604            -540.00     3440.00
04605            -540.00     3440.00
04606            -540.00     3440.00
04607            -560.00     3520.00
04608            -560.00     3520.00
04609            -580.00     3520.00
04610            -580.00     3680.00
04611            -580.00     3680.00
04612            -580.00     3680.00
04613            -580.00     3680.00
04614            -600.00     3680.00
04615            -600.00     3760.00
04616            -600.00     3760.00
04617            -620.00     3840.00
04618            -620.00     3840.00
04619            -620.00     3840.00
04620            -620.00     3920.00
04621            -640.00     4000.00
04622            -620.00     4000.00
04623            -660.00     4000.00
04624            -660.00     4000.00
04625            -660.00     4080.00
04626            -680.00     4080.00
04627            -680.00     4080.00
04628            -680.00     4160.00
04629            -680.00     4160.00
04630            -700.00     4240.00
04631            -700.00     4240.00
04632            -700.00     4320.00
04633            -700.00     4320.00
04634            -720.00     4320.00
04635            -740.00     4400.00
04636            -740.00     4320.00
04637            -740.00     4480.00
04638            -760.00     4400.00
04639            -740.00     4400.00
04640            -760.00     4480.00
04641            -760.00     4480.00
04642            -760.00     4560.00
04643            -780.00     4560.00
04644            -760.00     4640.00
04645            -780.00     4640.00
04646            -760.00     4640.00
04647            -800.00     4640.00
04648            -780.00     4720.00
04649            -800.00     4720.00
04650            -820.00     4800.00
04651            -820.00     4800.00
04652            -820.00     4800.00
04653            -820.00     4800.00
04654            -820.00     4800.00
04655            -840.00     4880.00
04656            -840.00     4960.00
04657            -840.00     4960.00
04658            -840.00     4960.00
04659            -860.00     4960.00
04660            -860.00     5040.00
04661            -860.00     5040.00
04662            -860.00     5040.00
04663            -860.00     5120.00
04664            -860.00     5120.00
04665            -860.00     5120.00
04666            -860.00     5120.00
04667            -900.00     5120.00
04668            -900.00     5120.00
04669            -900.00     5200.00
04670            -900.00     5280.00
04671            -920.00     5280.00
04672            -920.00     5280.00
04673            -900.00     5280.00
04674            -920.00     5360.00
04675            -920.00     5360.00
04676            -920.00     5360.00
04677            -940.00     5360.00
04678            -920.00     5360.00
04679            -920.00     5440.00
04680            -940.00     5440.00
04681            -940.00     5440.00
04682            -940.00     5440.00
04683            -940.00     5520.00
04684            -940.00     5440.00
04685            -940.00     5520.00
04686            -980.00     5600.00
04687            -960.00     5520.00
04688            -940.00     5520.00
04689            -980.00     5600.00
04690            -980.00     5600.00
04691            -980.00     5680.00
04692            -980.00     5600.00
04693           -1000.00     5680.00
04694           -1000.00     5680.00
04695           -1000.00     5680.00
04696           -1020.00     5680.00
04697           -1000.00     5680.00
04698           -1020.00     5760.00
04699           -1000.00     5840.00
04700           -1020.00     5760.00
04701           -1020.00     5760.00
04702           -1020.00     5840.00
04703           -1020.00     5840.00
04704           -1020.00     5920.00
04705           -1020.00     5840.00
04706           -1020.00     5920.00
04707           -1040.00     5920.00
04708           -1060.00     5840.00
04709           -1060.00     5920.00
04710           -1060.00     5840.00
04711           -1060.00     5920.00
04712           -1060.00     5920.00
04713           -1060.00     5920.00
04714           -1060.00     5920.00
04715           -1080.00     5920.00
04716           -1060.00     6000.00
04717           -1080.00     6000.00
04718           -1080.00     6000.00
04719           -1080.00     6000.00
04720           -1080.00     6000.00
04721           -1080.00     6000.00
04722           -1080.00     6080.00
04723           -1080.00     6080.00
04724           -1080.00     6000.00
04725           -1080.00     6000.00
04726           -1100.00     6080.00
04727           -1080.00     6080.00
04728           -1080.00     6080.00
04729           -1100.00     6080.00
04730           -1100.00     6080.00
04731           -1100.00     6080.00
04732           -1100.00     6080.00
04733           -1120.00     6240.00
04734           -1100.00     6160.00
04735           -1100.00     6160.00
04736           -1100.00     6160.00
04737           -1100.00     6240.00
04738           -1100.00     6240.00
04739           -1100.00     6240.00
04740           -1120.00     6240.00
04741           -1100.00     6240.00
04742           -1100.00     6240.00
04743           -1120.00     6240.00
04744           -1140.00     6240.00
04745           -1140.00     6240.00
04746           -1100.00     6240.00
04747           -1120.00     6240.00
04748           -1140.00     6320.00
04749           -1120.00     6240.00
04750           -1140.00     6240.00
04751           -1140.00     6240.00
04752           -1140.00     6240.00
04753           -1140.00     6320.00
04754           -1140.00     6240.00
04755           -1140.00     6240.00
04756           -1140.00     6240.00
04757           -1140.00     6240.00
04758           -1140.00     6240.00
04759           -1160.00     6240.00
04760           -1140.00     6240.00
04761           -1140.00     6320.00
04762           -1140.00     6240.00
04763           -1160.00     6240.00
04764           -1160.00     6240.00
04765           -1140.00     6320.00
04766           -1160.00     6320.00
04767           -1160.00     6320.00
04768           -1160.00     6240.00
04769           -1160.00     6320.00
04770           -1160.00     6240.00
04771           -1140.00     6320.00
04772           -1160.00     6240.00
04773           -1160.00     6240.00
04774           -1160.00     6320.00
04775           -1160.00     6240.00
04776           -1160.00     6320.00
04777           -1160.00     6240.00
04778           -1160.00     6240.00
04779           -1160.00     6240.00
04780           -1160.00     6240.00
04781           -1160.00     6240.00
04782           -1160.00     6160.00
04783           -1160.00     6240.00
04784           -1160.00     6240.00
04785           -1160.00     6240.00
04786           -1160.00     6240.00
04787           -1160.00     6240.00
04788           -1160.00     6160.00
04789           -1160.00     6080.00
04790           -1160.00     6160.00
04791           -1160.00     6160.00
04792           -1140.00     6160.00
04793           -1160.00     6080.00
04794           -1140.00     6080.00
04795           -1140.00     6080.00
04796           -1140.00     6080.00
04797           -1160.00     6160.00
04798           -1160.00     6080.00
04799           -1140.00     6160.00
04800           -1140.00     6080.00
04801           -1140.00     6080.00
04802           -1140.00     6000.00
04803           -1140.00     6080.00
04804           -1140.00     6080.00
04805           -1140.00     6080.00
04806           -1120.00     6000.00
04807           -1120.00     6000.00
04808           -1140.00     6000.00
04809           -1120.00     6000.00
04810           -1140.00     6000.00
04811           -1140.00     6000.00
04812           -1100.00     6000.00
04813           -1100.00     6000.00
04814           -1120.00     5920.00
04815           -1100.00     5920.00
04816           -1140.00     5920.00
04817           -1100.00     5920.00
04818           -1100.00     5920.00
04819           -1100.00     5920.00
04820           -1100.00     5920.00
04821           -1100.00     5920.00
04822           -1120.00     5920.00
04823           -1100.00     5920.00
04824           -1100.00     5760.00
04825           -1100.00     5840.00
04826           -1100.00     5760.00
04827           -1100.00     5840.00
04828           -1100.00     5760.00
04829           -1100.00     5840.00
04830           -1100.00     5760.00
04831           -1080.00     5680.00
04832           -1080.00     5680.00
04833           -1100.00     5760.00
04834           -1080.00     5680.00
04835           -1080.00     5680.00
04836           -1080.00     5680.00
04837           -1080.00     5600.00
04838           -1080.00     5600.00
04839           -1080.00     5600.00
04840           -1080.00     5600.00
04841           -1080.00     5520.00
04842           -1060.00     5520.00
04843           -1080.00     5600.00
04844           -1060.00     5440.00
04845           -1060.00     5520.00
04846           -1060.00     5440.00
04847           -1060.00     5440.00
04848           -1080.00     5440.00
04849           -1040.00     5440.00
04850           -1060.00     5360.00
04851           -1020.00     5360.00
04852           -1060.00     5360.00
04853           -1020.00     5360.00
04854           -1020.00     5280.00
04855           -1020.00     5280.00
04856           -1020.00     5280.00
04857           -1020.00     5280.00
04858           -1020.00     5280.00
04859           -1020.00     5200.00
04860           -1020.00     5200.00
04861           -1020.00     5200.00
04862           -1000.00     5120.00
04863           -1020.00     5120.00
04864           -1000.00     5040.00
04865           -1000.00     5120.00
04866           -1000.00     5040.00
04867            -980.00     5040.00
04868           -1000.00     5040.00
04869           -1000.00     4960.00
04870            -980.00     4960.00
04871            -940.00     4960.00
04872            -980.00     4960.00
04873            -940.00     4960.00
04874            -940.00     4880.00
04875            -940.00     4880.00
04876            -940.00     4800.00
04877            -940.00     4800.00
04878            -940.00     4800.00
04879            -940.00     4800.00
04880            -920.00     4800.00
04881            -940.00     4720.00
04882            -920.00     4720.00
04883            -920.00     4640.00
04884            -900.00     4640.00
04885            -920.00     4640.00
04886            -920.00     4640.00
04887            -900.00     4480.00
04888            -900.00     4480.00
04889            -900.00     4480.00
04890            -900.00     4400.00
04891            -900.00     4400.00
04892            -860.00     4400.00
04893            -900.00     4400.00
04894            -860.00     4320.00
04895            -860.00     4320.00
04896            -880.00     4320.00
04897            -860.00     4320.00
04898            -860.00     4320.00
04899            -860.00     4240.00
04900            -860.00     4160.00
04901            -840.00     4160.00
04902            -840.00     4080.00
04903            -860.00     4080.00
04904            -840.00     4080.00
04905            -820.00     4000.00
04906            -840.00     4000.00
04907            -840.00     4000.00
04908            -820.00     3920.00
04909            -800.00     3920.00
04910            -820.00     3840.00
04911            -820.00     3840.00
04912            -780.00     3840.00
04913            -780.00     3840.00
04914            -780.00     3680.00
04915            -780.00     3760.00
04916            -760.00     3680.00
04917            -760.00     3680.00
04918            -760.00     3680.00
04919            -760.00     3680.00
04920            -760.00     3520.00
04921            -760.00     3520.00
04922            -740.00     3520.00
04923            -740.00     3520.00
04924            -740.00     3520.00
04925            -720.00     3440.00
04926            -700.00     3440.00
04927            -700.00     3440.00
04928            -700.00     3360.00
04929            -700.00     3280.00
04930            -680.00     3360.00
04931            -680.00     3200.00
04932            -680.00     3280.00
04933            -680.00     3120.00
04934            -680.00     3200.00
04935            -660.00     3120.00
04936            -660.00     3120.00
04937            -660.00     3040.00
04938            -620.00     3040.00
04939            -620.00     2960.00
04940            -660.00     2880.00
04941            -620.00     2960.00
04942            -600.00     2880.00
04943            -620.00     2880.00
04944            -600.00     2880.00
04945            -620.00     2720.00
04946            -600.00     2800.00
04947            -600.00     2720.00
04948            -580.00     2720.00
04949            -600.00     2640.00
04950            -560.00     2560.00
04951            -580.00     2640.00
04952            -540.00     2560.00
04953            -540.00     2480.00
04954            -540.00     2480.00
04955            -540.00     2480.00
04956            -540.00     2480.00
04957            -540.00     2400.00
04958            -520.00     2320.00
04959            -520.00     2320.00
04960            -520.00     2400.00
04961            -520.00     2240.00
04962            -500.00     2240.00
04963            -500.00     2160.00
04964            -500.00     2160.00
04965            -500.00     2080.00
04966            -460.00     2080.00
04967            -460.00     2000.00
04968            -460.00     1920.00
04969            -460.00     1920.00
04970            -460.00     1920.00
04971            -440.00     1840.00
04972            -440.00     1840.00
04973            -440.00     1840.00
04974            -420.00     1680.00
04975            -440.00     1760.00
04976            -420.00     1680.00
04977            -380.00     1600.00
04978            -400.00     1600.00
04979            -380.00     1520.00
04980            -400.00     1520.00
04981            -380.00     1520.00
04982            -380.00     1440.00
04983            -360.00     1440.00
04984            -340.00     1440.00
04985            -360.00     1360.00
04986            -360.00     1280.00
04987            -340.00     1280.00
04988            -340.00     1200.00
04989            -320.00     1200.00
04990            -300.00     1200.00
04991            -340.00     1120.00
04992            -300.00     1120.00
04993            -300.00     1120.00
04994            -300.00     1040.00
04995            -280.00      960.00
04996            -280.00      880.00
04997            -260.00      880.00
04998            -260.00      880.00
04999            -260.00      800.00
05000            -220.00      800.00
