Unit:(mV)
                     CH1         CH2
Frequency              ?  98.425 kHz
00001            -220.00    -2640.00
00002            -200.00    -2640.00
00003            -220.00    -2720.00
00004            -220.00    -2720.00
00005            -220.00    -2800.00
00006            -220.00    -2880.00
00007            -220.00    -2880.00
00008            -220.00    -2880.00
00009            -260.00    -2960.00
00010            -260.00    -2960.00
00011            -260.00    -3040.00
00012            -260.00    -3040.00
00013            -240.00    -3200.00
00014            -260.00    -3200.00
00015            -280.00    -3200.00
00016            -260.00    -3280.00
00017            -280.00    -3360.00
00018            -280.00    -3360.00
00019            -280.00    -3360.00
00020            -280.00    -3440.00
00021            -300.00    -3440.00
00022            -280.00    -3520.00
00023            -300.00    -3520.00
00024            -300.00    -3680.00
00025            -300.00    -3600.00
00026            -300.00    -3680.00
00027            -300.00    -3760.00
00028            -320.00    -3680.00
00029            -320.00    -3760.00
00030            -340.00    -3840.00
00031            -360.00    -3920.00
00032            -360.00    -3920.00
00033            -360.00    -3920.00
00034            -360.00    -4000.00
00035            -380.00    -4000.00
00036            -380.00    -4080.00
00037            -380.00    -4160.00
00038            -380.00    -4160.00
00039            -380.00    -4160.00
00040            -380.00    -4240.00
00041            -380.00    -4240.00
00042            -420.00    -4320.00
00043            -420.00    -4240.00
00044            -420.00    -4320.00
00045            -420.00    -4320.00
00046            -420.00    -4400.00
00047            -420.00    -4480.00
00048            -420.00    -4480.00
00049            -440.00    -4480.00
00050            -440.00    -4560.00
00051            -440.00    -4640.00
00052            -440.00    -4640.00
00053            -440.00    -4640.00
00054            -460.00    -4720.00
00055            -460.00    -4720.00
00056            -440.00    -4880.00
00057            -460.00    -4880.00
00058            -460.00    -4880.00
00059            -460.00    -4880.00
00060            -480.00    -4960.00
00061            -460.00    -5040.00
00062            -460.00    -5040.00
00063            -460.00    -5040.00
00064            -500.00    -5120.00
00065            -480.00    -5120.00
00066            -500.00    -5120.00
00067            -500.00    -5200.00
00068            -500.00    -5200.00
00069            -520.00    -5280.00
00070            -500.00    -5200.00
00071            -520.00    -5280.00
00072            -520.00    -5280.00
00073            -520.00    -5280.00
00074            -520.00    -5360.00
00075            -520.00    -5440.00
00076            -540.00    -5520.00
00077            -540.00    -5520.00
00078            -540.00    -5520.00
00079            -540.00    -5600.00
00080            -540.00    -5600.00
00081            -540.00    -5600.00
00082            -540.00    -5680.00
00083            -560.00    -5760.00
00084            -540.00    -5760.00
00085            -560.00    -5760.00
00086            -580.00    -5760.00
00087            -580.00    -5760.00
00088            -580.00    -5840.00
00089            -580.00    -5840.00
00090            -580.00    -5840.00
00091            -600.00    -5920.00
00092            -600.00    -5920.00
00093            -600.00    -5920.00
00094            -600.00    -5920.00
00095            -600.00    -6080.00
00096            -620.00    -6080.00
00097            -600.00    -6080.00
00098            -620.00    -6160.00
00099            -620.00    -6160.00
00100            -600.00    -6160.00
00101            -620.00    -6160.00
00102            -620.00    -6160.00
00103            -620.00    -6240.00
00104            -620.00    -6240.00
00105            -660.00    -6240.00
00106            -660.00    -6240.00
00107            -620.00    -6240.00
00108            -660.00    -6400.00
00109            -640.00    -6400.00
00110            -680.00    -6400.00
00111            -660.00    -6480.00
00112            -660.00    -6400.00
00113            -680.00    -6480.00
00114            -660.00    -6560.00
00115            -680.00    -6480.00
00116            -700.00    -6560.00
00117            -680.00    -6560.00
00118            -680.00    -6560.00
00119            -680.00    -6560.00
00120            -680.00    -6640.00
00121            -680.00    -6560.00
00122            -700.00    -6720.00
00123            -680.00    -6720.00
00124            -700.00    -6720.00
00125            -700.00    -6720.00
00126            -700.00    -6720.00
00127            -700.00    -6800.00
00128            -700.00    -6800.00
00129            -700.00    -6800.00
00130            -700.00    -6800.00
00131            -720.00    -6800.00
00132            -720.00    -6880.00
00133            -700.00    -6880.00
00134            -720.00    -6880.00
00135            -700.00    -6880.00
00136            -700.00    -6880.00
00137            -700.00    -6960.00
00138            -720.00    -6880.00
00139            -720.00    -6960.00
00140            -740.00    -6960.00
00141            -740.00    -7040.00
00142            -740.00    -7040.00
00143            -740.00    -7040.00
00144            -740.00    -6960.00
00145            -760.00    -7040.00
00146            -740.00    -7120.00
00147            -740.00    -7120.00
00148            -760.00    -7120.00
00149            -760.00    -7040.00
00150            -740.00    -7120.00
00151            -760.00    -7120.00
00152            -760.00    -7120.00
00153            -760.00    -7120.00
00154            -760.00    -7120.00
00155            -760.00    -7200.00
00156            -760.00    -7200.00
00157            -760.00    -7200.00
00158            -760.00    -7280.00
00159            -760.00    -7200.00
00160            -780.00    -7200.00
00161            -780.00    -7200.00
00162            -760.00    -7200.00
00163            -780.00    -7280.00
00164            -780.00    -7280.00
00165            -780.00    -7280.00
00166            -780.00    -7280.00
00167            -780.00    -7360.00
00168            -780.00    -7360.00
00169            -800.00    -7360.00
00170            -780.00    -7360.00
00171            -780.00    -7360.00
00172            -800.00    -7360.00
00173            -780.00    -7360.00
00174            -800.00    -7360.00
00175            -780.00    -7360.00
00176            -820.00    -7360.00
00177            -800.00    -7360.00
00178            -820.00    -7360.00
00179            -820.00    -7440.00
00180            -820.00    -7440.00
00181            -800.00    -7360.00
00182            -820.00    -7440.00
00183            -820.00    -7360.00
00184            -820.00    -7440.00
00185            -820.00    -7440.00
00186            -820.00    -7360.00
00187            -840.00    -7440.00
00188            -820.00    -7440.00
00189            -820.00    -7440.00
00190            -820.00    -7440.00
00191            -820.00    -7440.00
00192            -820.00    -7440.00
00193            -820.00    -7440.00
00194            -800.00    -7440.00
00195            -800.00    -7440.00
00196            -840.00    -7360.00
00197            -840.00    -7360.00
00198            -820.00    -7440.00
00199            -820.00    -7440.00
00200            -820.00    -7440.00
00201            -820.00    -7440.00
00202            -820.00    -7360.00
00203            -820.00    -7440.00
00204            -820.00    -7440.00
00205            -840.00    -7360.00
00206            -820.00    -7360.00
00207            -820.00    -7440.00
00208            -820.00    -7360.00
00209            -820.00    -7360.00
00210            -820.00    -7360.00
00211            -820.00    -7360.00
00212            -820.00    -7360.00
00213            -840.00    -7360.00
00214            -820.00    -7360.00
00215            -820.00    -7360.00
00216            -820.00    -7360.00
00217            -820.00    -7360.00
00218            -800.00    -7360.00
00219            -820.00    -7360.00
00220            -820.00    -7360.00
00221            -820.00    -7280.00
00222            -820.00    -7360.00
00223            -820.00    -7360.00
00224            -820.00    -7360.00
00225            -820.00    -7200.00
00226            -840.00    -7280.00
00227            -840.00    -7200.00
00228            -840.00    -7280.00
00229            -820.00    -7280.00
00230            -840.00    -7200.00
00231            -820.00    -7200.00
00232            -820.00    -7280.00
00233            -820.00    -7200.00
00234            -820.00    -7200.00
00235            -820.00    -7200.00
00236            -820.00    -7200.00
00237            -820.00    -7200.00
00238            -820.00    -7200.00
00239            -820.00    -7120.00
00240            -820.00    -7120.00
00241            -820.00    -7040.00
00242            -820.00    -7120.00
00243            -820.00    -7120.00
00244            -820.00    -7120.00
00245            -820.00    -6960.00
00246            -820.00    -7040.00
00247            -820.00    -7040.00
00248            -820.00    -6960.00
00249            -820.00    -7040.00
00250            -780.00    -6960.00
00251            -820.00    -6960.00
00252            -780.00    -6880.00
00253            -800.00    -6880.00
00254            -800.00    -6880.00
00255            -800.00    -6880.00
00256            -780.00    -6880.00
00257            -780.00    -6880.00
00258            -780.00    -6880.00
00259            -820.00    -6800.00
00260            -780.00    -6800.00
00261            -780.00    -6880.00
00262            -780.00    -6720.00
00263            -780.00    -6800.00
00264            -780.00    -6800.00
00265            -780.00    -6720.00
00266            -760.00    -6720.00
00267            -760.00    -6720.00
00268            -760.00    -6640.00
00269            -780.00    -6640.00
00270            -760.00    -6640.00
00271            -760.00    -6640.00
00272            -760.00    -6560.00
00273            -760.00    -6560.00
00274            -760.00    -6560.00
00275            -760.00    -6480.00
00276            -760.00    -6480.00
00277            -760.00    -6560.00
00278            -740.00    -6480.00
00279            -760.00    -6480.00
00280            -760.00    -6480.00
00281            -760.00    -6400.00
00282            -740.00    -6320.00
00283            -760.00    -6320.00
00284            -740.00    -6320.00
00285            -760.00    -6240.00
00286            -740.00    -6240.00
00287            -740.00    -6240.00
00288            -740.00    -6160.00
00289            -740.00    -6160.00
00290            -740.00    -6160.00
00291            -720.00    -6080.00
00292            -740.00    -6080.00
00293            -740.00    -6080.00
00294            -740.00    -6080.00
00295            -700.00    -6080.00
00296            -740.00    -6000.00
00297            -700.00    -5920.00
00298            -700.00    -5920.00
00299            -740.00    -5920.00
00300            -700.00    -5840.00
00301            -720.00    -5920.00
00302            -700.00    -5840.00
00303            -700.00    -5840.00
00304            -700.00    -5760.00
00305            -700.00    -5760.00
00306            -700.00    -5760.00
00307            -700.00    -5680.00
00308            -700.00    -5680.00
00309            -700.00    -5600.00
00310            -680.00    -5600.00
00311            -700.00    -5600.00
00312            -680.00    -5520.00
00313            -700.00    -5520.00
00314            -680.00    -5440.00
00315            -680.00    -5440.00
00316            -680.00    -5440.00
00317            -660.00    -5440.00
00318            -660.00    -5360.00
00319            -680.00    -5360.00
00320            -660.00    -5280.00
00321            -660.00    -5280.00
00322            -660.00    -5280.00
00323            -660.00    -5200.00
00324            -640.00    -5200.00
00325            -660.00    -5120.00
00326            -620.00    -5120.00
00327            -620.00    -5120.00
00328            -620.00    -5040.00
00329            -620.00    -5040.00
00330            -640.00    -4960.00
00331            -620.00    -4960.00
00332            -600.00    -4880.00
00333            -600.00    -4880.00
00334            -620.00    -4800.00
00335            -600.00    -4800.00
00336            -600.00    -4800.00
00337            -600.00    -4800.00
00338            -600.00    -4640.00
00339            -600.00    -4640.00
00340            -600.00    -4640.00
00341            -600.00    -4560.00
00342            -600.00    -4560.00
00343            -580.00    -4480.00
00344            -580.00    -4400.00
00345            -580.00    -4400.00
00346            -540.00    -4320.00
00347            -560.00    -4320.00
00348            -540.00    -4320.00
00349            -560.00    -4240.00
00350            -580.00    -4240.00
00351            -540.00    -4240.00
00352            -540.00    -4160.00
00353            -540.00    -4080.00
00354            -540.00    -4000.00
00355            -520.00    -4000.00
00356            -540.00    -4000.00
00357            -540.00    -4000.00
00358            -520.00    -3920.00
00359            -540.00    -3920.00
00360            -520.00    -3840.00
00361            -520.00    -3760.00
00362            -500.00    -3840.00
00363            -500.00    -3760.00
00364            -500.00    -3760.00
00365            -500.00    -3680.00
00366            -500.00    -3600.00
00367            -460.00    -3600.00
00368            -500.00    -3520.00
00369            -460.00    -3520.00
00370            -500.00    -3440.00
00371            -460.00    -3520.00
00372            -460.00    -3360.00
00373            -460.00    -3360.00
00374            -460.00    -3280.00
00375            -460.00    -3280.00
00376            -460.00    -3200.00
00377            -440.00    -3200.00
00378            -460.00    -3200.00
00379            -440.00    -3200.00
00380            -440.00    -3040.00
00381            -440.00    -3040.00
00382            -420.00    -2960.00
00383            -440.00    -2960.00
00384            -420.00    -2880.00
00385            -420.00    -2880.00
00386            -420.00    -2800.00
00387            -400.00    -2800.00
00388            -380.00    -2720.00
00389            -380.00    -2720.00
00390            -420.00    -2640.00
00391            -380.00    -2560.00
00392            -380.00    -2560.00
00393            -380.00    -2560.00
00394            -380.00    -2480.00
00395            -380.00    -2400.00
00396            -360.00    -2400.00
00397            -360.00    -2400.00
00398            -360.00    -2320.00
00399            -360.00    -2240.00
00400            -340.00    -2240.00
00401            -340.00    -2080.00
00402            -340.00    -2160.00
00403            -340.00    -2080.00
00404            -300.00    -2000.00
00405            -320.00    -2000.00
00406            -320.00    -1920.00
00407            -320.00    -1840.00
00408            -280.00    -1840.00
00409            -300.00    -1760.00
00410            -300.00    -1760.00
00411            -300.00    -1760.00
00412            -280.00    -1680.00
00413            -280.00    -1680.00
00414            -280.00    -1600.00
00415            -280.00    -1600.00
00416            -280.00    -1520.00
00417            -260.00    -1440.00
00418            -260.00    -1440.00
00419            -260.00    -1360.00
00420            -260.00    -1360.00
00421            -260.00    -1280.00
00422            -220.00    -1280.00
00423            -220.00    -1120.00
00424            -240.00    -1120.00
00425            -220.00    -1120.00
00426            -220.00    -1120.00
00427            -220.00    -1040.00
00428            -220.00     -960.00
00429            -220.00     -960.00
00430            -200.00     -880.00
00431            -220.00     -800.00
00432            -220.00     -800.00
00433            -200.00     -720.00
00434            -180.00     -720.00
00435            -180.00     -640.00
00436            -200.00     -640.00
00437            -180.00     -640.00
00438            -180.00     -480.00
00439            -180.00     -480.00
00440            -180.00     -400.00
00441            -140.00     -400.00
00442            -140.00     -320.00
00443            -140.00     -240.00
00444            -140.00     -160.00
00445            -120.00     -160.00
00446            -120.00     -160.00
00447            -120.00      -80.00
00448            -120.00      -80.00
00449            -120.00      -80.00
00450            -120.00        0.00
00451            -100.00        0.00
00452            -100.00      160.00
00453            -100.00      160.00
00454             -80.00      160.00
00455             -80.00      240.00
00456             -60.00      320.00
00457             -60.00      320.00
00458             -60.00      320.00
00459             -60.00      400.00
00460             -60.00      480.00
00461             -40.00      640.00
00462             -40.00      640.00
00463             -60.00      560.00
00464             -40.00      560.00
00465             -40.00      800.00
00466              20.00      880.00
00467             -40.00      800.00
00468             -40.00      720.00
00469              20.00      960.00
00470              20.00      960.00
00471             -20.00      880.00
00472              20.00     1120.00
00473              40.00     1280.00
00474              20.00      960.00
00475              40.00     1120.00
00476              40.00     1280.00
00477              20.00     1200.00
00478              40.00     1280.00
00479              40.00     1440.00
00480              40.00     1360.00
00481              40.00     1360.00
00482              60.00     1520.00
00483              60.00     1520.00
00484             100.00     1600.00
00485             100.00     1760.00
00486              60.00     1600.00
00487              80.00     1680.00
00488             100.00     1840.00
00489             100.00     1760.00
00490             100.00     1840.00
00491             100.00     1920.00
00492             100.00     1920.00
00493             120.00     2000.00
00494             120.00     2160.00
00495             120.00     2080.00
00496             120.00     2160.00
00497             120.00     2160.00
00498             140.00     2240.00
00499             140.00     2240.00
00500             140.00     2320.00
00501             160.00     2400.00
00502             140.00     2400.00
00503             140.00     2400.00
00504             180.00     2480.00
00505             180.00     2560.00
00506             200.00     2560.00
00507             180.00     2640.00
00508             180.00     2720.00
00509             180.00     2800.00
00510             200.00     2720.00
00511             200.00     2800.00
00512             200.00     2880.00
00513             200.00     2880.00
00514             220.00     2880.00
00515             220.00     2960.00
00516             220.00     3040.00
00517             240.00     3040.00
00518             240.00     3120.00
00519             260.00     3120.00
00520             240.00     3280.00
00521             260.00     3280.00
00522             260.00     3280.00
00523             260.00     3360.00
00524             260.00     3360.00
00525             280.00     3360.00
00526             260.00     3440.00
00527             280.00     3440.00
00528             280.00     3520.00
00529             280.00     3520.00
00530             280.00     3520.00
00531             300.00     3680.00
00532             300.00     3680.00
00533             320.00     3760.00
00534             320.00     3760.00
00535             340.00     3760.00
00536             340.00     3840.00
00537             300.00     3840.00
00538             340.00     4000.00
00539             340.00     4000.00
00540             340.00     4000.00
00541             340.00     4000.00
00542             360.00     4080.00
00543             360.00     4080.00
00544             360.00     4160.00
00545             360.00     4160.00
00546             360.00     4160.00
00547             360.00     4240.00
00548             380.00     4320.00
00549             380.00     4400.00
00550             380.00     4320.00
00551             400.00     4400.00
00552             380.00     4400.00
00553             420.00     4480.00
00554             420.00     4480.00
00555             420.00     4560.00
00556             420.00     4640.00
00557             420.00     4640.00
00558             420.00     4720.00
00559             420.00     4720.00
00560             440.00     4720.00
00561             420.00     4800.00
00562             420.00     4800.00
00563             440.00     4880.00
00564             440.00     4960.00
00565             440.00     4960.00
00566             440.00     4960.00
00567             440.00     5040.00
00568             460.00     5040.00
00569             440.00     5040.00
00570             460.00     5120.00
00571             460.00     5120.00
00572             460.00     5200.00
00573             480.00     5200.00
00574             500.00     5200.00
00575             500.00     5280.00
00576             500.00     5280.00
00577             500.00     5360.00
00578             500.00     5360.00
00579             520.00     5360.00
00580             500.00     5440.00
00581             500.00     5440.00
00582             520.00     5440.00
00583             520.00     5600.00
00584             540.00     5600.00
00585             520.00     5600.00
00586             540.00     5600.00
00587             540.00     5680.00
00588             520.00     5680.00
00589             560.00     5680.00
00590             540.00     5840.00
00591             560.00     5760.00
00592             580.00     5840.00
00593             580.00     5920.00
00594             580.00     5840.00
00595             580.00     5920.00
00596             580.00     5920.00
00597             580.00     5920.00
00598             580.00     6000.00
00599             580.00     6000.00
00600             600.00     6000.00
00601             600.00     6080.00
00602             600.00     6080.00
00603             600.00     6080.00
00604             600.00     6160.00
00605             600.00     6160.00
00606             600.00     6240.00
00607             620.00     6240.00
00608             620.00     6320.00
00609             620.00     6240.00
00610             620.00     6320.00
00611             620.00     6400.00
00612             620.00     6400.00
00613             620.00     6400.00
00614             620.00     6320.00
00615             660.00     6400.00
00616             660.00     6400.00
00617             660.00     6400.00
00618             660.00     6560.00
00619             660.00     6560.00
00620             640.00     6560.00
00621             660.00     6560.00
00622             660.00     6640.00
00623             660.00     6640.00
00624             660.00     6640.00
00625             660.00     6640.00
00626             660.00     6720.00
00627             660.00     6720.00
00628             680.00     6720.00
00629             680.00     6720.00
00630             680.00     6720.00
00631             680.00     6720.00
00632             680.00     6800.00
00633             680.00     6800.00
00634             680.00     6880.00
00635             680.00     6880.00
00636             680.00     6880.00
00637             680.00     6880.00
00638             700.00     6880.00
00639             680.00     6960.00
00640             700.00     6960.00
00641             700.00     6960.00
00642             720.00     7040.00
00643             700.00     7040.00
00644             700.00     7040.00
00645             740.00     6960.00
00646             740.00     7040.00
00647             740.00     7040.00
00648             740.00     7040.00
00649             760.00     7120.00
00650             740.00     7200.00
00651             740.00     7120.00
00652             740.00     7200.00
00653             740.00     7120.00
00654             740.00     7200.00
00655             740.00     7200.00
00656             760.00     7200.00
00657             760.00     7200.00
00658             760.00     7200.00
00659             760.00     7280.00
00660             760.00     7280.00
00661             760.00     7280.00
00662             740.00     7280.00
00663             760.00     7280.00
00664             760.00     7280.00
00665             760.00     7360.00
00666             760.00     7280.00
00667             760.00     7360.00
00668             780.00     7360.00
00669             780.00     7360.00
00670             760.00     7360.00
00671             780.00     7360.00
00672             760.00     7360.00
00673             780.00     7360.00
00674             780.00     7360.00
00675             780.00     7360.00
00676             800.00     7360.00
00677             780.00     7440.00
00678             800.00     7360.00
00679             780.00     7360.00
00680             800.00     7360.00
00681             780.00     7440.00
00682             820.00     7360.00
00683             780.00     7440.00
00684             800.00     7440.00
00685             780.00     7440.00
00686             780.00     7520.00
00687             820.00     7440.00
00688             780.00     7520.00
00689             800.00     7520.00
00690             780.00     7520.00
00691             820.00     7520.00
00692             820.00     7520.00
00693             820.00     7520.00
00694             800.00     7520.00
00695             820.00     7520.00
00696             800.00     7520.00
00697             820.00     7520.00
00698             800.00     7520.00
00699             800.00     7520.00
00700             820.00     7520.00
00701             820.00     7520.00
00702             820.00     7520.00
00703             820.00     7520.00
00704             800.00     7520.00
00705             820.00     7520.00
00706             780.00     7520.00
00707             820.00     7520.00
00708             820.00     7520.00
00709             820.00     7520.00
00710             820.00     7520.00
00711             820.00     7520.00
00712             820.00     7520.00
00713             820.00     7520.00
00714             820.00     7520.00
00715             820.00     7520.00
00716             820.00     7440.00
00717             820.00     7520.00
00718             820.00     7520.00
00719             820.00     7440.00
00720             820.00     7520.00
00721             820.00     7520.00
00722             820.00     7440.00
00723             820.00     7520.00
00724             820.00     7440.00
00725             840.00     7360.00
00726             820.00     7440.00
00727             840.00     7360.00
00728             820.00     7440.00
00729             820.00     7360.00
00730             820.00     7360.00
00731             820.00     7360.00
00732             820.00     7360.00
00733             820.00     7360.00
00734             820.00     7360.00
00735             820.00     7360.00
00736             820.00     7360.00
00737             820.00     7360.00
00738             820.00     7280.00
00739             820.00     7280.00
00740             820.00     7280.00
00741             820.00     7280.00
00742             820.00     7280.00
00743             820.00     7280.00
00744             820.00     7280.00
00745             820.00     7200.00
00746             820.00     7280.00
00747             820.00     7200.00
00748             800.00     7200.00
00749             820.00     7200.00
00750             780.00     7200.00
00751             820.00     7200.00
00752             820.00     7120.00
00753             780.00     7200.00
00754             800.00     7120.00
00755             800.00     7040.00
00756             780.00     7040.00
00757             780.00     7040.00
00758             820.00     7040.00
00759             780.00     7040.00
00760             800.00     7040.00
00761             820.00     6960.00
00762             780.00     7040.00
00763             780.00     7040.00
00764             780.00     6960.00
00765             800.00     6960.00
00766             780.00     6880.00
00767             780.00     6880.00
00768             780.00     6880.00
00769             780.00     6880.00
00770             780.00     6880.00
00771             780.00     6880.00
00772             780.00     6800.00
00773             760.00     6800.00
00774             760.00     6720.00
00775             780.00     6720.00
00776             760.00     6800.00
00777             760.00     6720.00
00778             780.00     6720.00
00779             760.00     6720.00
00780             760.00     6640.00
00781             760.00     6720.00
00782             760.00     6640.00
00783             760.00     6640.00
00784             760.00     6560.00
00785             760.00     6560.00
00786             760.00     6560.00
00787             760.00     6560.00
00788             780.00     6560.00
00789             760.00     6400.00
00790             760.00     6400.00
00791             740.00     6400.00
00792             760.00     6400.00
00793             760.00     6400.00
00794             740.00     6320.00
00795             760.00     6320.00
00796             740.00     6240.00
00797             740.00     6240.00
00798             740.00     6240.00
00799             760.00     6240.00
00800             740.00     6240.00
00801             740.00     6160.00
00802             720.00     6080.00
00803             700.00     6160.00
00804             740.00     6080.00
00805             700.00     6000.00
00806             720.00     6080.00
00807             740.00     6000.00
00808             700.00     6000.00
00809             700.00     6000.00
00810             700.00     5920.00
00811             720.00     5920.00
00812             680.00     5920.00
00813             680.00     5840.00
00814             700.00     5840.00
00815             680.00     5840.00
00816             680.00     5760.00
00817             680.00     5680.00
00818             660.00     5680.00
00819             680.00     5680.00
00820             680.00     5600.00
00821             660.00     5680.00
00822             660.00     5520.00
00823             660.00     5600.00
00824             660.00     5520.00
00825             660.00     5440.00
00826             660.00     5440.00
00827             660.00     5360.00
00828             660.00     5360.00
00829             640.00     5360.00
00830             660.00     5280.00
00831             640.00     5280.00
00832             620.00     5280.00
00833             620.00     5280.00
00834             620.00     5120.00
00835             620.00     5120.00
00836             620.00     5120.00
00837             600.00     5120.00
00838             620.00     5040.00
00839             600.00     5040.00
00840             600.00     4960.00
00841             620.00     4960.00
00842             600.00     4960.00
00843             600.00     4880.00
00844             600.00     4800.00
00845             600.00     4800.00
00846             600.00     4800.00
00847             580.00     4720.00
00848             580.00     4720.00
00849             580.00     4720.00
00850             580.00     4640.00
00851             580.00     4640.00
00852             580.00     4560.00
00853             580.00     4480.00
00854             580.00     4480.00
00855             580.00     4400.00
00856             580.00     4400.00
00857             540.00     4400.00
00858             540.00     4320.00
00859             580.00     4320.00
00860             540.00     4320.00
00861             540.00     4240.00
00862             540.00     4160.00
00863             540.00     4080.00
00864             540.00     4160.00
00865             520.00     4080.00
00866             520.00     4000.00
00867             520.00     4000.00
00868             520.00     4000.00
00869             520.00     3920.00
00870             500.00     3840.00
00871             520.00     3840.00
00872             500.00     3760.00
00873             500.00     3760.00
00874             480.00     3760.00
00875             500.00     3680.00
00876             480.00     3600.00
00877             500.00     3600.00
00878             460.00     3520.00
00879             460.00     3440.00
00880             460.00     3520.00
00881             440.00     3360.00
00882             440.00     3360.00
00883             440.00     3360.00
00884             420.00     3360.00
00885             440.00     3280.00
00886             440.00     3200.00
00887             420.00     3200.00
00888             420.00     3120.00
00889             420.00     3120.00
00890             420.00     3040.00
00891             400.00     3040.00
00892             420.00     2960.00
00893             420.00     2960.00
00894             380.00     2880.00
00895             400.00     2880.00
00896             400.00     2800.00
00897             380.00     2800.00
00898             360.00     2720.00
00899             360.00     2640.00
00900             360.00     2640.00
00901             360.00     2640.00
00902             360.00     2560.00
00903             360.00     2560.00
00904             360.00     2480.00
00905             360.00     2400.00
00906             340.00     2400.00
00907             340.00     2320.00
00908             340.00     2240.00
00909             340.00     2240.00
00910             340.00     2240.00
00911             340.00     2160.00
00912             320.00     2160.00
00913             300.00     2080.00
00914             300.00     2080.00
00915             300.00     2000.00
00916             300.00     1920.00
00917             300.00     1840.00
00918             280.00     1840.00
00919             300.00     1760.00
00920             280.00     1760.00
00921             280.00     1760.00
00922             280.00     1600.00
00923             280.00     1600.00
00924             260.00     1600.00
00925             260.00     1520.00
00926             260.00     1440.00
00927             260.00     1440.00
00928             260.00     1440.00
00929             260.00     1440.00
00930             220.00     1360.00
00931             240.00     1280.00
00932             240.00     1200.00
00933             220.00     1200.00
00934             200.00     1120.00
00935             200.00     1120.00
00936             220.00     1120.00
00937             200.00      960.00
00938             200.00      960.00
00939             200.00      960.00
00940             200.00      880.00
00941             200.00      800.00
00942             180.00      800.00
00943             180.00      720.00
00944             180.00      720.00
00945             160.00      640.00
00946             180.00      640.00
00947             120.00      560.00
00948             140.00      480.00
00949             140.00      480.00
00950             120.00      400.00
00951             140.00      400.00
00952             120.00      320.00
00953             120.00      240.00
00954             100.00      240.00
00955             100.00      160.00
00956             100.00      160.00
00957             100.00       80.00
00958             100.00       80.00
00959             100.00        0.00
00960              80.00      -80.00
00961              60.00      -80.00
00962              80.00      -80.00
00963              60.00     -160.00
00964              60.00     -240.00
00965              40.00     -160.00
00966              40.00     -320.00
00967              40.00     -320.00
00968              40.00     -320.00
00969              40.00     -480.00
00970              40.00     -400.00
00971              40.00     -640.00
00972              20.00     -720.00
00973              20.00     -720.00
00974              20.00     -640.00
00975              40.00     -560.00
00976             -20.00     -880.00
00977             -20.00     -880.00
00978              20.00     -720.00
00979             -20.00     -880.00
00980             -40.00    -1040.00
00981             -20.00     -960.00
00982             -20.00     -960.00
00983             -60.00    -1200.00
00984             -40.00    -1120.00
00985             -40.00    -1120.00
00986             -60.00    -1280.00
00987             -60.00    -1280.00
00988             -60.00    -1280.00
00989             -60.00    -1360.00
00990             -60.00    -1440.00
00991             -60.00    -1440.00
00992            -100.00    -1520.00
00993            -100.00    -1600.00
00994            -100.00    -1600.00
00995            -100.00    -1680.00
00996            -100.00    -1680.00
00997            -100.00    -1680.00
00998            -100.00    -1760.00
00999            -120.00    -1840.00
01000            -120.00    -1840.00
01001            -120.00    -1920.00
01002            -120.00    -2000.00
01003            -120.00    -2000.00
01004            -140.00    -2080.00
01005            -140.00    -2080.00
01006            -140.00    -2080.00
01007            -140.00    -2240.00
01008            -180.00    -2240.00
01009            -180.00    -2320.00
01010            -200.00    -2320.00
01011            -180.00    -2320.00
01012            -180.00    -2400.00
01013            -200.00    -2480.00
01014            -200.00    -2400.00
01015            -200.00    -2560.00
01016            -200.00    -2560.00
01017            -220.00    -2640.00
01018            -200.00    -2720.00
01019            -220.00    -2720.00
01020            -220.00    -2720.00
01021            -240.00    -2800.00
01022            -240.00    -2880.00
01023            -220.00    -2880.00
01024            -220.00    -2880.00
01025            -260.00    -2960.00
01026            -260.00    -2960.00
01027            -240.00    -3040.00
01028            -260.00    -3120.00
01029            -260.00    -3120.00
01030            -280.00    -3200.00
01031            -280.00    -3200.00
01032            -280.00    -3280.00
01033            -280.00    -3360.00
01034            -280.00    -3360.00
01035            -300.00    -3360.00
01036            -280.00    -3360.00
01037            -300.00    -3520.00
01038            -300.00    -3520.00
01039            -300.00    -3600.00
01040            -320.00    -3600.00
01041            -320.00    -3600.00
01042            -320.00    -3680.00
01043            -320.00    -3680.00
01044            -340.00    -3680.00
01045            -340.00    -3840.00
01046            -360.00    -3760.00
01047            -340.00    -3920.00
01048            -340.00    -3920.00
01049            -340.00    -3920.00
01050            -360.00    -3920.00
01051            -360.00    -4000.00
01052            -360.00    -4000.00
01053            -380.00    -4000.00
01054            -360.00    -4160.00
01055            -380.00    -4160.00
01056            -380.00    -4240.00
01057            -380.00    -4240.00
01058            -380.00    -4240.00
01059            -400.00    -4320.00
01060            -380.00    -4400.00
01061            -420.00    -4400.00
01062            -400.00    -4400.00
01063            -420.00    -4480.00
01064            -420.00    -4480.00
01065            -440.00    -4560.00
01066            -420.00    -4640.00
01067            -440.00    -4560.00
01068            -440.00    -4640.00
01069            -440.00    -4720.00
01070            -440.00    -4720.00
01071            -440.00    -4800.00
01072            -440.00    -4800.00
01073            -460.00    -4880.00
01074            -460.00    -4880.00
01075            -440.00    -4960.00
01076            -460.00    -4960.00
01077            -460.00    -4960.00
01078            -500.00    -5040.00
01079            -500.00    -5120.00
01080            -500.00    -5120.00
01081            -500.00    -5120.00
01082            -500.00    -5200.00
01083            -520.00    -5200.00
01084            -520.00    -5200.00
01085            -520.00    -5280.00
01086            -520.00    -5280.00
01087            -520.00    -5280.00
01088            -520.00    -5360.00
01089            -520.00    -5440.00
01090            -540.00    -5360.00
01091            -540.00    -5440.00
01092            -540.00    -5520.00
01093            -540.00    -5520.00
01094            -540.00    -5520.00
01095            -540.00    -5520.00
01096            -560.00    -5600.00
01097            -580.00    -5600.00
01098            -560.00    -5680.00
01099            -580.00    -5680.00
01100            -580.00    -5760.00
01101            -580.00    -5760.00
01102            -580.00    -5840.00
01103            -600.00    -5840.00
01104            -580.00    -5840.00
01105            -600.00    -5840.00
01106            -580.00    -5920.00
01107            -600.00    -5840.00
01108            -580.00    -5920.00
01109            -600.00    -6080.00
01110            -600.00    -6000.00
01111            -600.00    -6080.00
01112            -600.00    -6080.00
01113            -620.00    -6080.00
01114            -620.00    -6080.00
01115            -620.00    -6080.00
01116            -600.00    -6160.00
01117            -620.00    -6160.00
01118            -620.00    -6240.00
01119            -620.00    -6240.00
01120            -640.00    -6240.00
01121            -660.00    -6400.00
01122            -620.00    -6240.00
01123            -620.00    -6320.00
01124            -640.00    -6400.00
01125            -660.00    -6400.00
01126            -660.00    -6400.00
01127            -660.00    -6400.00
01128            -660.00    -6480.00
01129            -660.00    -6480.00
01130            -660.00    -6560.00
01131            -660.00    -6560.00
01132            -660.00    -6560.00
01133            -680.00    -6560.00
01134            -680.00    -6560.00
01135            -680.00    -6640.00
01136            -700.00    -6560.00
01137            -680.00    -6640.00
01138            -680.00    -6640.00
01139            -700.00    -6720.00
01140            -700.00    -6720.00
01141            -700.00    -6720.00
01142            -700.00    -6720.00
01143            -700.00    -6800.00
01144            -700.00    -6800.00
01145            -700.00    -6800.00
01146            -700.00    -6800.00
01147            -700.00    -6880.00
01148            -700.00    -6800.00
01149            -700.00    -6800.00
01150            -740.00    -6880.00
01151            -720.00    -6880.00
01152            -740.00    -6880.00
01153            -740.00    -6960.00
01154            -740.00    -7040.00
01155            -740.00    -6960.00
01156            -740.00    -6960.00
01157            -740.00    -7040.00
01158            -740.00    -7040.00
01159            -760.00    -6960.00
01160            -760.00    -7040.00
01161            -760.00    -7120.00
01162            -760.00    -7040.00
01163            -760.00    -7040.00
01164            -760.00    -7120.00
01165            -760.00    -7120.00
01166            -760.00    -7120.00
01167            -740.00    -7120.00
01168            -760.00    -7200.00
01169            -760.00    -7120.00
01170            -760.00    -7200.00
01171            -760.00    -7200.00
01172            -760.00    -7200.00
01173            -780.00    -7200.00
01174            -780.00    -7200.00
01175            -760.00    -7200.00
01176            -780.00    -7200.00
01177            -760.00    -7280.00
01178            -760.00    -7360.00
01179            -760.00    -7280.00
01180            -760.00    -7360.00
01181            -780.00    -7360.00
01182            -760.00    -7280.00
01183            -780.00    -7360.00
01184            -780.00    -7360.00
01185            -780.00    -7360.00
01186            -780.00    -7360.00
01187            -780.00    -7360.00
01188            -780.00    -7360.00
01189            -780.00    -7360.00
01190            -780.00    -7360.00
01191            -780.00    -7360.00
01192            -780.00    -7360.00
01193            -780.00    -7360.00
01194            -820.00    -7360.00
01195            -780.00    -7360.00
01196            -780.00    -7360.00
01197            -800.00    -7440.00
01198            -780.00    -7440.00
01199            -820.00    -7440.00
01200            -800.00    -7440.00
01201            -800.00    -7440.00
01202            -800.00    -7440.00
01203            -820.00    -7360.00
01204            -820.00    -7440.00
01205            -800.00    -7440.00
01206            -820.00    -7440.00
01207            -840.00    -7440.00
01208            -820.00    -7440.00
01209            -840.00    -7440.00
01210            -820.00    -7440.00
01211            -820.00    -7440.00
01212            -840.00    -7440.00
01213            -840.00    -7440.00
01214            -840.00    -7360.00
01215            -820.00    -7440.00
01216            -840.00    -7440.00
01217            -820.00    -7440.00
01218            -840.00    -7360.00
01219            -840.00    -7440.00
01220            -820.00    -7440.00
01221            -820.00    -7360.00
01222            -840.00    -7440.00
01223            -840.00    -7440.00
01224            -840.00    -7360.00
01225            -840.00    -7360.00
01226            -840.00    -7360.00
01227            -820.00    -7360.00
01228            -840.00    -7440.00
01229            -840.00    -7360.00
01230            -840.00    -7360.00
01231            -820.00    -7360.00
01232            -840.00    -7360.00
01233            -840.00    -7360.00
01234            -820.00    -7360.00
01235            -820.00    -7360.00
01236            -840.00    -7360.00
01237            -820.00    -7360.00
01238            -820.00    -7360.00
01239            -840.00    -7360.00
01240            -820.00    -7200.00
01241            -820.00    -7360.00
01242            -820.00    -7280.00
01243            -820.00    -7200.00
01244            -820.00    -7280.00
01245            -820.00    -7200.00
01246            -820.00    -7200.00
01247            -820.00    -7120.00
01248            -820.00    -7200.00
01249            -820.00    -7200.00
01250            -820.00    -7120.00
01251            -820.00    -7120.00
01252            -820.00    -7200.00
01253            -820.00    -7120.00
01254            -820.00    -7120.00
01255            -820.00    -7120.00
01256            -820.00    -7120.00
01257            -820.00    -7120.00
01258            -820.00    -7040.00
01259            -800.00    -7120.00
01260            -820.00    -7040.00
01261            -800.00    -6960.00
01262            -820.00    -6960.00
01263            -780.00    -7040.00
01264            -820.00    -6960.00
01265            -800.00    -6960.00
01266            -800.00    -6960.00
01267            -820.00    -6880.00
01268            -780.00    -6880.00
01269            -820.00    -6880.00
01270            -820.00    -6880.00
01271            -780.00    -6880.00
01272            -780.00    -6880.00
01273            -800.00    -6880.00
01274            -800.00    -6800.00
01275            -800.00    -6880.00
01276            -780.00    -6800.00
01277            -780.00    -6800.00
01278            -780.00    -6800.00
01279            -780.00    -6800.00
01280            -780.00    -6720.00
01281            -780.00    -6720.00
01282            -780.00    -6720.00
01283            -780.00    -6640.00
01284            -780.00    -6640.00
01285            -780.00    -6560.00
01286            -780.00    -6560.00
01287            -780.00    -6560.00
01288            -760.00    -6560.00
01289            -780.00    -6560.00
01290            -760.00    -6560.00
01291            -780.00    -6480.00
01292            -760.00    -6480.00
01293            -760.00    -6480.00
01294            -760.00    -6480.00
01295            -760.00    -6400.00
01296            -760.00    -6400.00
01297            -760.00    -6400.00
01298            -760.00    -6320.00
01299            -740.00    -6400.00
01300            -740.00    -6320.00
01301            -740.00    -6240.00
01302            -740.00    -6240.00
01303            -740.00    -6240.00
01304            -740.00    -6240.00
01305            -760.00    -6160.00
01306            -740.00    -6160.00
01307            -740.00    -6080.00
01308            -760.00    -6080.00
01309            -720.00    -6080.00
01310            -740.00    -6080.00
01311            -700.00    -6080.00
01312            -700.00    -5920.00
01313            -720.00    -6000.00
01314            -700.00    -5920.00
01315            -700.00    -5920.00
01316            -700.00    -5920.00
01317            -700.00    -5840.00
01318            -700.00    -5840.00
01319            -700.00    -5760.00
01320            -680.00    -5760.00
01321            -680.00    -5760.00
01322            -680.00    -5760.00
01323            -680.00    -5680.00
01324            -700.00    -5680.00
01325            -680.00    -5600.00
01326            -680.00    -5600.00
01327            -680.00    -5520.00
01328            -660.00    -5520.00
01329            -680.00    -5520.00
01330            -680.00    -5440.00
01331            -660.00    -5520.00
01332            -680.00    -5440.00
01333            -680.00    -5360.00
01334            -660.00    -5360.00
01335            -660.00    -5280.00
01336            -660.00    -5280.00
01337            -660.00    -5280.00
01338            -660.00    -5280.00
01339            -660.00    -5200.00
01340            -660.00    -5200.00
01341            -620.00    -5120.00
01342            -660.00    -5120.00
01343            -620.00    -5120.00
01344            -620.00    -5120.00
01345            -620.00    -4960.00
01346            -620.00    -4960.00
01347            -620.00    -4960.00
01348            -620.00    -4880.00
01349            -620.00    -4880.00
01350            -600.00    -4880.00
01351            -600.00    -4800.00
01352            -600.00    -4800.00
01353            -600.00    -4800.00
01354            -600.00    -4640.00
01355            -600.00    -4640.00
01356            -620.00    -4640.00
01357            -600.00    -4480.00
01358            -600.00    -4480.00
01359            -600.00    -4560.00
01360            -600.00    -4400.00
01361            -580.00    -4400.00
01362            -580.00    -4320.00
01363            -580.00    -4320.00
01364            -580.00    -4240.00
01365            -540.00    -4320.00
01366            -540.00    -4240.00
01367            -540.00    -4160.00
01368            -540.00    -4160.00
01369            -540.00    -4000.00
01370            -520.00    -4160.00
01371            -540.00    -4000.00
01372            -540.00    -4000.00
01373            -520.00    -4000.00
01374            -520.00    -3920.00
01375            -520.00    -3920.00
01376            -520.00    -3840.00
01377            -500.00    -3760.00
01378            -500.00    -3760.00
01379            -500.00    -3680.00
01380            -500.00    -3680.00
01381            -480.00    -3680.00
01382            -500.00    -3600.00
01383            -500.00    -3600.00
01384            -500.00    -3600.00
01385            -480.00    -3520.00
01386            -460.00    -3520.00
01387            -480.00    -3440.00
01388            -440.00    -3360.00
01389            -460.00    -3280.00
01390            -440.00    -3280.00
01391            -440.00    -3360.00
01392            -440.00    -3280.00
01393            -440.00    -3200.00
01394            -440.00    -3120.00
01395            -440.00    -3120.00
01396            -420.00    -3120.00
01397            -440.00    -3040.00
01398            -440.00    -2960.00
01399            -420.00    -2880.00
01400            -420.00    -2880.00
01401            -440.00    -2880.00
01402            -420.00    -2800.00
01403            -420.00    -2800.00
01404            -420.00    -2720.00
01405            -420.00    -2720.00
01406            -380.00    -2640.00
01407            -380.00    -2560.00
01408            -380.00    -2640.00
01409            -380.00    -2560.00
01410            -380.00    -2400.00
01411            -380.00    -2400.00
01412            -360.00    -2400.00
01413            -380.00    -2320.00
01414            -360.00    -2320.00
01415            -360.00    -2320.00
01416            -360.00    -2240.00
01417            -360.00    -2240.00
01418            -340.00    -2080.00
01419            -340.00    -2080.00
01420            -300.00    -2080.00
01421            -340.00    -2000.00
01422            -340.00    -2000.00
01423            -340.00    -1840.00
01424            -340.00    -1920.00
01425            -300.00    -1840.00
01426            -300.00    -1760.00
01427            -300.00    -1680.00
01428            -280.00    -1680.00
01429            -280.00    -1680.00
01430            -280.00    -1600.00
01431            -280.00    -1600.00
01432            -280.00    -1520.00
01433            -260.00    -1440.00
01434            -280.00    -1440.00
01435            -280.00    -1360.00
01436            -260.00    -1360.00
01437            -260.00    -1280.00
01438            -260.00    -1280.00
01439            -220.00    -1200.00
01440            -220.00    -1200.00
01441            -220.00    -1120.00
01442            -220.00    -1120.00
01443            -220.00    -1040.00
01444            -220.00     -960.00
01445            -200.00     -960.00
01446            -200.00     -800.00
01447            -200.00     -880.00
01448            -200.00     -800.00
01449            -200.00     -800.00
01450            -180.00     -640.00
01451            -200.00     -640.00
01452            -180.00     -640.00
01453            -180.00     -640.00
01454            -140.00     -480.00
01455            -140.00     -400.00
01456            -160.00     -400.00
01457            -140.00     -400.00
01458            -140.00     -320.00
01459            -140.00     -320.00
01460            -140.00     -240.00
01461            -140.00     -160.00
01462            -120.00     -160.00
01463            -120.00      -80.00
01464            -120.00      -80.00
01465            -120.00        0.00
01466            -100.00        0.00
01467            -120.00      160.00
01468            -100.00       80.00
01469            -100.00      160.00
01470             -80.00      160.00
01471            -100.00      240.00
01472             -60.00      320.00
01473            -100.00      320.00
01474             -60.00      320.00
01475             -60.00      480.00
01476             -60.00      560.00
01477             -40.00      560.00
01478             -60.00      640.00
01479             -60.00      560.00
01480             -60.00      480.00
01481             -40.00      800.00
01482             -20.00      880.00
01483             -40.00      800.00
01484             -40.00      720.00
01485               0.00      960.00
01486              20.00     1040.00
01487             -20.00      880.00
01488              20.00     1120.00
01489              20.00     1200.00
01490               0.00     1040.00
01491              20.00     1120.00
01492              40.00     1280.00
01493              20.00     1280.00
01494              40.00     1280.00
01495              40.00     1440.00
01496              40.00     1440.00
01497              40.00     1440.00
01498              60.00     1520.00
01499              60.00     1520.00
01500              80.00     1600.00
01501              80.00     1680.00
01502             100.00     1600.00
01503             100.00     1760.00
01504             100.00     1840.00
01505             100.00     1760.00
01506             120.00     1840.00
01507             120.00     1920.00
01508             120.00     1920.00
01509             120.00     2000.00
01510             120.00     2000.00
01511             120.00     2080.00
01512             140.00     2160.00
01513             140.00     2240.00
01514             140.00     2240.00
01515             160.00     2240.00
01516             160.00     2400.00
01517             160.00     2400.00
01518             180.00     2400.00
01519             180.00     2480.00
01520             180.00     2480.00
01521             180.00     2560.00
01522             200.00     2560.00
01523             180.00     2560.00
01524             200.00     2720.00
01525             200.00     2720.00
01526             200.00     2800.00
01527             200.00     2800.00
01528             200.00     2800.00
01529             200.00     2880.00
01530             220.00     2880.00
01531             220.00     2960.00
01532             220.00     3040.00
01533             260.00     3040.00
01534             260.00     3120.00
01535             240.00     3200.00
01536             260.00     3200.00
01537             260.00     3280.00
01538             260.00     3280.00
01539             260.00     3360.00
01540             260.00     3360.00
01541             260.00     3360.00
01542             260.00     3440.00
01543             280.00     3440.00
01544             280.00     3520.00
01545             280.00     3520.00
01546             280.00     3600.00
01547             280.00     3600.00
01548             300.00     3680.00
01549             300.00     3760.00
01550             300.00     3680.00
01551             300.00     3760.00
01552             320.00     3840.00
01553             320.00     3840.00
01554             320.00     3920.00
01555             340.00     4000.00
01556             340.00     4000.00
01557             340.00     4080.00
01558             360.00     4080.00
01559             360.00     4160.00
01560             360.00     4160.00
01561             360.00     4160.00
01562             360.00     4240.00
01563             380.00     4320.00
01564             380.00     4320.00
01565             360.00     4320.00
01566             380.00     4320.00
01567             380.00     4400.00
01568             380.00     4480.00
01569             420.00     4480.00
01570             420.00     4480.00
01571             420.00     4560.00
01572             420.00     4640.00
01573             420.00     4640.00
01574             420.00     4800.00
01575             420.00     4720.00
01576             420.00     4800.00
01577             440.00     4800.00
01578             440.00     4880.00
01579             440.00     4800.00
01580             440.00     4960.00
01581             440.00     4960.00
01582             460.00     5040.00
01583             460.00     4960.00
01584             460.00     5040.00
01585             460.00     5120.00
01586             460.00     5040.00
01587             500.00     5120.00
01588             460.00     5200.00
01589             500.00     5280.00
01590             500.00     5280.00
01591             500.00     5280.00
01592             500.00     5280.00
01593             500.00     5360.00
01594             520.00     5360.00
01595             520.00     5440.00
01596             520.00     5360.00
01597             520.00     5440.00
01598             520.00     5520.00
01599             520.00     5440.00
01600             520.00     5600.00
01601             520.00     5600.00
01602             520.00     5680.00
01603             520.00     5680.00
01604             540.00     5680.00
01605             540.00     5760.00
01606             520.00     5760.00
01607             560.00     5760.00
01608             540.00     5840.00
01609             540.00     5920.00
01610             540.00     5920.00
01611             580.00     5920.00
01612             580.00     5920.00
01613             580.00     5920.00
01614             580.00     6000.00
01615             580.00     6000.00
01616             580.00     6000.00
01617             580.00     6000.00
01618             580.00     6080.00
01619             600.00     6160.00
01620             600.00     6080.00
01621             600.00     6240.00
01622             600.00     6240.00
01623             600.00     6240.00
01624             620.00     6320.00
01625             620.00     6240.00
01626             620.00     6320.00
01627             600.00     6320.00
01628             640.00     6400.00
01629             620.00     6400.00
01630             660.00     6320.00
01631             640.00     6400.00
01632             660.00     6560.00
01633             640.00     6400.00
01634             660.00     6560.00
01635             660.00     6560.00
01636             660.00     6560.00
01637             660.00     6560.00
01638             660.00     6560.00
01639             680.00     6640.00
01640             680.00     6640.00
01641             660.00     6640.00
01642             680.00     6640.00
01643             660.00     6720.00
01644             680.00     6720.00
01645             680.00     6720.00
01646             680.00     6720.00
01647             680.00     6720.00
01648             680.00     6800.00
01649             680.00     6880.00
01650             700.00     6880.00
01651             680.00     6880.00
01652             700.00     6880.00
01653             720.00     6880.00
01654             700.00     6880.00
01655             720.00     6960.00
01656             700.00     6960.00
01657             740.00     6960.00
01658             740.00     6960.00
01659             720.00     7040.00
01660             740.00     7040.00
01661             740.00     6960.00
01662             700.00     7040.00
01663             720.00     7040.00
01664             720.00     7120.00
01665             740.00     7040.00
01666             740.00     7040.00
01667             740.00     7120.00
01668             740.00     7040.00
01669             740.00     7200.00
01670             740.00     7200.00
01671             740.00     7200.00
01672             740.00     7200.00
01673             740.00     7200.00
01674             740.00     7280.00
01675             740.00     7280.00
01676             760.00     7280.00
01677             760.00     7280.00
01678             740.00     7360.00
01679             760.00     7280.00
01680             760.00     7280.00
01681             760.00     7280.00
01682             760.00     7280.00
01683             760.00     7360.00
01684             760.00     7360.00
01685             760.00     7280.00
01686             780.00     7360.00
01687             780.00     7360.00
01688             780.00     7360.00
01689             780.00     7360.00
01690             780.00     7360.00
01691             780.00     7360.00
01692             780.00     7360.00
01693             780.00     7440.00
01694             780.00     7440.00
01695             780.00     7440.00
01696             780.00     7440.00
01697             780.00     7520.00
01698             780.00     7520.00
01699             800.00     7440.00
01700             820.00     7520.00
01701             800.00     7360.00
01702             800.00     7440.00
01703             820.00     7520.00
01704             820.00     7440.00
01705             820.00     7520.00
01706             820.00     7440.00
01707             800.00     7520.00
01708             800.00     7520.00
01709             820.00     7520.00
01710             820.00     7520.00
01711             820.00     7520.00
01712             820.00     7520.00
01713             820.00     7600.00
01714             820.00     7520.00
01715             820.00     7520.00
01716             820.00     7520.00
01717             820.00     7520.00
01718             820.00     7520.00
01719             820.00     7520.00
01720             820.00     7520.00
01721             820.00     7520.00
01722             820.00     7520.00
01723             820.00     7520.00
01724             820.00     7520.00
01725             820.00     7520.00
01726             820.00     7520.00
01727             820.00     7520.00
01728             820.00     7520.00
01729             820.00     7520.00
01730             820.00     7520.00
01731             820.00     7520.00
01732             820.00     7520.00
01733             820.00     7520.00
01734             820.00     7520.00
01735             820.00     7520.00
01736             820.00     7440.00
01737             820.00     7520.00
01738             820.00     7440.00
01739             820.00     7520.00
01740             820.00     7440.00
01741             820.00     7440.00
01742             820.00     7360.00
01743             820.00     7440.00
01744             820.00     7360.00
01745             820.00     7440.00
01746             820.00     7440.00
01747             820.00     7360.00
01748             820.00     7360.00
01749             820.00     7360.00
01750             820.00     7360.00
01751             820.00     7360.00
01752             780.00     7360.00
01753             820.00     7360.00
01754             800.00     7360.00
01755             800.00     7280.00
01756             820.00     7360.00
01757             820.00     7360.00
01758             820.00     7280.00
01759             820.00     7280.00
01760             820.00     7280.00
01761             800.00     7200.00
01762             820.00     7280.00
01763             820.00     7200.00
01764             820.00     7200.00
01765             820.00     7280.00
01766             820.00     7120.00
01767             800.00     7200.00
01768             800.00     7200.00
01769             820.00     7120.00
01770             820.00     7120.00
01771             820.00     7120.00
01772             780.00     7040.00
01773             820.00     7120.00
01774             800.00     7040.00
01775             820.00     7040.00
01776             800.00     7040.00
01777             800.00     6960.00
01778             800.00     7040.00
01779             800.00     7040.00
01780             820.00     6960.00
01781             820.00     6960.00
01782             780.00     6960.00
01783             780.00     6880.00
01784             780.00     6960.00
01785             800.00     6880.00
01786             780.00     6880.00
01787             780.00     6880.00
01788             800.00     6880.00
01789             780.00     6800.00
01790             780.00     6720.00
01791             760.00     6720.00
01792             760.00     6720.00
01793             780.00     6720.00
01794             760.00     6720.00
01795             760.00     6720.00
01796             760.00     6640.00
01797             760.00     6640.00
01798             760.00     6640.00
01799             760.00     6640.00
01800             740.00     6560.00
01801             740.00     6560.00
01802             760.00     6560.00
01803             760.00     6560.00
01804             740.00     6560.00
01805             740.00     6480.00
01806             740.00     6400.00
01807             740.00     6400.00
01808             740.00     6400.00
01809             740.00     6400.00
01810             740.00     6400.00
01811             740.00     6320.00
01812             740.00     6320.00
01813             720.00     6320.00
01814             740.00     6240.00
01815             740.00     6240.00
01816             720.00     6240.00
01817             740.00     6160.00
01818             700.00     6160.00
01819             700.00     6080.00
01820             700.00     6080.00
01821             700.00     6080.00
01822             740.00     6080.00
01823             700.00     6000.00
01824             700.00     6000.00
01825             720.00     5920.00
01826             700.00     5920.00
01827             680.00     5920.00
01828             700.00     5920.00
01829             700.00     5840.00
01830             680.00     5840.00
01831             680.00     5760.00
01832             680.00     5840.00
01833             680.00     5760.00
01834             680.00     5680.00
01835             680.00     5600.00
01836             660.00     5600.00
01837             680.00     5680.00
01838             680.00     5600.00
01839             660.00     5600.00
01840             680.00     5440.00
01841             660.00     5440.00
01842             660.00     5440.00
01843             660.00     5440.00
01844             660.00     5360.00
01845             660.00     5360.00
01846             660.00     5360.00
01847             640.00     5280.00
01848             640.00     5280.00
01849             660.00     5280.00
01850             620.00     5200.00
01851             620.00     5120.00
01852             640.00     5120.00
01853             620.00     5120.00
01854             620.00     5040.00
01855             620.00     5040.00
01856             620.00     4960.00
01857             620.00     4960.00
01858             600.00     4960.00
01859             600.00     4880.00
01860             600.00     4800.00
01861             580.00     4800.00
01862             580.00     4720.00
01863             580.00     4720.00
01864             580.00     4720.00
01865             580.00     4640.00
01866             580.00     4720.00
01867             560.00     4560.00
01868             580.00     4560.00
01869             580.00     4480.00
01870             540.00     4480.00
01871             560.00     4400.00
01872             560.00     4400.00
01873             540.00     4400.00
01874             540.00     4320.00
01875             540.00     4320.00
01876             540.00     4320.00
01877             520.00     4240.00
01878             540.00     4160.00
01879             520.00     4080.00
01880             520.00     4080.00
01881             520.00     4080.00
01882             520.00     4000.00
01883             520.00     4000.00
01884             520.00     4000.00
01885             520.00     4000.00
01886             500.00     3840.00
01887             500.00     3840.00
01888             500.00     3840.00
01889             460.00     3760.00
01890             500.00     3680.00
01891             500.00     3680.00
01892             460.00     3680.00
01893             480.00     3600.00
01894             460.00     3520.00
01895             460.00     3520.00
01896             460.00     3520.00
01897             440.00     3440.00
01898             460.00     3360.00
01899             440.00     3360.00
01900             440.00     3360.00
01901             440.00     3280.00
01902             440.00     3280.00
01903             420.00     3200.00
01904             440.00     3120.00
01905             420.00     3120.00
01906             420.00     3120.00
01907             420.00     3120.00
01908             420.00     3040.00
01909             400.00     2880.00
01910             400.00     2880.00
01911             400.00     2800.00
01912             380.00     2880.00
01913             380.00     2720.00
01914             380.00     2720.00
01915             360.00     2720.00
01916             380.00     2560.00
01917             360.00     2640.00
01918             360.00     2560.00
01919             360.00     2480.00
01920             360.00     2480.00
01921             340.00     2400.00
01922             340.00     2400.00
01923             340.00     2400.00
01924             340.00     2400.00
01925             340.00     2240.00
01926             340.00     2240.00
01927             320.00     2240.00
01928             300.00     2080.00
01929             300.00     2160.00
01930             300.00     2000.00
01931             280.00     1920.00
01932             300.00     1920.00
01933             280.00     1840.00
01934             280.00     1840.00
01935             280.00     1840.00
01936             260.00     1760.00
01937             280.00     1760.00
01938             260.00     1680.00
01939             260.00     1600.00
01940             260.00     1600.00
01941             260.00     1520.00
01942             260.00     1520.00
01943             260.00     1440.00
01944             260.00     1440.00
01945             260.00     1440.00
01946             220.00     1280.00
01947             220.00     1280.00
01948             220.00     1200.00
01949             200.00     1200.00
01950             220.00     1120.00
01951             200.00     1120.00
01952             200.00     1120.00
01953             200.00     1040.00
01954             180.00      960.00
01955             200.00      880.00
01956             180.00      800.00
01957             180.00      800.00
01958             180.00      800.00
01959             180.00      800.00
01960             180.00      720.00
01961             180.00      640.00
01962             180.00      640.00
01963             180.00      560.00
01964             160.00      480.00
01965             140.00      480.00
01966             140.00      320.00
01967             140.00      320.00
01968             120.00      320.00
01969             120.00      320.00
01970             120.00      240.00
01971             120.00      160.00
01972             120.00      160.00
01973             120.00       80.00
01974             100.00        0.00
01975             100.00        0.00
01976             100.00        0.00
01977             100.00      -80.00
01978             100.00      -80.00
01979              60.00     -160.00
01980             100.00     -160.00
01981              60.00     -240.00
01982              60.00     -320.00
01983              40.00     -320.00
01984              40.00     -400.00
01985              40.00     -400.00
01986              40.00     -480.00
01987              20.00     -560.00
01988              20.00     -720.00
01989              20.00     -800.00
01990              20.00     -640.00
01991              20.00     -640.00
01992               0.00     -880.00
01993             -20.00     -880.00
01994              20.00     -800.00
01995             -20.00     -880.00
01996             -60.00    -1040.00
01997             -40.00     -960.00
01998             -20.00    -1040.00
01999             -60.00    -1120.00
02000             -40.00    -1120.00
02001             -40.00    -1120.00
02002             -60.00    -1360.00
02003             -60.00    -1280.00
02004             -60.00    -1280.00
02005             -60.00    -1440.00
02006            -100.00    -1440.00
02007            -100.00    -1360.00
02008            -100.00    -1440.00
02009             -80.00    -1520.00
02010            -100.00    -1600.00
02011            -120.00    -1600.00
02012            -120.00    -1680.00
02013            -120.00    -1680.00
02014            -120.00    -1760.00
02015            -120.00    -1760.00
02016            -120.00    -1760.00
02017            -120.00    -1920.00
02018            -120.00    -2000.00
02019            -140.00    -2000.00
02020            -120.00    -2080.00
02021            -140.00    -2080.00
02022            -140.00    -2080.00
02023            -140.00    -2160.00
02024            -160.00    -2240.00
02025            -180.00    -2320.00
02026            -180.00    -2320.00
02027            -180.00    -2320.00
02028            -160.00    -2400.00
02029            -200.00    -2480.00
02030            -200.00    -2480.00
02031            -200.00    -2560.00
02032            -200.00    -2640.00
02033            -200.00    -2640.00
02034            -220.00    -2640.00
02035            -220.00    -2720.00
02036            -200.00    -2720.00
02037            -220.00    -2720.00
02038            -220.00    -2880.00
02039            -220.00    -2880.00
02040            -220.00    -2960.00
02041            -220.00    -2960.00
02042            -240.00    -2960.00
02043            -240.00    -3040.00
02044            -260.00    -3040.00
02045            -260.00    -3200.00
02046            -260.00    -3200.00
02047            -280.00    -3280.00
02048            -280.00    -3280.00
02049            -280.00    -3280.00
02050            -280.00    -3360.00
02051            -280.00    -3360.00
02052            -300.00    -3360.00
02053            -300.00    -3440.00
02054            -300.00    -3520.00
02055            -300.00    -3520.00
02056            -300.00    -3600.00
02057            -340.00    -3600.00
02058            -320.00    -3680.00
02059            -340.00    -3680.00
02060            -340.00    -3760.00
02061            -340.00    -3680.00
02062            -360.00    -3840.00
02063            -360.00    -3840.00
02064            -340.00    -3920.00
02065            -360.00    -4000.00
02066            -380.00    -3920.00
02067            -380.00    -4000.00
02068            -380.00    -4000.00
02069            -380.00    -4160.00
02070            -380.00    -4160.00
02071            -380.00    -4160.00
02072            -380.00    -4240.00
02073            -400.00    -4320.00
02074            -380.00    -4320.00
02075            -420.00    -4320.00
02076            -420.00    -4320.00
02077            -420.00    -4400.00
02078            -420.00    -4480.00
02079            -440.00    -4480.00
02080            -420.00    -4480.00
02081            -420.00    -4560.00
02082            -440.00    -4560.00
02083            -440.00    -4640.00
02084            -440.00    -4640.00
02085            -440.00    -4800.00
02086            -440.00    -4720.00
02087            -460.00    -4800.00
02088            -460.00    -4800.00
02089            -460.00    -4800.00
02090            -440.00    -4800.00
02091            -460.00    -4960.00
02092            -460.00    -4960.00
02093            -460.00    -4960.00
02094            -460.00    -5040.00
02095            -460.00    -5120.00
02096            -500.00    -5040.00
02097            -480.00    -5120.00
02098            -500.00    -5120.00
02099            -500.00    -5200.00
02100            -500.00    -5200.00
02101            -500.00    -5200.00
02102            -520.00    -5280.00
02103            -520.00    -5280.00
02104            -520.00    -5280.00
02105            -520.00    -5440.00
02106            -520.00    -5440.00
02107            -540.00    -5440.00
02108            -520.00    -5440.00
02109            -540.00    -5520.00
02110            -540.00    -5520.00
02111            -540.00    -5600.00
02112            -540.00    -5600.00
02113            -540.00    -5600.00
02114            -540.00    -5600.00
02115            -580.00    -5680.00
02116            -580.00    -5760.00
02117            -560.00    -5760.00
02118            -600.00    -5760.00
02119            -600.00    -5840.00
02120            -600.00    -5840.00
02121            -600.00    -5840.00
02122            -600.00    -5920.00
02123            -600.00    -5920.00
02124            -620.00    -5920.00
02125            -600.00    -5920.00
02126            -620.00    -6000.00
02127            -600.00    -6080.00
02128            -620.00    -6080.00
02129            -620.00    -6080.00
02130            -640.00    -6080.00
02131            -620.00    -6160.00
02132            -640.00    -6160.00
02133            -620.00    -6160.00
02134            -640.00    -6240.00
02135            -640.00    -6160.00
02136            -640.00    -6240.00
02137            -660.00    -6240.00
02138            -660.00    -6240.00
02139            -620.00    -6400.00
02140            -660.00    -6400.00
02141            -660.00    -6400.00
02142            -680.00    -6400.00
02143            -660.00    -6480.00
02144            -680.00    -6480.00
02145            -680.00    -6480.00
02146            -680.00    -6480.00
02147            -680.00    -6480.00
02148            -680.00    -6560.00
02149            -680.00    -6560.00
02150            -660.00    -6640.00
02151            -680.00    -6560.00
02152            -680.00    -6640.00
02153            -700.00    -6560.00
02154            -700.00    -6720.00
02155            -680.00    -6720.00
02156            -700.00    -6720.00
02157            -700.00    -6720.00
02158            -700.00    -6720.00
02159            -700.00    -6800.00
02160            -720.00    -6800.00
02161            -700.00    -6800.00
02162            -700.00    -6800.00
02163            -700.00    -6880.00
02164            -720.00    -6800.00
02165            -700.00    -6880.00
02166            -700.00    -6880.00
02167            -740.00    -6880.00
02168            -740.00    -6880.00
02169            -740.00    -6960.00
02170            -740.00    -6880.00
02171            -740.00    -6960.00
02172            -740.00    -6960.00
02173            -740.00    -6960.00
02174            -740.00    -7040.00
02175            -740.00    -7040.00
02176            -740.00    -6960.00
02177            -760.00    -6960.00
02178            -740.00    -7040.00
02179            -760.00    -6960.00
02180            -760.00    -7040.00
02181            -760.00    -7120.00
02182            -740.00    -7120.00
02183            -760.00    -7200.00
02184            -760.00    -7120.00
02185            -760.00    -7120.00
02186            -760.00    -7120.00
02187            -760.00    -7200.00
02188            -760.00    -7200.00
02189            -760.00    -7200.00
02190            -780.00    -7280.00
02191            -780.00    -7200.00
02192            -780.00    -7200.00
02193            -780.00    -7200.00
02194            -760.00    -7280.00
02195            -780.00    -7360.00
02196            -800.00    -7200.00
02197            -780.00    -7280.00
02198            -800.00    -7360.00
02199            -780.00    -7360.00
02200            -780.00    -7360.00
02201            -780.00    -7360.00
02202            -800.00    -7360.00
02203            -800.00    -7360.00
02204            -820.00    -7360.00
02205            -780.00    -7360.00
02206            -820.00    -7360.00
02207            -800.00    -7360.00
02208            -800.00    -7440.00
02209            -820.00    -7360.00
02210            -820.00    -7440.00
02211            -800.00    -7440.00
02212            -780.00    -7360.00
02213            -820.00    -7360.00
02214            -820.00    -7360.00
02215            -820.00    -7440.00
02216            -800.00    -7360.00
02217            -820.00    -7440.00
02218            -820.00    -7440.00
02219            -820.00    -7440.00
02220            -820.00    -7440.00
02221            -820.00    -7440.00
02222            -820.00    -7440.00
02223            -820.00    -7440.00
02224            -820.00    -7440.00
02225            -820.00    -7440.00
02226            -820.00    -7440.00
02227            -820.00    -7440.00
02228            -820.00    -7520.00
02229            -820.00    -7440.00
02230            -800.00    -7440.00
02231            -820.00    -7360.00
02232            -820.00    -7440.00
02233            -820.00    -7440.00
02234            -840.00    -7440.00
02235            -820.00    -7440.00
02236            -820.00    -7360.00
02237            -820.00    -7440.00
02238            -820.00    -7440.00
02239            -820.00    -7440.00
02240            -820.00    -7440.00
02241            -820.00    -7360.00
02242            -820.00    -7360.00
02243            -820.00    -7440.00
02244            -820.00    -7360.00
02245            -820.00    -7440.00
02246            -840.00    -7360.00
02247            -820.00    -7360.00
02248            -820.00    -7360.00
02249            -840.00    -7360.00
02250            -840.00    -7360.00
02251            -840.00    -7360.00
02252            -820.00    -7360.00
02253            -840.00    -7360.00
02254            -820.00    -7360.00
02255            -840.00    -7280.00
02256            -820.00    -7280.00
02257            -820.00    -7360.00
02258            -820.00    -7280.00
02259            -840.00    -7200.00
02260            -820.00    -7280.00
02261            -820.00    -7280.00
02262            -840.00    -7200.00
02263            -820.00    -7200.00
02264            -840.00    -7200.00
02265            -840.00    -7200.00
02266            -840.00    -7120.00
02267            -820.00    -7200.00
02268            -820.00    -7200.00
02269            -820.00    -7120.00
02270            -840.00    -7120.00
02271            -820.00    -7120.00
02272            -820.00    -7120.00
02273            -820.00    -7120.00
02274            -820.00    -7120.00
02275            -840.00    -7120.00
02276            -820.00    -7120.00
02277            -820.00    -7040.00
02278            -820.00    -7040.00
02279            -820.00    -6960.00
02280            -800.00    -6960.00
02281            -820.00    -6960.00
02282            -780.00    -6960.00
02283            -820.00    -6960.00
02284            -780.00    -6960.00
02285            -820.00    -6880.00
02286            -800.00    -6880.00
02287            -800.00    -6880.00
02288            -780.00    -6880.00
02289            -820.00    -6880.00
02290            -780.00    -6880.00
02291            -780.00    -6880.00
02292            -780.00    -6800.00
02293            -780.00    -6800.00
02294            -780.00    -6800.00
02295            -780.00    -6800.00
02296            -780.00    -6720.00
02297            -760.00    -6720.00
02298            -780.00    -6720.00
02299            -760.00    -6720.00
02300            -780.00    -6640.00
02301            -760.00    -6720.00
02302            -780.00    -6640.00
02303            -760.00    -6560.00
02304            -760.00    -6560.00
02305            -760.00    -6560.00
02306            -760.00    -6560.00
02307            -760.00    -6480.00
02308            -760.00    -6560.00
02309            -760.00    -6400.00
02310            -760.00    -6400.00
02311            -760.00    -6400.00
02312            -760.00    -6400.00
02313            -760.00    -6400.00
02314            -760.00    -6400.00
02315            -760.00    -6400.00
02316            -760.00    -6240.00
02317            -760.00    -6240.00
02318            -740.00    -6240.00
02319            -740.00    -6240.00
02320            -760.00    -6160.00
02321            -760.00    -6240.00
02322            -740.00    -6160.00
02323            -760.00    -6160.00
02324            -740.00    -6080.00
02325            -740.00    -6080.00
02326            -740.00    -6080.00
02327            -720.00    -6080.00
02328            -740.00    -6000.00
02329            -740.00    -5920.00
02330            -700.00    -5920.00
02331            -720.00    -5920.00
02332            -700.00    -5920.00
02333            -700.00    -5840.00
02334            -700.00    -5840.00
02335            -700.00    -5840.00
02336            -700.00    -5760.00
02337            -680.00    -5760.00
02338            -700.00    -5680.00
02339            -680.00    -5760.00
02340            -700.00    -5760.00
02341            -680.00    -5600.00
02342            -700.00    -5600.00
02343            -680.00    -5520.00
02344            -680.00    -5520.00
02345            -680.00    -5520.00
02346            -680.00    -5520.00
02347            -680.00    -5440.00
02348            -680.00    -5440.00
02349            -680.00    -5440.00
02350            -660.00    -5360.00
02351            -660.00    -5280.00
02352            -660.00    -5280.00
02353            -660.00    -5280.00
02354            -620.00    -5200.00
02355            -660.00    -5120.00
02356            -640.00    -5200.00
02357            -620.00    -5120.00
02358            -620.00    -5120.00
02359            -620.00    -5040.00
02360            -620.00    -5040.00
02361            -620.00    -4960.00
02362            -620.00    -5040.00
02363            -600.00    -4880.00
02364            -620.00    -4880.00
02365            -600.00    -4800.00
02366            -600.00    -4800.00
02367            -600.00    -4800.00
02368            -600.00    -4800.00
02369            -600.00    -4720.00
02370            -620.00    -4640.00
02371            -580.00    -4640.00
02372            -600.00    -4640.00
02373            -580.00    -4560.00
02374            -580.00    -4560.00
02375            -580.00    -4480.00
02376            -580.00    -4480.00
02377            -600.00    -4400.00
02378            -580.00    -4400.00
02379            -580.00    -4320.00
02380            -540.00    -4320.00
02381            -560.00    -4240.00
02382            -540.00    -4240.00
02383            -540.00    -4160.00
02384            -560.00    -4240.00
02385            -540.00    -4160.00
02386            -540.00    -4080.00
02387            -540.00    -4080.00
02388            -520.00    -4000.00
02389            -520.00    -4000.00
02390            -540.00    -3920.00
02391            -520.00    -3920.00
02392            -520.00    -3840.00
02393            -520.00    -3840.00
02394            -500.00    -3840.00
02395            -520.00    -3760.00
02396            -500.00    -3680.00
02397            -500.00    -3600.00
02398            -500.00    -3600.00
02399            -500.00    -3600.00
02400            -460.00    -3520.00
02401            -480.00    -3520.00
02402            -460.00    -3440.00
02403            -460.00    -3440.00
02404            -480.00    -3360.00
02405            -460.00    -3360.00
02406            -460.00    -3360.00
02407            -460.00    -3280.00
02408            -460.00    -3280.00
02409            -440.00    -3200.00
02410            -440.00    -3200.00
02411            -420.00    -3040.00
02412            -420.00    -3040.00
02413            -440.00    -3040.00
02414            -440.00    -2960.00
02415            -420.00    -2960.00
02416            -420.00    -2880.00
02417            -420.00    -2880.00
02418            -420.00    -2800.00
02419            -380.00    -2720.00
02420            -380.00    -2720.00
02421            -380.00    -2720.00
02422            -380.00    -2640.00
02423            -380.00    -2640.00
02424            -380.00    -2560.00
02425            -360.00    -2560.00
02426            -360.00    -2560.00
02427            -380.00    -2400.00
02428            -380.00    -2400.00
02429            -360.00    -2400.00
02430            -360.00    -2320.00
02431            -340.00    -2240.00
02432            -360.00    -2240.00
02433            -340.00    -2240.00
02434            -340.00    -2080.00
02435            -340.00    -2080.00
02436            -340.00    -2000.00
02437            -320.00    -2000.00
02438            -300.00    -1920.00
02439            -300.00    -1920.00
02440            -300.00    -1840.00
02441            -300.00    -1760.00
02442            -300.00    -1760.00
02443            -300.00    -1760.00
02444            -280.00    -1680.00
02445            -280.00    -1680.00
02446            -280.00    -1600.00
02447            -280.00    -1600.00
02448            -280.00    -1440.00
02449            -280.00    -1440.00
02450            -280.00    -1440.00
02451            -280.00    -1360.00
02452            -260.00    -1360.00
02453            -260.00    -1280.00
02454            -260.00    -1200.00
02455            -260.00    -1120.00
02456            -240.00    -1120.00
02457            -260.00    -1120.00
02458            -220.00    -1040.00
02459            -220.00    -1040.00
02460            -220.00     -960.00
02461            -220.00     -960.00
02462            -200.00     -880.00
02463            -200.00     -800.00
02464            -200.00     -800.00
02465            -200.00     -720.00
02466            -200.00     -720.00
02467            -200.00     -640.00
02468            -200.00     -640.00
02469            -180.00     -560.00
02470            -180.00     -560.00
02471            -180.00     -400.00
02472            -160.00     -480.00
02473            -140.00     -400.00
02474            -140.00     -320.00
02475            -140.00     -320.00
02476            -140.00     -240.00
02477            -140.00     -160.00
02478            -120.00     -160.00
02479            -120.00      -80.00
02480            -120.00      -80.00
02481            -120.00        0.00
02482            -100.00       80.00
02483             -80.00       80.00
02484            -100.00      160.00
02485            -100.00      160.00
02486            -100.00      240.00
02487             -60.00      240.00
02488             -60.00      320.00
02489             -60.00      320.00
02490             -60.00      480.00
02491             -40.00      480.00
02492             -60.00      480.00
02493             -40.00      560.00
02494             -60.00      720.00
02495             -60.00      560.00
02496             -40.00      640.00
02497             -20.00      800.00
02498              20.00      960.00
02499             -40.00      800.00
02500             -20.00      720.00
02501              20.00      960.00
02502              20.00      960.00
02503             -20.00      800.00
02504              20.00     1120.00
02505              40.00     1200.00
02506              20.00      960.00
02507              20.00     1120.00
02508              40.00     1280.00
02509              40.00     1200.00
02510              40.00     1280.00
02511              40.00     1440.00
02512              40.00     1280.00
02513              40.00     1440.00
02514              40.00     1520.00
02515              40.00     1520.00
02516              60.00     1520.00
02517              80.00     1600.00
02518              80.00     1600.00
02519             100.00     1680.00
02520             100.00     1840.00
02521              60.00     1760.00
02522             100.00     1840.00
02523             120.00     1920.00
02524             100.00     1920.00
02525             120.00     2000.00
02526             120.00     2160.00
02527             120.00     2080.00
02528             120.00     2160.00
02529             120.00     2240.00
02530             140.00     2160.00
02531             140.00     2240.00
02532             140.00     2320.00
02533             180.00     2400.00
02534             160.00     2400.00
02535             140.00     2480.00
02536             180.00     2480.00
02537             180.00     2480.00
02538             180.00     2560.00
02539             200.00     2560.00
02540             180.00     2720.00
02541             180.00     2720.00
02542             200.00     2720.00
02543             200.00     2800.00
02544             200.00     2880.00
02545             220.00     2880.00
02546             220.00     2960.00
02547             220.00     3040.00
02548             220.00     3040.00
02549             260.00     3040.00
02550             240.00     3120.00
02551             260.00     3200.00
02552             260.00     3200.00
02553             260.00     3280.00
02554             260.00     3280.00
02555             260.00     3360.00
02556             280.00     3360.00
02557             280.00     3440.00
02558             280.00     3440.00
02559             280.00     3440.00
02560             300.00     3520.00
02561             280.00     3520.00
02562             300.00     3520.00
02563             300.00     3680.00
02564             300.00     3680.00
02565             300.00     3760.00
02566             340.00     3760.00
02567             320.00     3840.00
02568             340.00     3840.00
02569             320.00     3840.00
02570             340.00     4000.00
02571             340.00     4000.00
02572             340.00     4000.00
02573             340.00     4000.00
02574             340.00     4080.00
02575             360.00     4160.00
02576             360.00     4160.00
02577             340.00     4160.00
02578             360.00     4160.00
02579             360.00     4320.00
02580             360.00     4320.00
02581             360.00     4320.00
02582             380.00     4400.00
02583             380.00     4400.00
02584             380.00     4480.00
02585             400.00     4480.00
02586             420.00     4560.00
02587             400.00     4480.00
02588             380.00     4640.00
02589             420.00     4720.00
02590             420.00     4720.00
02591             420.00     4720.00
02592             420.00     4720.00
02593             420.00     4800.00
02594             440.00     4800.00
02595             440.00     4800.00
02596             440.00     4960.00
02597             440.00     4960.00
02598             440.00     4960.00
02599             440.00     5040.00
02600             460.00     5040.00
02601             480.00     5120.00
02602             460.00     5120.00
02603             500.00     5120.00
02604             500.00     5120.00
02605             500.00     5280.00
02606             500.00     5280.00
02607             500.00     5280.00
02608             480.00     5360.00
02609             520.00     5360.00
02610             520.00     5360.00
02611             500.00     5440.00
02612             520.00     5440.00
02613             520.00     5520.00
02614             520.00     5440.00
02615             540.00     5440.00
02616             520.00     5600.00
02617             520.00     5600.00
02618             540.00     5600.00
02619             540.00     5600.00
02620             580.00     5760.00
02621             540.00     5760.00
02622             560.00     5840.00
02623             580.00     5760.00
02624             580.00     5840.00
02625             580.00     5760.00
02626             580.00     5920.00
02627             580.00     5920.00
02628             580.00     5840.00
02629             580.00     6000.00
02630             580.00     6000.00
02631             580.00     6000.00
02632             580.00     6000.00
02633             600.00     6080.00
02634             620.00     6080.00
02635             600.00     6160.00
02636             600.00     6160.00
02637             600.00     6240.00
02638             620.00     6240.00
02639             620.00     6240.00
02640             600.00     6240.00
02641             620.00     6320.00
02642             620.00     6320.00
02643             620.00     6320.00
02644             620.00     6320.00
02645             620.00     6320.00
02646             620.00     6400.00
02647             620.00     6400.00
02648             640.00     6400.00
02649             620.00     6400.00
02650             660.00     6560.00
02651             660.00     6480.00
02652             660.00     6560.00
02653             660.00     6560.00
02654             660.00     6560.00
02655             660.00     6560.00
02656             680.00     6640.00
02657             660.00     6640.00
02658             660.00     6640.00
02659             660.00     6720.00
02660             680.00     6720.00
02661             680.00     6720.00
02662             680.00     6720.00
02663             680.00     6800.00
02664             680.00     6800.00
02665             680.00     6800.00
02666             680.00     6880.00
02667             680.00     6880.00
02668             680.00     6880.00
02669             680.00     6880.00
02670             700.00     6880.00
02671             700.00     6880.00
02672             700.00     6960.00
02673             720.00     6960.00
02674             740.00     6960.00
02675             700.00     6960.00
02676             740.00     6960.00
02677             720.00     7040.00
02678             740.00     7040.00
02679             740.00     7040.00
02680             740.00     7040.00
02681             740.00     7120.00
02682             740.00     7200.00
02683             740.00     7120.00
02684             740.00     7120.00
02685             760.00     7120.00
02686             740.00     7200.00
02687             760.00     7120.00
02688             740.00     7200.00
02689             760.00     7200.00
02690             760.00     7200.00
02691             760.00     7200.00
02692             760.00     7280.00
02693             760.00     7280.00
02694             760.00     7360.00
02695             760.00     7280.00
02696             760.00     7360.00
02697             760.00     7280.00
02698             780.00     7280.00
02699             760.00     7280.00
02700             780.00     7360.00
02701             760.00     7360.00
02702             760.00     7360.00
02703             760.00     7360.00
02704             760.00     7360.00
02705             780.00     7440.00
02706             760.00     7360.00
02707             780.00     7440.00
02708             780.00     7360.00
02709             780.00     7440.00
02710             780.00     7440.00
02711             780.00     7360.00
02712             780.00     7360.00
02713             780.00     7360.00
02714             780.00     7440.00
02715             780.00     7440.00
02716             820.00     7520.00
02717             780.00     7520.00
02718             780.00     7520.00
02719             800.00     7520.00
02720             780.00     7520.00
02721             780.00     7520.00
02722             800.00     7440.00
02723             800.00     7520.00
02724             800.00     7520.00
02725             820.00     7520.00
02726             780.00     7520.00
02727             780.00     7520.00
02728             800.00     7520.00
02729             780.00     7520.00
02730             800.00     7520.00
02731             820.00     7520.00
02732             820.00     7520.00
02733             820.00     7520.00
02734             820.00     7520.00
02735             820.00     7520.00
02736             820.00     7520.00
02737             820.00     7520.00
02738             820.00     7520.00
02739             800.00     7520.00
02740             820.00     7520.00
02741             820.00     7520.00
02742             820.00     7520.00
02743             820.00     7520.00
02744             820.00     7520.00
02745             820.00     7520.00
02746             820.00     7520.00
02747             820.00     7520.00
02748             840.00     7520.00
02749             820.00     7520.00
02750             820.00     7520.00
02751             820.00     7520.00
02752             840.00     7520.00
02753             820.00     7440.00
02754             820.00     7440.00
02755             820.00     7440.00
02756             820.00     7440.00
02757             820.00     7520.00
02758             840.00     7440.00
02759             820.00     7360.00
02760             820.00     7440.00
02761             820.00     7360.00
02762             820.00     7360.00
02763             820.00     7360.00
02764             820.00     7360.00
02765             840.00     7360.00
02766             820.00     7360.00
02767             820.00     7360.00
02768             840.00     7360.00
02769             820.00     7360.00
02770             820.00     7280.00
02771             820.00     7360.00
02772             820.00     7360.00
02773             820.00     7280.00
02774             820.00     7280.00
02775             800.00     7280.00
02776             820.00     7200.00
02777             800.00     7200.00
02778             820.00     7280.00
02779             800.00     7200.00
02780             820.00     7200.00
02781             800.00     7200.00
02782             820.00     7200.00
02783             800.00     7120.00
02784             800.00     7200.00
02785             800.00     7200.00
02786             800.00     7120.00
02787             780.00     7040.00
02788             780.00     7040.00
02789             820.00     7040.00
02790             800.00     7040.00
02791             760.00     7040.00
02792             780.00     6960.00
02793             780.00     7040.00
02794             780.00     6960.00
02795             780.00     6960.00
02796             800.00     6960.00
02797             780.00     6960.00
02798             780.00     6880.00
02799             780.00     6960.00
02800             760.00     6880.00
02801             780.00     6880.00
02802             780.00     6880.00
02803             780.00     6880.00
02804             780.00     6880.00
02805             780.00     6720.00
02806             760.00     6800.00
02807             780.00     6720.00
02808             780.00     6720.00
02809             760.00     6720.00
02810             780.00     6720.00
02811             780.00     6720.00
02812             760.00     6640.00
02813             760.00     6720.00
02814             760.00     6640.00
02815             740.00     6640.00
02816             780.00     6560.00
02817             760.00     6560.00
02818             740.00     6560.00
02819             760.00     6560.00
02820             760.00     6480.00
02821             760.00     6400.00
02822             760.00     6480.00
02823             740.00     6400.00
02824             740.00     6320.00
02825             740.00     6400.00
02826             740.00     6320.00
02827             760.00     6320.00
02828             740.00     6240.00
02829             740.00     6240.00
02830             740.00     6240.00
02831             740.00     6240.00
02832             740.00     6240.00
02833             700.00     6160.00
02834             700.00     6160.00
02835             700.00     6080.00
02836             720.00     6080.00
02837             700.00     6000.00
02838             700.00     6000.00
02839             680.00     6000.00
02840             680.00     6000.00
02841             700.00     5920.00
02842             680.00     5920.00
02843             680.00     5920.00
02844             700.00     5840.00
02845             680.00     5920.00
02846             680.00     5760.00
02847             680.00     5840.00
02848             680.00     5760.00
02849             680.00     5680.00
02850             680.00     5680.00
02851             680.00     5680.00
02852             660.00     5680.00
02853             660.00     5600.00
02854             660.00     5600.00
02855             680.00     5520.00
02856             660.00     5440.00
02857             660.00     5440.00
02858             660.00     5440.00
02859             660.00     5440.00
02860             620.00     5360.00
02861             640.00     5360.00
02862             660.00     5360.00
02863             640.00     5280.00
02864             620.00     5200.00
02865             640.00     5280.00
02866             640.00     5200.00
02867             620.00     5120.00
02868             620.00     5040.00
02869             600.00     5120.00
02870             620.00     5040.00
02871             600.00     5040.00
02872             600.00     4960.00
02873             600.00     5040.00
02874             600.00     4960.00
02875             600.00     4880.00
02876             600.00     4800.00
02877             600.00     4800.00
02878             580.00     4800.00
02879             600.00     4720.00
02880             580.00     4720.00
02881             580.00     4720.00
02882             580.00     4640.00
02883             580.00     4640.00
02884             580.00     4480.00
02885             580.00     4480.00
02886             540.00     4480.00
02887             580.00     4480.00
02888             540.00     4400.00
02889             540.00     4400.00
02890             540.00     4400.00
02891             540.00     4320.00
02892             560.00     4320.00
02893             540.00     4240.00
02894             540.00     4160.00
02895             520.00     4160.00
02896             520.00     4160.00
02897             540.00     4080.00
02898             520.00     4000.00
02899             520.00     4000.00
02900             520.00     3840.00
02901             520.00     3840.00
02902             500.00     3840.00
02903             500.00     3840.00
02904             500.00     3760.00
02905             500.00     3760.00
02906             480.00     3680.00
02907             460.00     3680.00
02908             460.00     3680.00
02909             440.00     3520.00
02910             460.00     3520.00
02911             460.00     3520.00
02912             440.00     3440.00
02913             440.00     3440.00
02914             440.00     3360.00
02915             440.00     3360.00
02916             420.00     3360.00
02917             420.00     3280.00
02918             440.00     3200.00
02919             420.00     3200.00
02920             420.00     3120.00
02921             420.00     3120.00
02922             420.00     3040.00
02923             420.00     3040.00
02924             400.00     3040.00
02925             400.00     2880.00
02926             380.00     2880.00
02927             380.00     2800.00
02928             380.00     2800.00
02929             360.00     2800.00
02930             380.00     2720.00
02931             380.00     2720.00
02932             360.00     2640.00
02933             360.00     2560.00
02934             380.00     2560.00
02935             360.00     2560.00
02936             360.00     2480.00
02937             360.00     2400.00
02938             340.00     2400.00
02939             340.00     2320.00
02940             340.00     2320.00
02941             340.00     2240.00
02942             340.00     2240.00
02943             340.00     2240.00
02944             340.00     2160.00
02945             300.00     2000.00
02946             320.00     2000.00
02947             300.00     1920.00
02948             300.00     2000.00
02949             280.00     1840.00
02950             280.00     1840.00
02951             300.00     1840.00
02952             280.00     1760.00
02953             280.00     1760.00
02954             280.00     1600.00
02955             260.00     1600.00
02956             280.00     1520.00
02957             260.00     1520.00
02958             260.00     1520.00
02959             260.00     1440.00
02960             260.00     1440.00
02961             260.00     1440.00
02962             220.00     1280.00
02963             260.00     1280.00
02964             220.00     1200.00
02965             200.00     1200.00
02966             220.00     1200.00
02967             200.00     1040.00
02968             200.00     1040.00
02969             200.00      960.00
02970             200.00      960.00
02971             200.00      960.00
02972             200.00      880.00
02973             180.00      800.00
02974             180.00      800.00
02975             180.00      720.00
02976             180.00      720.00
02977             160.00      640.00
02978             140.00      560.00
02979             180.00      560.00
02980             140.00      560.00
02981             120.00      480.00
02982             140.00      400.00
02983             120.00      320.00
02984             120.00      320.00
02985             120.00      240.00
02986             120.00      240.00
02987             100.00      160.00
02988             100.00      160.00
02989             100.00      160.00
02990             100.00        0.00
02991             100.00        0.00
02992             100.00        0.00
02993              60.00      -80.00
02994             100.00     -160.00
02995              60.00     -160.00
02996              60.00     -160.00
02997              60.00     -240.00
02998              60.00     -320.00
02999              40.00     -320.00
03000              40.00     -320.00
03001              40.00     -400.00
03002              40.00     -400.00
03003              20.00     -640.00
03004              20.00     -800.00
03005              20.00     -800.00
03006              20.00     -560.00
03007              40.00     -640.00
03008             -20.00     -800.00
03009             -20.00     -960.00
03010              20.00     -720.00
03011             -20.00     -880.00
03012             -40.00    -1040.00
03013             -20.00     -960.00
03014             -20.00     -960.00
03015             -60.00    -1120.00
03016             -40.00    -1120.00
03017             -40.00    -1120.00
03018             -60.00    -1280.00
03019             -60.00    -1280.00
03020             -60.00    -1280.00
03021             -60.00    -1360.00
03022             -60.00    -1440.00
03023             -60.00    -1440.00
03024             -60.00    -1520.00
03025            -100.00    -1520.00
03026             -80.00    -1600.00
03027            -120.00    -1680.00
03028            -100.00    -1680.00
03029            -100.00    -1680.00
03030            -120.00    -1760.00
03031            -120.00    -1840.00
03032            -140.00    -1840.00
03033            -140.00    -1920.00
03034            -140.00    -2000.00
03035            -140.00    -2000.00
03036            -140.00    -2000.00
03037            -140.00    -2000.00
03038            -160.00    -2160.00
03039            -180.00    -2240.00
03040            -180.00    -2240.00
03041            -200.00    -2320.00
03042            -180.00    -2320.00
03043            -180.00    -2400.00
03044            -200.00    -2400.00
03045            -200.00    -2480.00
03046            -200.00    -2560.00
03047            -200.00    -2560.00
03048            -220.00    -2640.00
03049            -200.00    -2640.00
03050            -220.00    -2720.00
03051            -220.00    -2720.00
03052            -220.00    -2720.00
03053            -220.00    -2800.00
03054            -240.00    -2800.00
03055            -220.00    -2880.00
03056            -240.00    -2880.00
03057            -240.00    -2960.00
03058            -260.00    -2960.00
03059            -260.00    -3040.00
03060            -260.00    -3120.00
03061            -260.00    -3120.00
03062            -260.00    -3200.00
03063            -280.00    -3200.00
03064            -280.00    -3280.00
03065            -280.00    -3280.00
03066            -280.00    -3360.00
03067            -280.00    -3360.00
03068            -300.00    -3360.00
03069            -300.00    -3520.00
03070            -300.00    -3520.00
03071            -300.00    -3600.00
03072            -300.00    -3600.00
03073            -300.00    -3680.00
03074            -320.00    -3680.00
03075            -340.00    -3680.00
03076            -320.00    -3680.00
03077            -340.00    -3840.00
03078            -340.00    -3840.00
03079            -360.00    -3920.00
03080            -360.00    -3840.00
03081            -340.00    -3920.00
03082            -360.00    -4000.00
03083            -360.00    -4000.00
03084            -360.00    -4000.00
03085            -380.00    -4080.00
03086            -360.00    -4160.00
03087            -380.00    -4240.00
03088            -380.00    -4160.00
03089            -380.00    -4240.00
03090            -380.00    -4240.00
03091            -380.00    -4320.00
03092            -400.00    -4320.00
03093            -420.00    -4400.00
03094            -400.00    -4480.00
03095            -420.00    -4560.00
03096            -420.00    -4480.00
03097            -440.00    -4560.00
03098            -440.00    -4640.00
03099            -440.00    -4640.00
03100            -440.00    -4640.00
03101            -460.00    -4720.00
03102            -440.00    -4800.00
03103            -460.00    -4800.00
03104            -460.00    -4880.00
03105            -460.00    -4800.00
03106            -480.00    -4880.00
03107            -460.00    -4960.00
03108            -480.00    -4960.00
03109            -460.00    -5040.00
03110            -500.00    -4960.00
03111            -500.00    -5040.00
03112            -500.00    -5120.00
03113            -500.00    -5200.00
03114            -460.00    -5120.00
03115            -520.00    -5200.00
03116            -500.00    -5200.00
03117            -500.00    -5200.00
03118            -520.00    -5280.00
03119            -520.00    -5360.00
03120            -520.00    -5280.00
03121            -540.00    -5360.00
03122            -520.00    -5440.00
03123            -520.00    -5440.00
03124            -540.00    -5520.00
03125            -520.00    -5520.00
03126            -540.00    -5520.00
03127            -540.00    -5520.00
03128            -540.00    -5600.00
03129            -560.00    -5600.00
03130            -560.00    -5600.00
03131            -540.00    -5760.00
03132            -580.00    -5680.00
03133            -580.00    -5760.00
03134            -560.00    -5760.00
03135            -580.00    -5840.00
03136            -580.00    -5840.00
03137            -600.00    -5920.00
03138            -580.00    -5920.00
03139            -580.00    -5920.00
03140            -600.00    -5920.00
03141            -600.00    -6000.00
03142            -600.00    -5920.00
03143            -600.00    -6000.00
03144            -600.00    -6080.00
03145            -600.00    -6080.00
03146            -600.00    -6160.00
03147            -620.00    -6080.00
03148            -620.00    -6160.00
03149            -620.00    -6240.00
03150            -620.00    -6240.00
03151            -620.00    -6240.00
03152            -620.00    -6320.00
03153            -620.00    -6240.00
03154            -620.00    -6400.00
03155            -620.00    -6400.00
03156            -660.00    -6400.00
03157            -660.00    -6400.00
03158            -660.00    -6400.00
03159            -660.00    -6400.00
03160            -660.00    -6480.00
03161            -660.00    -6480.00
03162            -680.00    -6480.00
03163            -680.00    -6560.00
03164            -680.00    -6560.00
03165            -680.00    -6560.00
03166            -680.00    -6560.00
03167            -700.00    -6560.00
03168            -680.00    -6640.00
03169            -700.00    -6640.00
03170            -700.00    -6720.00
03171            -700.00    -6720.00
03172            -700.00    -6720.00
03173            -700.00    -6720.00
03174            -700.00    -6720.00
03175            -700.00    -6720.00
03176            -700.00    -6800.00
03177            -720.00    -6800.00
03178            -700.00    -6880.00
03179            -700.00    -6800.00
03180            -700.00    -6880.00
03181            -740.00    -6880.00
03182            -740.00    -6880.00
03183            -740.00    -6880.00
03184            -720.00    -6880.00
03185            -740.00    -6880.00
03186            -760.00    -6880.00
03187            -740.00    -6960.00
03188            -740.00    -6960.00
03189            -760.00    -7040.00
03190            -740.00    -6960.00
03191            -740.00    -7040.00
03192            -740.00    -6960.00
03193            -740.00    -7040.00
03194            -740.00    -7120.00
03195            -740.00    -7120.00
03196            -760.00    -7120.00
03197            -740.00    -7120.00
03198            -760.00    -7120.00
03199            -760.00    -7120.00
03200            -760.00    -7120.00
03201            -760.00    -7200.00
03202            -760.00    -7200.00
03203            -760.00    -7120.00
03204            -760.00    -7120.00
03205            -760.00    -7200.00
03206            -780.00    -7200.00
03207            -760.00    -7200.00
03208            -760.00    -7200.00
03209            -760.00    -7200.00
03210            -780.00    -7200.00
03211            -760.00    -7280.00
03212            -780.00    -7360.00
03213            -780.00    -7280.00
03214            -760.00    -7200.00
03215            -780.00    -7280.00
03216            -780.00    -7280.00
03217            -780.00    -7360.00
03218            -780.00    -7360.00
03219            -780.00    -7360.00
03220            -780.00    -7360.00
03221            -780.00    -7360.00
03222            -780.00    -7360.00
03223            -800.00    -7360.00
03224            -800.00    -7360.00
03225            -780.00    -7360.00
03226            -820.00    -7360.00
03227            -800.00    -7440.00
03228            -820.00    -7360.00
03229            -820.00    -7440.00
03230            -820.00    -7360.00
03231            -820.00    -7440.00
03232            -820.00    -7360.00
03233            -820.00    -7360.00
03234            -820.00    -7440.00
03235            -840.00    -7440.00
03236            -820.00    -7360.00
03237            -820.00    -7440.00
03238            -820.00    -7440.00
03239            -820.00    -7440.00
03240            -840.00    -7440.00
03241            -820.00    -7440.00
03242            -820.00    -7440.00
03243            -820.00    -7440.00
03244            -820.00    -7440.00
03245            -820.00    -7440.00
03246            -820.00    -7440.00
03247            -840.00    -7360.00
03248            -820.00    -7440.00
03249            -840.00    -7440.00
03250            -840.00    -7440.00
03251            -840.00    -7360.00
03252            -820.00    -7440.00
03253            -840.00    -7360.00
03254            -820.00    -7440.00
03255            -820.00    -7440.00
03256            -820.00    -7360.00
03257            -820.00    -7360.00
03258            -820.00    -7360.00
03259            -820.00    -7440.00
03260            -820.00    -7360.00
03261            -840.00    -7440.00
03262            -840.00    -7360.00
03263            -840.00    -7360.00
03264            -820.00    -7360.00
03265            -840.00    -7360.00
03266            -840.00    -7360.00
03267            -820.00    -7360.00
03268            -820.00    -7360.00
03269            -820.00    -7360.00
03270            -820.00    -7360.00
03271            -820.00    -7360.00
03272            -820.00    -7360.00
03273            -820.00    -7280.00
03274            -820.00    -7280.00
03275            -820.00    -7360.00
03276            -820.00    -7200.00
03277            -820.00    -7200.00
03278            -780.00    -7200.00
03279            -840.00    -7200.00
03280            -820.00    -7200.00
03281            -820.00    -7200.00
03282            -820.00    -7200.00
03283            -820.00    -7120.00
03284            -820.00    -7200.00
03285            -820.00    -7120.00
03286            -780.00    -7120.00
03287            -820.00    -7120.00
03288            -820.00    -7120.00
03289            -800.00    -7120.00
03290            -780.00    -7120.00
03291            -780.00    -7040.00
03292            -820.00    -6960.00
03293            -820.00    -7040.00
03294            -800.00    -7040.00
03295            -800.00    -7040.00
03296            -820.00    -6960.00
03297            -820.00    -6960.00
03298            -800.00    -6960.00
03299            -820.00    -6880.00
03300            -800.00    -6960.00
03301            -820.00    -6880.00
03302            -780.00    -6880.00
03303            -780.00    -6880.00
03304            -820.00    -6880.00
03305            -820.00    -6800.00
03306            -780.00    -6800.00
03307            -800.00    -6800.00
03308            -800.00    -6880.00
03309            -780.00    -6800.00
03310            -780.00    -6720.00
03311            -780.00    -6800.00
03312            -780.00    -6720.00
03313            -780.00    -6800.00
03314            -780.00    -6720.00
03315            -780.00    -6640.00
03316            -760.00    -6720.00
03317            -800.00    -6640.00
03318            -780.00    -6560.00
03319            -780.00    -6560.00
03320            -760.00    -6560.00
03321            -760.00    -6560.00
03322            -760.00    -6560.00
03323            -760.00    -6560.00
03324            -760.00    -6560.00
03325            -760.00    -6480.00
03326            -760.00    -6480.00
03327            -760.00    -6480.00
03328            -760.00    -6400.00
03329            -760.00    -6400.00
03330            -760.00    -6400.00
03331            -760.00    -6240.00
03332            -760.00    -6320.00
03333            -760.00    -6320.00
03334            -740.00    -6240.00
03335            -740.00    -6240.00
03336            -740.00    -6240.00
03337            -740.00    -6240.00
03338            -700.00    -6160.00
03339            -740.00    -6080.00
03340            -740.00    -6080.00
03341            -740.00    -6080.00
03342            -700.00    -6080.00
03343            -700.00    -6080.00
03344            -720.00    -6080.00
03345            -700.00    -5920.00
03346            -700.00    -5920.00
03347            -700.00    -5920.00
03348            -700.00    -5840.00
03349            -700.00    -5840.00
03350            -700.00    -5840.00
03351            -700.00    -5760.00
03352            -680.00    -5760.00
03353            -700.00    -5760.00
03354            -680.00    -5760.00
03355            -700.00    -5760.00
03356            -700.00    -5680.00
03357            -680.00    -5600.00
03358            -700.00    -5600.00
03359            -680.00    -5600.00
03360            -680.00    -5520.00
03361            -680.00    -5520.00
03362            -680.00    -5440.00
03363            -680.00    -5440.00
03364            -680.00    -5360.00
03365            -660.00    -5440.00
03366            -660.00    -5360.00
03367            -680.00    -5280.00
03368            -660.00    -5280.00
03369            -660.00    -5280.00
03370            -660.00    -5200.00
03371            -660.00    -5200.00
03372            -660.00    -5200.00
03373            -640.00    -5120.00
03374            -640.00    -5120.00
03375            -660.00    -5120.00
03376            -620.00    -4960.00
03377            -620.00    -5040.00
03378            -620.00    -4960.00
03379            -620.00    -4960.00
03380            -600.00    -4880.00
03381            -620.00    -4880.00
03382            -600.00    -4880.00
03383            -620.00    -4800.00
03384            -600.00    -4800.00
03385            -600.00    -4800.00
03386            -600.00    -4640.00
03387            -600.00    -4640.00
03388            -600.00    -4640.00
03389            -600.00    -4560.00
03390            -600.00    -4560.00
03391            -600.00    -4480.00
03392            -580.00    -4400.00
03393            -600.00    -4480.00
03394            -580.00    -4320.00
03395            -540.00    -4400.00
03396            -580.00    -4320.00
03397            -540.00    -4240.00
03398            -540.00    -4240.00
03399            -540.00    -4240.00
03400            -540.00    -4160.00
03401            -540.00    -4160.00
03402            -520.00    -4000.00
03403            -520.00    -4000.00
03404            -540.00    -4000.00
03405            -520.00    -4000.00
03406            -520.00    -3920.00
03407            -520.00    -3840.00
03408            -520.00    -3920.00
03409            -520.00    -3840.00
03410            -500.00    -3840.00
03411            -500.00    -3760.00
03412            -500.00    -3680.00
03413            -500.00    -3680.00
03414            -500.00    -3600.00
03415            -460.00    -3600.00
03416            -460.00    -3520.00
03417            -460.00    -3520.00
03418            -460.00    -3520.00
03419            -460.00    -3440.00
03420            -460.00    -3440.00
03421            -440.00    -3360.00
03422            -460.00    -3280.00
03423            -460.00    -3280.00
03424            -460.00    -3200.00
03425            -440.00    -3200.00
03426            -440.00    -3200.00
03427            -440.00    -3120.00
03428            -440.00    -3040.00
03429            -440.00    -3040.00
03430            -440.00    -2960.00
03431            -420.00    -2960.00
03432            -420.00    -2880.00
03433            -400.00    -2880.00
03434            -420.00    -2800.00
03435            -420.00    -2720.00
03436            -420.00    -2720.00
03437            -380.00    -2720.00
03438            -380.00    -2640.00
03439            -380.00    -2640.00
03440            -380.00    -2560.00
03441            -380.00    -2560.00
03442            -380.00    -2480.00
03443            -380.00    -2400.00
03444            -360.00    -2400.00
03445            -360.00    -2400.00
03446            -380.00    -2320.00
03447            -340.00    -2240.00
03448            -380.00    -2240.00
03449            -360.00    -2240.00
03450            -340.00    -2080.00
03451            -340.00    -2080.00
03452            -320.00    -2080.00
03453            -320.00    -2000.00
03454            -300.00    -1840.00
03455            -300.00    -1920.00
03456            -300.00    -1840.00
03457            -300.00    -1760.00
03458            -300.00    -1760.00
03459            -280.00    -1760.00
03460            -280.00    -1680.00
03461            -280.00    -1600.00
03462            -280.00    -1600.00
03463            -280.00    -1600.00
03464            -260.00    -1440.00
03465            -260.00    -1440.00
03466            -260.00    -1360.00
03467            -260.00    -1440.00
03468            -240.00    -1360.00
03469            -260.00    -1280.00
03470            -260.00    -1200.00
03471            -220.00    -1200.00
03472            -220.00    -1120.00
03473            -220.00    -1120.00
03474            -220.00    -1040.00
03475            -200.00    -1040.00
03476            -220.00     -960.00
03477            -200.00     -960.00
03478            -200.00     -880.00
03479            -200.00     -800.00
03480            -200.00     -800.00
03481            -200.00     -720.00
03482            -180.00     -720.00
03483            -180.00     -640.00
03484            -180.00     -640.00
03485            -180.00     -640.00
03486            -180.00     -480.00
03487            -180.00     -480.00
03488            -180.00     -400.00
03489            -140.00     -400.00
03490            -140.00     -320.00
03491            -140.00     -320.00
03492            -140.00     -240.00
03493            -140.00     -160.00
03494            -120.00     -160.00
03495            -120.00      -80.00
03496            -120.00      -80.00
03497            -100.00        0.00
03498            -100.00        0.00
03499            -100.00        0.00
03500            -100.00       80.00
03501            -100.00      160.00
03502            -100.00      240.00
03503             -60.00      240.00
03504            -100.00      320.00
03505             -60.00      320.00
03506             -60.00      320.00
03507             -60.00      480.00
03508             -60.00      480.00
03509             -40.00      640.00
03510             -60.00      720.00
03511             -60.00      560.00
03512             -60.00      480.00
03513             -40.00      800.00
03514             -20.00      960.00
03515             -40.00      800.00
03516             -20.00      800.00
03517              20.00      960.00
03518              20.00      960.00
03519               0.00      880.00
03520              20.00     1120.00
03521              40.00     1200.00
03522             -20.00     1040.00
03523              20.00     1120.00
03524              40.00     1280.00
03525              40.00     1280.00
03526              40.00     1280.00
03527              40.00     1440.00
03528              40.00     1440.00
03529              40.00     1440.00
03530              60.00     1600.00
03531              60.00     1520.00
03532              60.00     1600.00
03533             100.00     1600.00
03534             100.00     1600.00
03535             100.00     1680.00
03536             120.00     1760.00
03537             100.00     1840.00
03538             100.00     1840.00
03539             120.00     1920.00
03540             120.00     1840.00
03541             120.00     1920.00
03542             140.00     2080.00
03543             120.00     2080.00
03544             140.00     2160.00
03545             140.00     2160.00
03546             140.00     2240.00
03547             140.00     2240.00
03548             160.00     2400.00
03549             180.00     2400.00
03550             180.00     2400.00
03551             180.00     2480.00
03552             180.00     2480.00
03553             180.00     2560.00
03554             180.00     2640.00
03555             180.00     2560.00
03556             180.00     2640.00
03557             180.00     2720.00
03558             200.00     2800.00
03559             200.00     2800.00
03560             200.00     2880.00
03561             200.00     2880.00
03562             220.00     2880.00
03563             220.00     2880.00
03564             220.00     3040.00
03565             220.00     3040.00
03566             220.00     3120.00
03567             240.00     3120.00
03568             220.00     3200.00
03569             260.00     3280.00
03570             260.00     3280.00
03571             260.00     3360.00
03572             260.00     3360.00
03573             280.00     3360.00
03574             260.00     3440.00
03575             280.00     3440.00
03576             260.00     3520.00
03577             280.00     3600.00
03578             280.00     3600.00
03579             280.00     3680.00
03580             300.00     3760.00
03581             300.00     3760.00
03582             300.00     3760.00
03583             340.00     3760.00
03584             340.00     3760.00
03585             340.00     3840.00
03586             340.00     4000.00
03587             340.00     4000.00
03588             340.00     4000.00
03589             340.00     4000.00
03590             360.00     4080.00
03591             360.00     4080.00
03592             360.00     4160.00
03593             360.00     4240.00
03594             360.00     4240.00
03595             360.00     4240.00
03596             380.00     4320.00
03597             380.00     4320.00
03598             400.00     4400.00
03599             380.00     4400.00
03600             380.00     4400.00
03601             380.00     4480.00
03602             420.00     4480.00
03603             420.00     4480.00
03604             420.00     4640.00
03605             420.00     4640.00
03606             420.00     4640.00
03607             440.00     4720.00
03608             420.00     4720.00
03609             440.00     4800.00
03610             440.00     4800.00
03611             440.00     4800.00
03612             440.00     4880.00
03613             440.00     4960.00
03614             460.00     4960.00
03615             460.00     5040.00
03616             460.00     5040.00
03617             440.00     5040.00
03618             460.00     5040.00
03619             460.00     5120.00
03620             460.00     5120.00
03621             500.00     5120.00
03622             500.00     5280.00
03623             500.00     5280.00
03624             480.00     5280.00
03625             500.00     5360.00
03626             500.00     5440.00
03627             520.00     5440.00
03628             500.00     5440.00
03629             520.00     5440.00
03630             520.00     5520.00
03631             520.00     5600.00
03632             520.00     5520.00
03633             540.00     5600.00
03634             520.00     5680.00
03635             520.00     5600.00
03636             540.00     5680.00
03637             520.00     5680.00
03638             540.00     5760.00
03639             540.00     5760.00
03640             540.00     5840.00
03641             560.00     5840.00
03642             580.00     5920.00
03643             580.00     5840.00
03644             580.00     6000.00
03645             580.00     6000.00
03646             580.00     6000.00
03647             580.00     6000.00
03648             580.00     6000.00
03649             600.00     6080.00
03650             580.00     6080.00
03651             600.00     6160.00
03652             600.00     6160.00
03653             600.00     6160.00
03654             620.00     6240.00
03655             620.00     6240.00
03656             620.00     6240.00
03657             620.00     6320.00
03658             620.00     6320.00
03659             620.00     6400.00
03660             660.00     6320.00
03661             640.00     6400.00
03662             660.00     6400.00
03663             660.00     6400.00
03664             660.00     6400.00
03665             660.00     6480.00
03666             660.00     6480.00
03667             660.00     6480.00
03668             660.00     6560.00
03669             660.00     6560.00
03670             660.00     6640.00
03671             660.00     6560.00
03672             680.00     6560.00
03673             680.00     6640.00
03674             680.00     6640.00
03675             680.00     6640.00
03676             680.00     6720.00
03677             680.00     6720.00
03678             680.00     6720.00
03679             680.00     6800.00
03680             700.00     6800.00
03681             680.00     6800.00
03682             700.00     6880.00
03683             700.00     6880.00
03684             680.00     6880.00
03685             700.00     6880.00
03686             700.00     6880.00
03687             700.00     6880.00
03688             700.00     6960.00
03689             700.00     6880.00
03690             700.00     6960.00
03691             700.00     6960.00
03692             720.00     6960.00
03693             700.00     7040.00
03694             700.00     7040.00
03695             740.00     7040.00
03696             740.00     7040.00
03697             740.00     7040.00
03698             740.00     7120.00
03699             740.00     7120.00
03700             740.00     7040.00
03701             720.00     7200.00
03702             740.00     7120.00
03703             740.00     7200.00
03704             760.00     7280.00
03705             740.00     7200.00
03706             760.00     7200.00
03707             740.00     7200.00
03708             760.00     7200.00
03709             740.00     7280.00
03710             760.00     7280.00
03711             740.00     7280.00
03712             760.00     7360.00
03713             760.00     7360.00
03714             760.00     7360.00
03715             760.00     7280.00
03716             760.00     7360.00
03717             760.00     7360.00
03718             780.00     7280.00
03719             760.00     7360.00
03720             760.00     7360.00
03721             780.00     7360.00
03722             780.00     7360.00
03723             780.00     7440.00
03724             780.00     7360.00
03725             780.00     7440.00
03726             780.00     7520.00
03727             780.00     7440.00
03728             780.00     7440.00
03729             780.00     7440.00
03730             780.00     7440.00
03731             800.00     7440.00
03732             820.00     7440.00
03733             780.00     7440.00
03734             800.00     7520.00
03735             780.00     7520.00
03736             820.00     7440.00
03737             820.00     7440.00
03738             820.00     7440.00
03739             820.00     7520.00
03740             780.00     7440.00
03741             820.00     7520.00
03742             820.00     7520.00
03743             820.00     7520.00
03744             820.00     7520.00
03745             820.00     7520.00
03746             820.00     7520.00
03747             800.00     7520.00
03748             820.00     7520.00
03749             820.00     7520.00
03750             820.00     7520.00
03751             820.00     7520.00
03752             820.00     7520.00
03753             820.00     7520.00
03754             820.00     7520.00
03755             800.00     7520.00
03756             820.00     7520.00
03757             820.00     7520.00
03758             820.00     7520.00
03759             820.00     7520.00
03760             820.00     7520.00
03761             820.00     7520.00
03762             800.00     7520.00
03763             820.00     7520.00
03764             820.00     7520.00
03765             820.00     7520.00
03766             820.00     7440.00
03767             820.00     7520.00
03768             820.00     7520.00
03769             800.00     7520.00
03770             820.00     7440.00
03771             820.00     7440.00
03772             820.00     7440.00
03773             820.00     7440.00
03774             820.00     7440.00
03775             820.00     7360.00
03776             820.00     7360.00
03777             820.00     7360.00
03778             820.00     7360.00
03779             820.00     7360.00
03780             820.00     7360.00
03781             820.00     7360.00
03782             820.00     7360.00
03783             820.00     7360.00
03784             800.00     7360.00
03785             820.00     7360.00
03786             820.00     7360.00
03787             820.00     7280.00
03788             820.00     7360.00
03789             820.00     7360.00
03790             820.00     7280.00
03791             820.00     7280.00
03792             820.00     7280.00
03793             820.00     7200.00
03794             820.00     7280.00
03795             820.00     7280.00
03796             820.00     7200.00
03797             820.00     7200.00
03798             820.00     7200.00
03799             800.00     7120.00
03800             820.00     7200.00
03801             820.00     7120.00
03802             820.00     7120.00
03803             820.00     7120.00
03804             820.00     7120.00
03805             800.00     7040.00
03806             800.00     7040.00
03807             820.00     7040.00
03808             820.00     6960.00
03809             800.00     7040.00
03810             780.00     6960.00
03811             820.00     6960.00
03812             820.00     6960.00
03813             820.00     6960.00
03814             800.00     6960.00
03815             780.00     6960.00
03816             780.00     6880.00
03817             780.00     6880.00
03818             780.00     6880.00
03819             780.00     6880.00
03820             780.00     6800.00
03821             780.00     6800.00
03822             780.00     6720.00
03823             780.00     6720.00
03824             760.00     6720.00
03825             760.00     6720.00
03826             760.00     6720.00
03827             760.00     6640.00
03828             760.00     6640.00
03829             760.00     6640.00
03830             760.00     6640.00
03831             760.00     6560.00
03832             760.00     6640.00
03833             760.00     6560.00
03834             740.00     6560.00
03835             740.00     6560.00
03836             740.00     6480.00
03837             740.00     6480.00
03838             740.00     6400.00
03839             740.00     6400.00
03840             740.00     6400.00
03841             740.00     6320.00
03842             740.00     6320.00
03843             740.00     6400.00
03844             740.00     6240.00
03845             760.00     6320.00
03846             740.00     6240.00
03847             740.00     6240.00
03848             740.00     6160.00
03849             740.00     6080.00
03850             700.00     6240.00
03851             720.00     6080.00
03852             740.00     6080.00
03853             700.00     6080.00
03854             740.00     6080.00
03855             720.00     6000.00
03856             700.00     6000.00
03857             700.00     5920.00
03858             700.00     5920.00
03859             700.00     5920.00
03860             700.00     5840.00
03861             700.00     5920.00
03862             700.00     5760.00
03863             680.00     5840.00
03864             680.00     5760.00
03865             680.00     5760.00
03866             680.00     5680.00
03867             680.00     5680.00
03868             680.00     5600.00
03869             680.00     5600.00
03870             680.00     5600.00
03871             660.00     5520.00
03872             680.00     5520.00
03873             660.00     5440.00
03874             660.00     5440.00
03875             660.00     5440.00
03876             660.00     5440.00
03877             660.00     5280.00
03878             660.00     5280.00
03879             640.00     5280.00
03880             620.00     5280.00
03881             660.00     5280.00
03882             600.00     5200.00
03883             620.00     5120.00
03884             620.00     5040.00
03885             620.00     5120.00
03886             600.00     5040.00
03887             620.00     5040.00
03888             600.00     4960.00
03889             620.00     4960.00
03890             600.00     4960.00
03891             600.00     4800.00
03892             580.00     4800.00
03893             600.00     4800.00
03894             580.00     4800.00
03895             580.00     4720.00
03896             580.00     4640.00
03897             580.00     4640.00
03898             580.00     4640.00
03899             580.00     4560.00
03900             580.00     4480.00
03901             580.00     4480.00
03902             580.00     4480.00
03903             560.00     4400.00
03904             560.00     4400.00
03905             540.00     4320.00
03906             540.00     4320.00
03907             520.00     4320.00
03908             540.00     4320.00
03909             540.00     4240.00
03910             520.00     4160.00
03911             540.00     4160.00
03912             520.00     4080.00
03913             520.00     4080.00
03914             520.00     4080.00
03915             520.00     4000.00
03916             520.00     4000.00
03917             500.00     3840.00
03918             520.00     3840.00
03919             500.00     3840.00
03920             500.00     3760.00
03921             500.00     3760.00
03922             500.00     3680.00
03923             500.00     3760.00
03924             460.00     3600.00
03925             500.00     3600.00
03926             460.00     3520.00
03927             460.00     3520.00
03928             460.00     3440.00
03929             460.00     3520.00
03930             440.00     3360.00
03931             440.00     3360.00
03932             440.00     3280.00
03933             420.00     3360.00
03934             440.00     3200.00
03935             420.00     3120.00
03936             420.00     3200.00
03937             440.00     3040.00
03938             420.00     3120.00
03939             400.00     3040.00
03940             420.00     3040.00
03941             420.00     2960.00
03942             420.00     2880.00
03943             400.00     2880.00
03944             380.00     2800.00
03945             380.00     2720.00
03946             360.00     2720.00
03947             380.00     2720.00
03948             360.00     2560.00
03949             360.00     2560.00
03950             360.00     2560.00
03951             360.00     2560.00
03952             360.00     2560.00
03953             340.00     2400.00
03954             360.00     2400.00
03955             340.00     2400.00
03956             340.00     2320.00
03957             340.00     2240.00
03958             340.00     2240.00
03959             320.00     2240.00
03960             340.00     2160.00
03961             300.00     2080.00
03962             300.00     2000.00
03963             300.00     2000.00
03964             300.00     1920.00
03965             300.00     1840.00
03966             260.00     1840.00
03967             280.00     1760.00
03968             260.00     1760.00
03969             260.00     1760.00
03970             260.00     1680.00
03971             260.00     1600.00
03972             260.00     1600.00
03973             260.00     1520.00
03974             260.00     1520.00
03975             260.00     1520.00
03976             260.00     1440.00
03977             260.00     1360.00
03978             240.00     1280.00
03979             220.00     1280.00
03980             220.00     1280.00
03981             220.00     1120.00
03982             220.00     1200.00
03983             220.00     1120.00
03984             200.00     1120.00
03985             200.00      960.00
03986             200.00      960.00
03987             200.00      960.00
03988             200.00      880.00
03989             180.00      800.00
03990             200.00      800.00
03991             200.00      720.00
03992             180.00      720.00
03993             180.00      640.00
03994             180.00      640.00
03995             140.00      560.00
03996             160.00      480.00
03997             140.00      480.00
03998             140.00      400.00
03999             140.00      320.00
04000             120.00      320.00
04001             140.00      240.00
04002             120.00      240.00
04003             120.00      160.00
04004             120.00      160.00
04005             100.00       80.00
04006             100.00       80.00
04007             100.00        0.00
04008             100.00      -80.00
04009             100.00     -160.00
04010              60.00      -80.00
04011             100.00     -160.00
04012              60.00     -160.00
04013              60.00     -320.00
04014              40.00     -320.00
04015              40.00     -400.00
04016              40.00     -400.00
04017              40.00     -400.00
04018              40.00     -480.00
04019              40.00     -640.00
04020              20.00     -720.00
04021               0.00     -720.00
04022              40.00     -640.00
04023              20.00     -640.00
04024             -20.00     -880.00
04025             -40.00     -880.00
04026               0.00     -800.00
04027             -20.00     -880.00
04028             -60.00    -1120.00
04029             -40.00     -960.00
04030             -40.00    -1040.00
04031             -60.00    -1120.00
04032             -40.00    -1120.00
04033             -60.00    -1120.00
04034             -60.00    -1280.00
04035             -60.00    -1280.00
04036             -60.00    -1280.00
04037             -60.00    -1440.00
04038             -60.00    -1440.00
04039             -80.00    -1440.00
04040            -100.00    -1440.00
04041            -100.00    -1600.00
04042            -100.00    -1600.00
04043            -100.00    -1680.00
04044            -100.00    -1680.00
04045            -100.00    -1760.00
04046            -100.00    -1760.00
04047            -120.00    -1840.00
04048            -120.00    -1760.00
04049            -120.00    -1920.00
04050            -120.00    -2000.00
04051            -120.00    -2000.00
04052            -140.00    -2000.00
04053            -140.00    -2080.00
04054            -140.00    -2080.00
04055            -140.00    -2160.00
04056            -140.00    -2240.00
04057            -160.00    -2320.00
04058            -180.00    -2320.00
04059            -180.00    -2400.00
04060            -200.00    -2400.00
04061            -180.00    -2400.00
04062            -200.00    -2400.00
04063            -200.00    -2560.00
04064            -200.00    -2640.00
04065            -200.00    -2560.00
04066            -200.00    -2640.00
04067            -220.00    -2720.00
04068            -220.00    -2720.00
04069            -220.00    -2800.00
04070            -220.00    -2880.00
04071            -220.00    -2880.00
04072            -220.00    -2960.00
04073            -260.00    -2960.00
04074            -240.00    -3040.00
04075            -260.00    -3040.00
04076            -260.00    -3120.00
04077            -260.00    -3120.00
04078            -280.00    -3200.00
04079            -280.00    -3200.00
04080            -280.00    -3200.00
04081            -280.00    -3280.00
04082            -300.00    -3360.00
04083            -300.00    -3360.00
04084            -300.00    -3360.00
04085            -300.00    -3520.00
04086            -300.00    -3520.00
04087            -300.00    -3520.00
04088            -300.00    -3600.00
04089            -320.00    -3680.00
04090            -300.00    -3600.00
04091            -340.00    -3680.00
04092            -340.00    -3680.00
04093            -340.00    -3840.00
04094            -360.00    -3840.00
04095            -360.00    -3920.00
04096            -360.00    -3920.00
04097            -360.00    -3920.00
04098            -360.00    -4000.00
04099            -380.00    -4000.00
04100            -360.00    -4080.00
04101            -380.00    -4080.00
04102            -380.00    -4160.00
04103            -380.00    -4160.00
04104            -380.00    -4240.00
04105            -380.00    -4240.00
04106            -380.00    -4240.00
04107            -420.00    -4320.00
04108            -380.00    -4400.00
04109            -420.00    -4400.00
04110            -420.00    -4400.00
04111            -420.00    -4480.00
04112            -420.00    -4560.00
04113            -420.00    -4560.00
04114            -420.00    -4560.00
04115            -440.00    -4640.00
04116            -440.00    -4640.00
04117            -440.00    -4640.00
04118            -440.00    -4720.00
04119            -440.00    -4800.00
04120            -440.00    -4800.00
04121            -460.00    -4880.00
04122            -460.00    -4880.00
04123            -440.00    -4960.00
04124            -460.00    -4880.00
04125            -460.00    -4960.00
04126            -460.00    -4960.00
04127            -460.00    -5040.00
04128            -480.00    -5120.00
04129            -500.00    -5120.00
04130            -500.00    -5120.00
04131            -500.00    -5200.00
04132            -500.00    -5200.00
04133            -500.00    -5280.00
04134            -520.00    -5280.00
04135            -520.00    -5280.00
04136            -520.00    -5360.00
04137            -520.00    -5360.00
04138            -540.00    -5440.00
04139            -540.00    -5440.00
04140            -540.00    -5440.00
04141            -540.00    -5440.00
04142            -560.00    -5520.00
04143            -540.00    -5520.00
04144            -540.00    -5600.00
04145            -540.00    -5600.00
04146            -540.00    -5760.00
04147            -580.00    -5760.00
04148            -580.00    -5760.00
04149            -560.00    -5760.00
04150            -580.00    -5840.00
04151            -580.00    -5840.00
04152            -600.00    -5840.00
04153            -580.00    -5920.00
04154            -600.00    -5840.00
04155            -600.00    -5920.00
04156            -600.00    -5920.00
04157            -600.00    -5920.00
04158            -600.00    -5920.00
04159            -620.00    -6080.00
04160            -620.00    -6080.00
04161            -600.00    -6160.00
04162            -620.00    -6080.00
04163            -620.00    -6160.00
04164            -620.00    -6160.00
04165            -620.00    -6160.00
04166            -620.00    -6240.00
04167            -620.00    -6160.00
04168            -640.00    -6240.00
04169            -620.00    -6240.00
04170            -620.00    -6240.00
04171            -660.00    -6320.00
04172            -640.00    -6320.00
04173            -660.00    -6400.00
04174            -660.00    -6480.00
04175            -660.00    -6400.00
04176            -660.00    -6480.00
04177            -680.00    -6480.00
04178            -660.00    -6400.00
04179            -660.00    -6480.00
04180            -680.00    -6480.00
04181            -680.00    -6560.00
04182            -680.00    -6560.00
04183            -680.00    -6640.00
04184            -680.00    -6560.00
04185            -680.00    -6640.00
04186            -700.00    -6640.00
04187            -700.00    -6720.00
04188            -700.00    -6720.00
04189            -680.00    -6720.00
04190            -680.00    -6720.00
04191            -700.00    -6720.00
04192            -700.00    -6800.00
04193            -700.00    -6800.00
04194            -700.00    -6800.00
04195            -700.00    -6800.00
04196            -700.00    -6880.00
04197            -740.00    -6800.00
04198            -700.00    -6880.00
04199            -700.00    -6880.00
04200            -720.00    -6880.00
04201            -720.00    -6880.00
04202            -700.00    -6960.00
04203            -720.00    -6960.00
04204            -740.00    -7040.00
04205            -740.00    -6960.00
04206            -740.00    -7040.00
04207            -740.00    -7040.00
04208            -760.00    -7040.00
04209            -760.00    -6960.00
04210            -760.00    -7040.00
04211            -760.00    -7120.00
04212            -760.00    -7040.00
04213            -760.00    -7120.00
04214            -740.00    -7120.00
04215            -760.00    -7120.00
04216            -760.00    -7120.00
04217            -760.00    -7120.00
04218            -760.00    -7200.00
04219            -760.00    -7200.00
04220            -780.00    -7200.00
04221            -760.00    -7200.00
04222            -760.00    -7200.00
04223            -760.00    -7200.00
04224            -760.00    -7200.00
04225            -780.00    -7280.00
04226            -780.00    -7200.00
04227            -760.00    -7360.00
04228            -780.00    -7360.00
04229            -780.00    -7280.00
04230            -780.00    -7360.00
04231            -780.00    -7360.00
04232            -780.00    -7280.00
04233            -780.00    -7280.00
04234            -820.00    -7280.00
04235            -780.00    -7360.00
04236            -780.00    -7360.00
04237            -820.00    -7360.00
04238            -780.00    -7360.00
04239            -780.00    -7440.00
04240            -780.00    -7360.00
04241            -820.00    -7360.00
04242            -820.00    -7440.00
04243            -800.00    -7360.00
04244            -800.00    -7360.00
04245            -800.00    -7360.00
04246            -780.00    -7360.00
04247            -780.00    -7440.00
04248            -780.00    -7440.00
04249            -780.00    -7440.00
04250            -820.00    -7440.00
04251            -800.00    -7440.00
04252            -800.00    -7440.00
04253            -820.00    -7440.00
04254            -800.00    -7440.00
04255            -820.00    -7360.00
04256            -820.00    -7440.00
04257            -800.00    -7440.00
04258            -820.00    -7440.00
04259            -820.00    -7360.00
04260            -800.00    -7440.00
04261            -820.00    -7440.00
04262            -820.00    -7440.00
04263            -820.00    -7360.00
04264            -820.00    -7440.00
04265            -820.00    -7360.00
04266            -820.00    -7440.00
04267            -840.00    -7360.00
04268            -840.00    -7360.00
04269            -820.00    -7360.00
04270            -840.00    -7360.00
04271            -820.00    -7360.00
04272            -820.00    -7360.00
04273            -840.00    -7360.00
04274            -840.00    -7360.00
04275            -840.00    -7440.00
04276            -820.00    -7360.00
04277            -820.00    -7440.00
04278            -840.00    -7360.00
04279            -820.00    -7360.00
04280            -840.00    -7360.00
04281            -840.00    -7360.00
04282            -840.00    -7360.00
04283            -840.00    -7360.00
04284            -820.00    -7360.00
04285            -820.00    -7360.00
04286            -840.00    -7360.00
04287            -840.00    -7360.00
04288            -820.00    -7200.00
04289            -840.00    -7360.00
04290            -840.00    -7200.00
04291            -840.00    -7280.00
04292            -840.00    -7280.00
04293            -820.00    -7200.00
04294            -840.00    -7200.00
04295            -820.00    -7200.00
04296            -840.00    -7200.00
04297            -820.00    -7200.00
04298            -820.00    -7200.00
04299            -820.00    -7200.00
04300            -820.00    -7200.00
04301            -820.00    -7120.00
04302            -820.00    -7200.00
04303            -820.00    -7120.00
04304            -820.00    -7120.00
04305            -820.00    -7120.00
04306            -820.00    -7040.00
04307            -820.00    -6960.00
04308            -800.00    -7120.00
04309            -820.00    -6960.00
04310            -780.00    -7040.00
04311            -820.00    -6960.00
04312            -820.00    -7040.00
04313            -800.00    -6960.00
04314            -780.00    -7040.00
04315            -820.00    -6880.00
04316            -780.00    -6880.00
04317            -780.00    -6880.00
04318            -780.00    -6880.00
04319            -780.00    -6880.00
04320            -780.00    -6880.00
04321            -780.00    -6880.00
04322            -780.00    -6800.00
04323            -760.00    -6800.00
04324            -780.00    -6800.00
04325            -780.00    -6800.00
04326            -760.00    -6800.00
04327            -780.00    -6720.00
04328            -780.00    -6720.00
04329            -760.00    -6720.00
04330            -760.00    -6720.00
04331            -780.00    -6720.00
04332            -760.00    -6720.00
04333            -780.00    -6560.00
04334            -760.00    -6640.00
04335            -760.00    -6560.00
04336            -760.00    -6560.00
04337            -760.00    -6560.00
04338            -760.00    -6560.00
04339            -780.00    -6480.00
04340            -760.00    -6480.00
04341            -760.00    -6480.00
04342            -760.00    -6480.00
04343            -760.00    -6400.00
04344            -760.00    -6400.00
04345            -760.00    -6400.00
04346            -760.00    -6400.00
04347            -760.00    -6320.00
04348            -760.00    -6240.00
04349            -760.00    -6240.00
04350            -740.00    -6240.00
04351            -740.00    -6240.00
04352            -760.00    -6240.00
04353            -740.00    -6160.00
04354            -760.00    -6160.00
04355            -740.00    -6160.00
04356            -740.00    -6080.00
04357            -740.00    -6080.00
04358            -740.00    -6080.00
04359            -720.00    -6080.00
04360            -700.00    -6000.00
04361            -740.00    -5920.00
04362            -720.00    -5920.00
04363            -720.00    -5920.00
04364            -700.00    -5840.00
04365            -700.00    -5840.00
04366            -700.00    -5840.00
04367            -700.00    -5840.00
04368            -700.00    -5760.00
04369            -700.00    -5760.00
04370            -700.00    -5760.00
04371            -680.00    -5600.00
04372            -700.00    -5600.00
04373            -680.00    -5600.00
04374            -680.00    -5600.00
04375            -680.00    -5600.00
04376            -680.00    -5520.00
04377            -680.00    -5440.00
04378            -680.00    -5440.00
04379            -660.00    -5440.00
04380            -660.00    -5440.00
04381            -660.00    -5440.00
04382            -660.00    -5360.00
04383            -660.00    -5280.00
04384            -660.00    -5280.00
04385            -660.00    -5200.00
04386            -640.00    -5200.00
04387            -640.00    -5200.00
04388            -640.00    -5120.00
04389            -620.00    -5200.00
04390            -620.00    -5120.00
04391            -620.00    -5120.00
04392            -620.00    -5120.00
04393            -620.00    -4960.00
04394            -620.00    -4960.00
04395            -620.00    -4960.00
04396            -600.00    -4880.00
04397            -600.00    -4800.00
04398            -620.00    -4800.00
04399            -600.00    -4800.00
04400            -620.00    -4800.00
04401            -600.00    -4640.00
04402            -600.00    -4640.00
04403            -600.00    -4640.00
04404            -600.00    -4640.00
04405            -600.00    -4480.00
04406            -600.00    -4560.00
04407            -600.00    -4400.00
04408            -580.00    -4400.00
04409            -580.00    -4400.00
04410            -580.00    -4400.00
04411            -580.00    -4320.00
04412            -580.00    -4320.00
04413            -560.00    -4240.00
04414            -540.00    -4240.00
04415            -540.00    -4160.00
04416            -540.00    -4160.00
04417            -560.00    -4160.00
04418            -540.00    -4160.00
04419            -540.00    -4000.00
04420            -540.00    -4000.00
04421            -540.00    -3920.00
04422            -540.00    -3920.00
04423            -520.00    -3840.00
04424            -500.00    -3840.00
04425            -520.00    -3840.00
04426            -500.00    -3760.00
04427            -520.00    -3760.00
04428            -500.00    -3680.00
04429            -500.00    -3680.00
04430            -500.00    -3600.00
04431            -480.00    -3600.00
04432            -500.00    -3600.00
04433            -480.00    -3520.00
04434            -460.00    -3440.00
04435            -460.00    -3520.00
04436            -480.00    -3360.00
04437            -460.00    -3360.00
04438            -460.00    -3280.00
04439            -440.00    -3280.00
04440            -440.00    -3280.00
04441            -440.00    -3200.00
04442            -440.00    -3120.00
04443            -440.00    -3120.00
04444            -440.00    -3040.00
04445            -440.00    -3040.00
04446            -440.00    -2960.00
04447            -420.00    -2880.00
04448            -440.00    -2960.00
04449            -420.00    -2880.00
04450            -420.00    -2720.00
04451            -380.00    -2720.00
04452            -420.00    -2800.00
04453            -380.00    -2640.00
04454            -380.00    -2640.00
04455            -380.00    -2640.00
04456            -380.00    -2560.00
04457            -380.00    -2560.00
04458            -360.00    -2400.00
04459            -380.00    -2400.00
04460            -360.00    -2400.00
04461            -360.00    -2320.00
04462            -340.00    -2320.00
04463            -340.00    -2240.00
04464            -340.00    -2240.00
04465            -340.00    -2160.00
04466            -340.00    -2080.00
04467            -340.00    -2080.00
04468            -320.00    -2000.00
04469            -340.00    -2000.00
04470            -300.00    -1840.00
04471            -300.00    -1840.00
04472            -300.00    -1840.00
04473            -300.00    -1760.00
04474            -300.00    -1760.00
04475            -300.00    -1680.00
04476            -300.00    -1600.00
04477            -280.00    -1680.00
04478            -300.00    -1600.00
04479            -280.00    -1600.00
04480            -280.00    -1440.00
04481            -280.00    -1440.00
04482            -280.00    -1440.00
04483            -260.00    -1360.00
04484            -260.00    -1360.00
04485            -260.00    -1280.00
04486            -260.00    -1280.00
04487            -220.00    -1200.00
04488            -220.00    -1120.00
04489            -240.00    -1120.00
04490            -220.00    -1040.00
04491            -220.00    -1040.00
04492            -220.00     -960.00
04493            -220.00     -960.00
04494            -220.00     -880.00
04495            -200.00     -800.00
04496            -200.00     -800.00
04497            -180.00     -800.00
04498            -180.00     -720.00
04499            -180.00     -640.00
04500            -180.00     -640.00
04501            -180.00     -480.00
04502            -180.00     -560.00
04503            -140.00     -480.00
04504            -140.00     -400.00
04505            -140.00     -320.00
04506            -120.00     -320.00
04507            -120.00     -320.00
04508            -120.00     -320.00
04509            -120.00     -160.00
04510            -120.00     -160.00
04511            -120.00     -160.00
04512            -120.00      -80.00
04513            -120.00        0.00
04514            -120.00        0.00
04515            -100.00       80.00
04516            -100.00      160.00
04517             -60.00      160.00
04518            -100.00      240.00
04519             -60.00      240.00
04520             -60.00      320.00
04521             -60.00      320.00
04522             -60.00      320.00
04523             -60.00      480.00
04524             -40.00      480.00
04525             -40.00      640.00
04526             -40.00      720.00
04527             -60.00      560.00
04528             -40.00      560.00
04529             -20.00      800.00
04530             -20.00      880.00
04531             -40.00      800.00
04532             -40.00      800.00
04533               0.00     1120.00
04534              20.00     1040.00
04535             -20.00      800.00
04536              20.00     1120.00
04537              20.00     1200.00
04538              20.00     1040.00
04539              20.00     1120.00
04540              20.00     1280.00
04541              40.00     1280.00
04542              40.00     1280.00
04543              40.00     1440.00
04544              40.00     1360.00
04545              40.00     1440.00
04546              60.00     1600.00
04547              60.00     1520.00
04548              80.00     1600.00
04549              80.00     1680.00
04550              60.00     1600.00
04551              80.00     1760.00
04552             100.00     1840.00
04553             100.00     1760.00
04554             100.00     1840.00
04555             100.00     1920.00
04556             100.00     1920.00
04557             120.00     2000.00
04558             120.00     2080.00
04559             120.00     2080.00
04560             140.00     2160.00
04561             120.00     2240.00
04562             140.00     2240.00
04563             160.00     2320.00
04564             140.00     2400.00
04565             160.00     2400.00
04566             180.00     2400.00
04567             160.00     2480.00
04568             180.00     2480.00
04569             180.00     2560.00
04570             200.00     2560.00
04571             200.00     2560.00
04572             180.00     2720.00
04573             200.00     2800.00
04574             200.00     2720.00
04575             200.00     2880.00
04576             200.00     2880.00
04577             200.00     2800.00
04578             220.00     2960.00
04579             220.00     3040.00
04580             220.00     3040.00
04581             220.00     3040.00
04582             240.00     3120.00
04583             260.00     3120.00
04584             260.00     3280.00
04585             260.00     3200.00
04586             280.00     3280.00
04587             260.00     3360.00
04588             260.00     3360.00
04589             280.00     3360.00
04590             260.00     3440.00
04591             280.00     3440.00
04592             280.00     3520.00
04593             280.00     3520.00
04594             300.00     3520.00
04595             280.00     3680.00
04596             300.00     3680.00
04597             280.00     3680.00
04598             300.00     3760.00
04599             320.00     3760.00
04600             300.00     3840.00
04601             340.00     3920.00
04602             300.00     3920.00
04603             340.00     4000.00
04604             340.00     4000.00
04605             340.00     4000.00
04606             340.00     4080.00
04607             360.00     4160.00
04608             340.00     4160.00
04609             360.00     4160.00
04610             360.00     4160.00
04611             360.00     4240.00
04612             360.00     4320.00
04613             380.00     4320.00
04614             380.00     4400.00
04615             380.00     4480.00
04616             380.00     4480.00
04617             400.00     4480.00
04618             380.00     4480.00
04619             420.00     4640.00
04620             420.00     4640.00
04621             400.00     4640.00
04622             420.00     4720.00
04623             420.00     4800.00
04624             440.00     4800.00
04625             420.00     4800.00
04626             440.00     4800.00
04627             420.00     4960.00
04628             440.00     4880.00
04629             440.00     4960.00
04630             440.00     4960.00
04631             460.00     5040.00
04632             460.00     5040.00
04633             460.00     5040.00
04634             460.00     5120.00
04635             480.00     5120.00
04636             500.00     5120.00
04637             500.00     5280.00
04638             500.00     5280.00
04639             500.00     5280.00
04640             500.00     5280.00
04641             520.00     5360.00
04642             520.00     5360.00
04643             520.00     5360.00
04644             520.00     5440.00
04645             520.00     5440.00
04646             520.00     5520.00
04647             540.00     5520.00
04648             520.00     5600.00
04649             540.00     5600.00
04650             520.00     5680.00
04651             520.00     5680.00
04652             540.00     5680.00
04653             540.00     5760.00
04654             560.00     5760.00
04655             560.00     5840.00
04656             580.00     5840.00
04657             580.00     5840.00
04658             560.00     5840.00
04659             580.00     5920.00
04660             560.00     5920.00
04661             580.00     6000.00
04662             580.00     5920.00
04663             580.00     6000.00
04664             580.00     6080.00
04665             580.00     6080.00
04666             580.00     6080.00
04667             600.00     6080.00
04668             580.00     6160.00
04669             580.00     6240.00
04670             600.00     6160.00
04671             620.00     6240.00
04672             600.00     6240.00
04673             600.00     6320.00
04674             620.00     6320.00
04675             620.00     6400.00
04676             600.00     6400.00
04677             620.00     6400.00
04678             620.00     6400.00
04679             640.00     6400.00
04680             640.00     6400.00
04681             620.00     6480.00
04682             640.00     6480.00
04683             660.00     6560.00
04684             640.00     6560.00
04685             660.00     6560.00
04686             660.00     6560.00
04687             660.00     6640.00
04688             660.00     6640.00
04689             660.00     6640.00
04690             680.00     6640.00
04691             680.00     6720.00
04692             680.00     6720.00
04693             680.00     6720.00
04694             680.00     6720.00
04695             680.00     6720.00
04696             680.00     6800.00
04697             680.00     6880.00
04698             680.00     6800.00
04699             680.00     6880.00
04700             680.00     6880.00
04701             700.00     6880.00
04702             700.00     6880.00
04703             700.00     6960.00
04704             700.00     6880.00
04705             700.00     6960.00
04706             740.00     7040.00
04707             720.00     6960.00
04708             700.00     6960.00
04709             720.00     6960.00
04710             740.00     7040.00
04711             740.00     7040.00
04712             740.00     7040.00
04713             740.00     7040.00
04714             740.00     7040.00
04715             740.00     7200.00
04716             740.00     7040.00
04717             740.00     7120.00
04718             740.00     7200.00
04719             760.00     7200.00
04720             760.00     7200.00
04721             740.00     7200.00
04722             760.00     7200.00
04723             760.00     7200.00
04724             760.00     7200.00
04725             760.00     7280.00
04726             760.00     7280.00
04727             760.00     7280.00
04728             760.00     7280.00
04729             760.00     7280.00
04730             760.00     7280.00
04731             760.00     7360.00
04732             760.00     7280.00
04733             760.00     7280.00
04734             760.00     7360.00
04735             760.00     7360.00
04736             760.00     7360.00
04737             780.00     7360.00
04738             780.00     7360.00
04739             760.00     7440.00
04740             780.00     7360.00
04741             780.00     7440.00
04742             780.00     7360.00
04743             780.00     7360.00
04744             780.00     7440.00
04745             780.00     7440.00
04746             780.00     7440.00
04747             780.00     7440.00
04748             800.00     7440.00
04749             780.00     7520.00
04750             800.00     7520.00
04751             820.00     7520.00
04752             780.00     7440.00
04753             780.00     7520.00
04754             800.00     7520.00
04755             780.00     7440.00
04756             820.00     7520.00
04757             800.00     7520.00
04758             820.00     7520.00
04759             820.00     7520.00
04760             820.00     7520.00
04761             820.00     7520.00
04762             780.00     7520.00
04763             820.00     7520.00
04764             820.00     7520.00
04765             820.00     7520.00
04766             820.00     7520.00
04767             820.00     7520.00
04768             800.00     7520.00
04769             820.00     7520.00
04770             820.00     7520.00
04771             820.00     7520.00
04772             820.00     7520.00
04773             820.00     7520.00
04774             820.00     7520.00
04775             820.00     7520.00
04776             820.00     7520.00
04777             820.00     7520.00
04778             820.00     7520.00
04779             820.00     7520.00
04780             820.00     7520.00
04781             820.00     7520.00
04782             820.00     7520.00
04783             820.00     7440.00
04784             820.00     7520.00
04785             820.00     7360.00
04786             820.00     7440.00
04787             840.00     7520.00
04788             820.00     7360.00
04789             820.00     7440.00
04790             820.00     7440.00
04791             820.00     7360.00
04792             820.00     7360.00
04793             820.00     7360.00
04794             820.00     7440.00
04795             820.00     7360.00
04796             820.00     7360.00
04797             820.00     7360.00
04798             820.00     7360.00
04799             820.00     7360.00
04800             820.00     7360.00
04801             780.00     7360.00
04802             800.00     7360.00
04803             820.00     7360.00
04804             820.00     7360.00
04805             800.00     7280.00
04806             820.00     7280.00
04807             820.00     7280.00
04808             820.00     7280.00
04809             820.00     7200.00
04810             800.00     7280.00
04811             820.00     7280.00
04812             800.00     7200.00
04813             820.00     7200.00
04814             780.00     7280.00
04815             820.00     7120.00
04816             820.00     7200.00
04817             820.00     7120.00
04818             820.00     7120.00
04819             820.00     7040.00
04820             800.00     7040.00
04821             820.00     7120.00
04822             780.00     7040.00
04823             800.00     7040.00
04824             780.00     7040.00
04825             780.00     7040.00
04826             800.00     7040.00
04827             780.00     6960.00
04828             780.00     6960.00
04829             820.00     6960.00
04830             800.00     6960.00
04831             800.00     6960.00
04832             780.00     6880.00
04833             780.00     6880.00
04834             780.00     6880.00
04835             780.00     6880.00
04836             780.00     6800.00
04837             780.00     6800.00
04838             780.00     6800.00
04839             780.00     6720.00
04840             780.00     6720.00
04841             780.00     6720.00
04842             760.00     6640.00
04843             780.00     6720.00
04844             760.00     6640.00
04845             780.00     6640.00
04846             760.00     6640.00
04847             760.00     6560.00
04848             760.00     6640.00
04849             760.00     6560.00
04850             780.00     6560.00
04851             760.00     6480.00
04852             760.00     6480.00
04853             760.00     6480.00
04854             740.00     6400.00
04855             740.00     6400.00
04856             740.00     6400.00
04857             740.00     6320.00
04858             740.00     6400.00
04859             740.00     6320.00
04860             740.00     6320.00
04861             740.00     6240.00
04862             720.00     6240.00
04863             740.00     6240.00
04864             740.00     6240.00
04865             700.00     6240.00
04866             720.00     6160.00
04867             720.00     6080.00
04868             700.00     6080.00
04869             700.00     6080.00
04870             720.00     6000.00
04871             700.00     6000.00
04872             680.00     6000.00
04873             700.00     5920.00
04874             700.00     5920.00
04875             680.00     5920.00
04876             680.00     5920.00
04877             680.00     5840.00
04878             680.00     5840.00
04879             680.00     5760.00
04880             680.00     5840.00
04881             680.00     5760.00
04882             680.00     5680.00
04883             680.00     5680.00
04884             660.00     5680.00
04885             680.00     5680.00
04886             680.00     5600.00
04887             660.00     5520.00
04888             660.00     5520.00
04889             660.00     5440.00
04890             660.00     5440.00
04891             660.00     5440.00
04892             660.00     5360.00
04893             660.00     5360.00
04894             660.00     5280.00
04895             660.00     5280.00
04896             640.00     5200.00
04897             640.00     5200.00
04898             640.00     5200.00
04899             620.00     5120.00
04900             620.00     5120.00
04901             620.00     5040.00
04902             620.00     5040.00
04903             600.00     4960.00
04904             620.00     4960.00
04905             600.00     4960.00
04906             600.00     4960.00
04907             600.00     4880.00
04908             600.00     4800.00
04909             580.00     4800.00
04910             600.00     4800.00
04911             600.00     4800.00
04912             580.00     4720.00
04913             580.00     4720.00
04914             580.00     4640.00
04915             580.00     4560.00
04916             580.00     4560.00
04917             580.00     4480.00
04918             560.00     4480.00
04919             560.00     4400.00
04920             560.00     4400.00
04921             540.00     4320.00
04922             540.00     4320.00
04923             540.00     4320.00
04924             540.00     4320.00
04925             540.00     4160.00
04926             520.00     4160.00
04927             520.00     4160.00
04928             520.00     4080.00
04929             520.00     4080.00
04930             520.00     4000.00
04931             520.00     4000.00
04932             520.00     4000.00
04933             500.00     3840.00
04934             500.00     3840.00
04935             500.00     3840.00
04936             500.00     3760.00
04937             500.00     3760.00
04938             500.00     3680.00
04939             480.00     3680.00
04940             460.00     3600.00
04941             460.00     3600.00
04942             460.00     3520.00
04943             460.00     3520.00
04944             460.00     3440.00
04945             460.00     3440.00
04946             440.00     3360.00
04947             440.00     3360.00
04948             440.00     3360.00
04949             440.00     3280.00
04950             420.00     3280.00
04951             440.00     3200.00
04952             420.00     3200.00
04953             420.00     3120.00
04954             420.00     3040.00
04955             420.00     3040.00
04956             400.00     2960.00
04957             420.00     2880.00
04958             420.00     2880.00
04959             420.00     2880.00
04960             380.00     2800.00
04961             380.00     2720.00
04962             380.00     2720.00
04963             380.00     2640.00
04964             380.00     2640.00
04965             360.00     2560.00
04966             360.00     2480.00
04967             360.00     2480.00
04968             360.00     2480.00
04969             360.00     2400.00
04970             360.00     2400.00
04971             340.00     2320.00
04972             340.00     2240.00
04973             340.00     2240.00
04974             340.00     2160.00
04975             340.00     2160.00
04976             340.00     2160.00
04977             340.00     2080.00
04978             340.00     2080.00
04979             300.00     1920.00
04980             300.00     1920.00
04981             300.00     1920.00
04982             300.00     1840.00
04983             300.00     1840.00
04984             300.00     1760.00
04985             280.00     1760.00
04986             280.00     1600.00
04987             260.00     1600.00
04988             260.00     1600.00
04989             260.00     1600.00
04990             260.00     1520.00
04991             260.00     1440.00
04992             260.00     1440.00
04993             240.00     1440.00
04994             240.00     1360.00
04995             220.00     1280.00
04996             220.00     1200.00
04997             220.00     1200.00
04998             200.00     1120.00
04999             200.00     1120.00
05000             200.00     1040.00
